06/19/2020 13:45:25
Tempo T_f_e T_f_s AR AR T_q_e T_q_s Corrente_P_f Corrente_P_q Corrente_P_RESERVA Corrente_eletromag_f Corrente_eletromag_q AR AR T_1 T_2 T_3 T_4 T_5 T_6 T_7 T_8 T_9 T_10 T_11 T_12 T_13 T_14 T_15 T_16 Velocidade_f_(m/s) Vazao_f_(L/s) q_f_(W) AR AR AR Velocidade_q_(m/s) Vazao_q_(L/s) q_q_(W) DeltaP_q_(Pa) DeltaP_f_(Pa) DeltaP_f_(Psi) AR
0,008000  	21,791065  	32,792136  	24,214007  	1256,670793  	70,352531  	65,599468  	0,005699  	0,011487  	0,003966  	0,004204  	0,004465  	0,000000  	-0,000000  	26,386383  	23,802604  	24,778481  	25,228023  	29,744329  	27,885185  	29,185914  	29,342861  	33,961081  	32,406505  	35,262061  	60,080391  	26,380809  	25,149991  	28,328781  	64,942918  	0,172173  	0,087241  	-4013,101953  	25559,182589  	-0,018534  	-0,049997  	0,394913  	0,200105  	-3,982710  	16121,044511  	37543,122859  	5,445170  	-0,047949  
2,553000  	21,815808  	32,781727  	24,213454  	1256,670793  	70,352407  	65,598597  	0,005699  	0,011435  	0,003967  	0,004230  	0,004440  	-0,000001  	-0,000000  	26,374117  	23,802945  	24,779769  	25,237502  	29,743628  	27,880003  	29,187135  	29,360683  	33,959943  	32,398549  	35,255114  	60,085632  	26,372034  	25,170431  	28,325762  	64,943633  	0,192729  	0,097657  	-4477,864365  	25566,640919  	-0,018539  	-0,050013  	0,374840  	0,189934  	-3,780868  	16009,429318  	37543,539463  	5,445230  	-0,047963  
3,558000  	21,809085  	32,777384  	24,213362  	1256,670793  	70,352158  	65,594242  	0,005703  	0,011469  	0,003965  	0,004155  	0,004461  	0,000001  	-0,000000  	26,375641  	23,787792  	24,784159  	25,226744  	29,729535  	27,880127  	29,183297  	29,341440  	33,955357  	32,392407  	35,259057  	60,069360  	26,375725  	25,161340  	28,330319  	64,943073  	0,132354  	0,067065  	-3075,772589  	25555,267120  	-0,018531  	-0,049988  	0,391347  	0,198298  	-3,950774  	16083,269717  	37611,248287  	5,455050  	-0,047941  
4,555000  	21,802086  	32,776399  	24,213116  	57,696365  	70,351597  	65,594367  	0,005701  	0,011466  	0,003966  	0,004166  	0,004428  	0,000000  	-0,000000  	26,378733  	23,804025  	24,779993  	25,224074  	29,736117  	27,885495  	29,186270  	29,342254  	33,957906  	32,399284  	35,263543  	60,074935  	26,387325  	25,186551  	28,339728  	64,953567  	0,141499  	0,071699  	-3290,114680  	1815,672283  	-0,053909  	-0,049999  	0,365494  	0,185199  	-3,689255  	16076,639531  	37585,439991  	5,451307  	-0,047950  
5,557000  	21,817711  	32,779448  	24,211334  	-242,047242  	70,349915  	65,594771  	0,005700  	0,011460  	0,003966  	0,004237  	0,004471  	-0,000001  	-0,000000  	26,387026  	23,805993  	24,790682  	25,236696  	29,745351  	27,884640  	29,198457  	29,356563  	33,958567  	32,408248  	35,267818  	60,088400  	26,394539  	25,188819  	28,334457  	64,952249  	0,198960  	0,100814  	-4620,870528  	-27065,419694  	-0,103132  	-0,050014  	0,399397  	0,202377  	-4,029696  	16063,936628  	37558,791425  	5,447442  	-0,047964  
6,557000  	21,838463  	32,783267  	24,209491  	357,439972  	70,348357  	65,596513  	0,005702  	0,011440  	0,003966  	0,004165  	0,004458  	0,000001  	-0,000000  	26,381179  	23,805008  	24,784779  	25,235149  	29,747154  	27,893928  	29,193544  	29,358918  	33,966548  	32,399198  	35,273271  	60,087725  	26,389349  	25,194472  	28,344618  	64,958351  	0,140148  	0,071014  	-3249,924702  	12531,516856  	-0,036485  	-0,049983  	0,388630  	0,196922  	-3,918347  	16020,517122  	37603,996544  	5,453999  	-0,047937  
7,555000  	21,840858  	32,788625  	24,207648  	1256,670793  	70,347765  	65,596918  	0,005706  	0,011465  	0,003966  	0,004180  	0,004445  	0,000000  	-0,000000  	26,381688  	23,803274  	24,782088  	25,241886  	29,746542  	27,889928  	29,192002  	29,361835  	33,965426  	32,399889  	35,270508  	60,086662  	26,401830  	25,193536  	28,345938  	64,957495  	0,152780  	0,077415  	-3543,802136  	25560,234887  	-0,018535  	-0,049999  	0,378582  	0,191830  	-3,816235  	16073,878369  	37690,318410  	5,466519  	-0,047950  
8,555000  	21,822070  	32,788502  	24,207156  	1256,670793  	70,349074  	65,597540  	0,005700  	0,011439  	0,003967  	0,004144  	0,004464  	0,000000  	-0,000000  	26,379009  	23,806186  	24,780617  	25,239253  	29,747558  	27,882008  	29,188172  	29,356400  	33,967645  	32,397549  	35,269211  	60,085711  	26,400578  	25,186249  	28,336631  	64,946973  	0,123581  	0,062619  	-2871,405681  	25560,735628  	-0,018535  	-0,050000  	0,393502  	0,199390  	-3,967203  	16016,945933  	37548,997688  	5,446022  	-0,047951  
9,558000  	21,844542  	32,792875  	24,205682  	1256,670793  	70,351223  	65,598411  	0,005697  	0,011462  	0,003966  	0,004172  	0,004484  	0,000001  	-0,000000  	26,379419  	23,797628  	24,782002  	25,233194  	29,740220  	27,888021  	29,189013  	29,356410  	33,964371  	32,398869  	35,267596  	60,083047  	26,413361  	25,188844  	28,344884  	64,954424  	0,146210  	0,074086  	-3391,595601  	25557,592007  	-0,018533  	-0,049993  	0,409370  	0,207431  	-4,128291  	16066,981477  	37483,823797  	5,436569  	-0,047945  
10,557000  	21,871188  	32,797187  	24,204453  	1256,670793  	70,352033  	65,594740  	0,005695  	0,011461  	0,003965  	0,004214  	0,004436  	0,000002  	-0,000000  	26,387358  	23,808099  	24,785199  	25,235061  	29,736494  	27,888588  	29,192079  	29,363857  	33,966588  	32,403582  	35,272034  	60,088915  	26,420636  	25,203138  	28,344126  	64,960210  	0,179739  	0,091075  	-4160,840197  	25549,858192  	-0,018527  	-0,049976  	0,371803  	0,188395  	-3,752981  	16065,679068  	37445,277289  	5,430978  	-0,047931  
11,559000  	21,853782  	32,800421  	24,202978  	1256,670793  	70,353622  	65,595549  	0,005697  	0,011475  	0,003966  	0,004196  	0,004500  	0,000000  	-0,000000  	26,380751  	23,808735  	24,789015  	25,230020  	29,737592  	27,890741  	29,191417  	29,357071  	33,970289  	32,399097  	35,269447  	60,093349  	26,424192  	25,213257  	28,348172  	64,958991  	0,165056  	0,083635  	-3828,156157  	25560,521105  	-0,018535  	-0,049999  	0,421936  	0,213798  	-4,259727  	16094,859099  	37499,965457  	5,438910  	-0,047950  
12,555000  	21,830758  	32,801714  	24,202364  	1256,670793  	70,357983  	65,601646  	0,005699  	0,011475  	0,003965  	0,004206  	0,004419  	0,000000  	-0,000000  	26,375659  	23,802634  	24,787834  	25,230261  	29,748101  	27,886779  	29,193636  	29,352239  	33,965990  	32,400179  	35,267717  	60,088435  	26,427017  	25,227837  	28,346026  	64,956380  	0,173782  	0,088057  	-4039,504079  	25559,037957  	-0,018534  	-0,049996  	0,358029  	0,181416  	-3,613220  	16094,338419  	37530,419952  	5,443327  	-0,047948  
13,557000  	21,819891  	32,803686  	24,201412  	57,696365  	70,355989  	65,606809  	0,005703  	0,011481  	0,003967  	0,004175  	0,004528  	-0,000001  	-0,000000  	26,377470  	23,806057  	24,781441  	25,232577  	29,752593  	27,884318  	29,192611  	29,358672  	33,960932  	32,401830  	35,269186  	60,086117  	26,422712  	25,253625  	28,345702  	64,953429  	0,148381  	0,075186  	-3453,100600  	1816,673849  	-0,053920  	-0,050009  	0,444429  	0,225196  	-4,478432  	16108,057215  	37622,715503  	5,456714  	-0,047959  
14,557000  	21,810129  	32,810523  	24,200552  	1256,670793  	70,356488  	65,605814  	0,005708  	0,011458  	0,003966  	0,004182  	0,004484  	0,000002  	-0,000000  	26,381693  	23,807408  	24,780147  	25,231174  	29,747669  	27,882241  	29,188994  	29,359369  	33,963603  	32,403075  	35,268410  	60,085786  	26,425026  	25,280735  	28,349887  	64,956970  	0,154088  	0,078077  	-3591,329447  	25552,096101  	-0,018529  	-0,049980  	0,409382  	0,207437  	-4,126563  	16059,140851  	37724,458796  	5,471470  	-0,047935  
15,555000  	21,778724  	32,816344  	24,200275  	1256,670793  	70,358575  	65,605751  	0,005709  	0,011528  	0,003966  	0,004183  	0,004490  	-0,000000  	-0,000000  	26,381852  	23,806292  	24,783050  	25,229205  	29,747481  	27,882684  	29,185926  	29,357169  	33,966361  	32,405132  	35,266855  	60,086412  	26,428138  	25,301920  	28,344478  	64,961539  	0,154808  	0,078442  	-3620,340764  	25561,701934  	-0,018535  	-0,050001  	0,414562  	0,210062  	-4,180670  	16209,291342  	37742,732906  	5,474121  	-0,047953  
16,555000  	21,773690  	32,819177  	24,199722  	57,696365  	70,354587  	65,601459  	0,005696  	0,011446  	0,003966  	0,004188  	0,004465  	0,000000  	-0,000000  	26,381458  	23,807227  	24,786583  	25,232940  	29,747158  	27,890388  	29,189871  	29,356718  	33,966827  	32,399386  	35,265606  	60,088543  	26,428243  	25,311949  	28,337868  	64,957733  	0,158897  	0,080514  	-3718,611238  	1816,449164  	-0,053910  	-0,049999  	0,394177  	0,199732  	-3,975344  	16032,377456  	37467,809238  	5,434246  	-0,047951  
17,558000  	21,767458  	32,817514  	24,198555  	-242,047242  	70,349884  	65,604694  	0,005698  	0,011460  	0,003965  	0,004187  	0,004495  	-0,000001  	-0,000000  	26,383021  	23,802837  	24,786080  	25,236920  	29,738419  	27,887643  	29,193773  	29,354591  	33,961552  	32,391823  	35,264120  	60,083151  	26,431112  	25,314545  	28,332951  	64,951409  	0,158152  	0,080137  	-3702,709724  	-27061,513207  	-0,103122  	-0,050007  	0,418485  	0,212050  	-4,213451  	16062,929225  	37502,839322  	5,439327  	-0,047957  
18,558000  	21,778694  	32,812093  	24,198678  	357,439972  	70,348077  	65,605876  	0,005698  	0,011481  	0,003965  	0,004170  	0,004460  	0,000001  	-0,000000  	26,379325  	23,801866  	24,779073  	25,229178  	29,736368  	27,884247  	29,185823  	29,357317  	33,956069  	32,392415  	35,268307  	60,084247  	26,428404  	25,324599  	28,332529  	64,951643  	0,144453  	0,073196  	-3376,892156  	12532,851907  	-0,036488  	-0,049987  	0,390644  	0,197942  	-3,930656  	16108,411645  	37503,587797  	5,439436  	-0,047940  
19,558000  	21,801902  	32,804794  	24,198770  	1256,670793  	70,349448  	65,606125  	0,005701  	0,011461  	0,003966  	0,004199  	0,004470  	-0,000001  	-0,000000  	26,389412  	23,809835  	24,786822  	25,235540  	29,745972  	27,891357  	29,193715  	29,354465  	33,972260  	32,402051  	35,278857  	60,095063  	26,439477  	25,339022  	28,344777  	64,961956  	0,167822  	0,085036  	-3912,318509  	25565,689094  	-0,018538  	-0,050010  	0,398587  	0,201967  	-4,011531  	16064,800420  	37569,870280  	5,449049  	-0,047960  
20,556000  	21,816944  	32,797464  	24,198831  	1256,670793  	70,353123  	65,603636  	0,005705  	0,011514  	0,003964  	0,004218  	0,004462  	0,000001  	-0,000000  	26,379053  	23,807597  	24,788644  	25,240627  	29,742000  	27,891060  	29,186967  	29,351649  	33,965174  	32,400562  	35,273369  	60,086007  	26,436817  	25,353404  	28,341626  	64,962058  	0,183412  	0,092936  	-4267,071824  	25557,967663  	-0,018533  	-0,049993  	0,392440  	0,198852  	-3,954796  	16180,170737  	37667,941805  	5,463273  	-0,047945  
21,557000  	21,807151  	32,790442  	24,198401  	1256,670793  	70,354463  	65,602392  	0,005700  	0,011469  	0,003965  	0,004181  	0,004476  	-0,000000  	-0,000001  	26,380906  	23,810137  	24,783914  	25,242494  	29,752631  	27,894576  	29,195018  	29,351625  	33,969441  	32,406127  	35,276357  	60,090218  	26,450094  	25,378325  	28,344413  	64,958285  	0,152883  	0,077467  	-3557,715061  	25562,606912  	-0,018536  	-0,050003  	0,402886  	0,204145  	-4,062271  	16083,428892  	37560,817959  	5,447736  	-0,047954  
22,556000  	21,793828  	32,788163  	24,198893  	1256,670793  	70,351784  	65,601770  	0,005706  	0,011489  	0,003967  	0,004158  	0,004469  	0,000001  	-0,000000  	26,389798  	23,815837  	24,798363  	25,239079  	29,746585  	27,900401  	29,202747  	29,365387  	33,976959  	32,411274  	35,276353  	60,097145  	26,450643  	25,405731  	28,351325  	64,960289  	0,134322  	0,068062  	-3128,929816  	25557,531405  	-0,018532  	-0,049992  	0,397683  	0,201509  	-4,008079  	16125,268672  	37687,960005  	5,466176  	-0,047945  
23,560000  	21,748425  	32,787147  	24,199077  	1256,670793  	70,353964  	65,604974  	0,005708  	0,011459  	0,003965  	0,004176  	0,004474  	-0,000000  	-0,000000  	26,384818  	23,802976  	24,782719  	25,228367  	29,740713  	27,895980  	29,189758  	29,357749  	33,976792  	32,404180  	35,266365  	60,087197  	26,450412  	25,412665  	28,339864  	64,950330  	0,149401  	0,075703  	-3494,247618  	25562,976203  	-0,018536  	-0,050004  	0,401975  	0,203684  	-4,050462  	16061,142924  	37719,191221  	5,470706  	-0,047955  
24,557000  	21,723990  	32,788625  	24,198831  	57,696365  	70,355024  	65,603107  	0,005693  	0,011455  	0,003965  	0,004151  	0,004509  	0,000000  	-0,000000  	26,382284  	23,809247  	24,787852  	25,219865  	29,740458  	27,894553  	29,186862  	29,360085  	33,969018  	32,395295  	35,275820  	60,078961  	26,448649  	25,437573  	28,337001  	64,951502  	0,129284  	0,065509  	-3030,850454  	1816,360252  	-0,053906  	-0,049995  	0,429702  	0,217733  	-4,332517  	16051,748746  	37395,708414  	5,423789  	-0,047947  
25,555000  	21,769975  	32,789549  	24,199046  	956,927186  	70,352687  	65,604601  	0,005702  	0,011446  	0,003966  	0,004198  	0,004452  	0,000002  	-0,000000  	26,373345  	23,796795  	24,777446  	25,224793  	29,729108  	27,884274  	29,182891  	29,347978  	33,958591  	32,388527  	35,254891  	60,075483  	26,446618  	25,432072  	28,340814  	64,946452  	0,166972  	0,084606  	-3898,415650  	22505,204053  	-0,022164  	-0,049979  	0,384000  	0,194576  	-3,868607  	16031,805840  	37589,528364  	5,451900  	-0,047934  
26,557000  	21,801165  	32,790288  	24,199538  	357,439972  	70,349136  	65,598255  	0,005683  	0,011459  	0,003963  	0,004212  	0,004440  	0,000001  	-0,000000  	26,389776  	23,821245  	24,796252  	25,229645  	29,754440  	27,898695  	29,196191  	29,365380  	33,969551  	32,401702  	35,271041  	60,104926  	26,457818  	25,446602  	28,350007  	64,957776  	0,178579  	0,090487  	-4157,893428  	12533,793877  	-0,036491  	-0,049991  	0,374803  	0,189915  	-3,778167  	16061,121700  	37184,165119  	5,393107  	-0,047944  
27,556000  	21,807703  	32,788256  	24,201012  	1256,670793  	70,345367  	65,594585  	0,005704  	0,011436  	0,003967  	0,004213  	0,004488  	-0,000001  	-0,000000  	26,376420  	23,800469  	24,783626  	25,244696  	29,742561  	27,888118  	29,183789  	29,356254  	33,973501  	32,399702  	35,267868  	60,082955  	26,473966  	25,433255  	28,341294  	64,943236  	0,179478  	0,090943  	-4175,558674  	25566,621516  	-0,018539  	-0,050012  	0,412525  	0,209030  	-4,158333  	16010,816620  	37639,365561  	5,459128  	-0,047962  
28,557000  	21,785539  	32,780125  	24,201995  	1256,670793  	70,346800  	65,591972  	0,005701  	0,011430  	0,003966  	0,004207  	0,004450  	0,000001  	-0,000000  	26,381561  	23,802297  	24,781237  	25,229911  	29,734673  	27,885302  	29,191122  	29,352773  	33,960154  	32,401509  	35,262562  	60,087007  	26,464857  	25,449591  	28,349639  	64,958467  	0,174738  	0,088541  	-4070,479333  	25556,356357  	-0,018532  	-0,049990  	0,382745  	0,193940  	-3,861428  	15997,368776  	37583,985406  	5,451096  	-0,047943  
29,557000  	21,764941  	32,773873  	24,202149  	956,927186  	70,349852  	65,595860  	0,005700  	0,011447  	0,003964  	0,004199  	0,004505  	0,000001  	-0,000000  	26,380274  	23,801081  	24,780174  	25,222816  	29,731273  	27,880934  	29,185492  	29,358009  	33,959695  	32,399363  	35,257923  	60,085726  	26,464685  	25,460236  	28,336867  	64,948584  	0,167673  	0,084961  	-3911,006287  	22508,627968  	-0,022168  	-0,049988  	0,426614  	0,216169  	-4,303261  	16036,010900  	37545,523631  	5,445518  	-0,047941  
30,556000  	21,775685  	32,778247  	24,203746  	357,439972  	70,354151  	65,594056  	0,005703  	0,011469  	0,003964  	0,004133  	0,004438  	0,000000  	-0,000000  	26,382297  	23,798860  	24,777786  	25,220355  	29,737603  	27,882917  	29,193593  	29,344861  	33,961847  	32,397285  	35,264510  	60,076055  	26,474773  	25,472602  	28,335661  	64,947408  	0,114333  	0,057934  	-2665,307641  	12534,287381  	-0,036493  	-0,049994  	0,373128  	0,189067  	-3,768574  	16083,455068  	37613,790281  	5,455419  	-0,047946  
31,557000  	21,799261  	32,784991  	24,204115  	1256,670793  	70,353684  	65,589483  	0,005705  	0,011473  	0,003967  	0,004175  	0,004436  	0,000000  	-0,000000  	26,373275  	23,799515  	24,777125  	25,229242  	29,739508  	27,875096  	29,190881  	29,354431  	33,966022  	32,395145  	35,269199  	60,079181  	26,484753  	25,499246  	28,339995  	64,951040  	0,148269  	0,075129  	-3451,110701  	25559,121554  	-0,018534  	-0,049996  	0,371677  	0,188332  	-3,757159  	16091,716624  	37654,433934  	5,461314  	-0,047948  
32,558000  	21,804726  	32,784745  	24,204115  	1256,670793  	70,357609  	65,596451  	0,005709  	0,011436  	0,003967  	0,004212  	0,004489  	0,000001  	-0,000000  	26,372577  	23,791352  	24,774178  	25,222015  	29,738852  	27,874619  	29,188641  	29,351532  	33,958965  	32,393574  	35,259450  	60,082494  	26,474922  	25,506559  	28,342432  	64,949364  	0,178039  	0,090214  	-4141,882112  	25555,531403  	-0,018531  	-0,049988  	0,413770  	0,209660  	-4,179991  	16011,724273  	37758,931054  	5,476470  	-0,047941  
33,557000  	21,801195  	32,779694  	24,206081  	956,927186  	70,356114  	65,595736  	0,005701  	0,011459  	0,003967  	0,004153  	0,004497  	0,000000  	-0,000000  	26,369595  	23,796362  	24,766244  	25,209058  	29,730239  	27,877061  	29,178563  	29,350763  	33,956992  	32,388721  	35,262235  	60,086200  	26,481526  	25,493194  	28,337611  	64,948278  	0,130533  	0,066142  	-3036,296324  	22510,962912  	-0,022170  	-0,049994  	0,420151  	0,212893  	-4,243756  	16060,875509  	37571,473149  	5,449281  	-0,047946  
34,557000  	21,794073  	32,775567  	24,206757  	-242,047242  	70,354183  	65,593683  	0,005694  	0,011473  	0,003964  	0,004229  	0,004416  	0,000001  	-0,000000  	26,381487  	23,797919  	24,777492  	25,225836  	29,738073  	27,885182  	29,191692  	29,355292  	33,964795  	32,393952  	35,262442  	60,092168  	26,495279  	25,490084  	28,346539  	64,946008  	0,191803  	0,097188  	-4462,688713  	-27054,970985  	-0,103094  	-0,049993  	0,355913  	0,180344  	-3,595008  	16091,797980  	37435,081070  	5,429499  	-0,047945  
35,555000  	21,755486  	32,774828  	24,206388  	-242,047242  	70,352874  	65,593527  	0,005698  	0,011487  	0,003966  	0,004196  	0,004498  	0,000000  	-0,000000  	26,381245  	23,796928  	24,783066  	25,233990  	29,743088  	27,885004  	29,192268  	29,358554  	33,967988  	32,399971  	35,270492  	60,087328  	26,499240  	25,481433  	28,355275  	64,955785  	0,165738  	0,083981  	-3869,531643  	-27058,173301  	-0,103107  	-0,049999  	0,420999  	0,213323  	-4,251403  	16121,465441  	37502,938177  	5,439341  	-0,047951  
36,556000  	21,740444  	32,778462  	24,206450  	956,927186  	70,351566  	65,598939  	0,005703  	0,011447  	0,003965  	0,004181  	0,004447  	0,000001  	-0,000000  	26,373196  	23,789524  	24,768976  	25,228909  	29,735971  	27,874758  	29,182255  	29,345406  	33,956727  	32,388767  	35,265931  	60,076527  	26,492210  	25,457501  	28,346270  	64,947153  	0,153131  	0,077593  	-3581,262901  	22509,810145  	-0,022169  	-0,049991  	0,379902  	0,192499  	-3,830974  	16034,158806  	37618,231708  	5,456063  	-0,047944  
37,556000  	21,781211  	32,781449  	24,206204  	1256,670793  	70,348575  	65,597726  	0,005698  	0,011459  	0,003965  	0,004188  	0,004409  	0,000000  	-0,000000  	26,372505  	23,792712  	24,770454  	25,219816  	29,734962  	27,879010  	29,177955  	29,341944  	33,954954  	32,382319  	35,264293  	60,078634  	26,496527  	25,447630  	28,342110  	64,946810  	0,159336  	0,080736  	-3713,598827  	25558,619544  	-0,018533  	-0,049995  	0,349904  	0,177299  	-3,527153  	16060,218999  	37517,547579  	5,441460  	-0,047947  
38,557000  	21,822162  	32,785145  	24,207064  	1256,670793  	70,349136  	65,603076  	0,005697  	0,011452  	0,003965  	0,004243  	0,004478  	-0,000000  	-0,000000  	26,381292  	23,806470  	24,781958  	25,226186  	29,742793  	27,884306  	29,188832  	29,352057  	33,962259  	32,392842  	35,266130  	60,087244  	26,500407  	25,456364  	28,349146  	64,957664  	0,203677  	0,103205  	-4730,974792  	25562,558019  	-0,018536  	-0,050004  	0,404539  	0,204983  	-4,073779  	16046,565996  	37481,846691  	5,436282  	-0,047955  
39,557000  	21,810190  	32,784129  	24,207433  	357,439972  	70,350133  	65,600743  	0,005705  	0,011474  	0,003964  	0,004199  	0,004463  	0,000001  	-0,000000  	26,378226  	23,808902  	24,781743  	25,225454  	29,737252  	27,884180  	29,191794  	29,350832  	33,963126  	32,392528  	35,260815  	60,084742  	26,490561  	25,450658  	28,348092  	64,955050  	0,167512  	0,084879  	-3894,818230  	12533,943192  	-0,036492  	-0,049993  	0,392929  	0,199100  	-3,959647  	16094,223105  	37667,228635  	5,463170  	-0,047946  
40,558000  	21,780904  	32,776553  	24,207310  	956,927186  	70,351441  	65,600308  	0,005700  	0,011471  	0,003967  	0,004194  	0,004423  	0,000001  	-0,000000  	26,368532  	23,795748  	24,774075  	25,216240  	29,727746  	27,878143  	29,184992  	29,341212  	33,958488  	32,385904  	35,257229  	60,078418  	26,477769  	25,435087  	28,341613  	64,946801  	0,163748  	0,082972  	-3814,838712  	22507,747391  	-0,022167  	-0,049986  	0,361150  	0,182997  	-3,640736  	16087,491755  	37549,880325  	5,446150  	-0,047940  
41,557000  	21,770528  	32,771009  	24,208446  	57,696365  	70,355584  	65,597571  	0,005701  	0,011464  	0,003966  	0,004214  	0,004472  	-0,000000  	-0,000000  	26,368392  	23,793697  	24,769983  	25,212610  	29,726162  	27,873753  	29,179109  	29,342164  	33,957167  	32,387852  	35,258793  	60,078150  	26,471459  	25,424160  	28,337301  	64,948693  	0,180152  	0,091285  	-4198,870445  	1816,090742  	-0,053914  	-0,050003  	0,399756  	0,202559  	-4,035757  	16071,086787  	37580,680814  	5,450617  	-0,047954  
42,559000  	21,791280  	32,775998  	24,209122  	657,183579  	70,357578  	65,594522  	0,005700  	0,011430  	0,003966  	0,004157  	0,004432  	-0,000000  	-0,000001  	26,373030  	23,801228  	24,772352  	25,213687  	29,727161  	27,875072  	29,175630  	29,342226  	33,961089  	32,391487  	35,259291  	60,083954  	26,473656  	25,406752  	28,338777  	64,952569  	0,133863  	0,067829  	-3115,508573  	18487,117322  	-0,027586  	-0,050001  	0,368085  	0,186511  	-3,719950  	15998,935062  	37553,107245  	5,446618  	-0,047952  
43,556000  	21,797266  	32,781542  	24,209214  	657,183579  	70,359727  	65,598068  	0,005698  	0,011448  	0,003965  	0,004200  	0,004437  	0,000001  	-0,000001  	26,372435  	23,795948  	24,777451  	25,218203  	29,729122  	27,872462  	29,175063  	29,339474  	33,961231  	32,390942  	35,257913  	60,086776  	26,471466  	25,388623  	28,343020  	64,954391  	0,168415  	0,085337  	-3919,507058  	18484,420708  	-0,027582  	-0,049992  	0,371995  	0,188493  	-3,758371  	16037,501489  	37521,056942  	5,441969  	-0,047945  
44,559000  	21,811817  	32,785053  	24,209952  	1256,670793  	70,359416  	65,598006  	0,005700  	0,011493  	0,003965  	0,004193  	0,004420  	0,000000  	-0,000000  	26,366733  	23,790158  	24,776844  	25,217227  	29,726460  	27,873025  	29,172758  	29,344750  	33,951261  	32,385941  	35,257054  	60,077312  	26,461606  	25,375507  	28,335532  	64,954982  	0,162600  	0,082391  	-3780,369983  	25560,753522  	-0,018535  	-0,050000  	0,358648  	0,181729  	-3,623325  	16133,760148  	37558,593714  	5,447413  	-0,047951  
45,555000  	21,825539  	32,784036  	24,210812  	57,696365  	70,357453  	65,602392  	0,005694  	0,011425  	0,003966  	0,004197  	0,004472  	0,000000  	-0,000000  	26,370375  	23,786595  	24,767451  	25,220291  	29,729015  	27,871435  	29,178348  	29,339625  	33,943861  	32,388389  	35,259831  	60,075947  	26,467328  	25,360962  	28,333453  	64,947847  	0,166354  	0,084293  	-3862,463066  	1815,829891  	-0,053910  	-0,049999  	0,400221  	0,202795  	-4,037946  	15987,395201  	37435,292903  	5,429530  	-0,047951  
46,559000  	21,812093  	32,781573  	24,209890  	657,183579  	70,357952  	65,606685  	0,005707  	0,011478  	0,003968  	0,004186  	0,004481  	0,000001  	-0,000000  	26,371242  	23,791233  	24,762126  	25,218012  	29,732422  	27,869817  	29,175960  	29,350972  	33,952030  	32,384091  	35,259583  	60,080498  	26,466856  	25,356561  	28,337342  	64,951368  	0,156940  	0,079522  	-3647,522286  	18483,966855  	-0,027581  	-0,049991  	0,406881  	0,206170  	-4,101869  	16102,428773  	37711,198063  	5,469547  	-0,047944  
47,557000  	21,776453  	32,781665  	24,211457  	657,183579  	70,357266  	65,605596  	0,005700  	0,011483  	0,003965  	0,004169  	0,004458  	0,000000  	-0,000000  	26,378938  	23,799206  	24,769104  	25,230780  	29,738119  	27,870850  	29,186117  	29,345883  	33,967018  	32,392843  	35,264710  	60,084700  	26,477923  	25,341021  	28,339312  	64,948698  	0,143294  	0,072608  	-3341,243493  	18486,763433  	-0,027585  	-0,050000  	0,389105  	0,197162  	-3,922991  	16111,778381  	37555,825766  	5,447012  	-0,047951  
48,555000  	21,752754  	32,782219  	24,210474  	1256,670793  	70,355896  	65,602361  	0,005707  	0,011485  	0,003965  	0,004203  	0,004484  	-0,000000  	-0,000000  	26,374105  	23,794214  	24,774913  	25,221569  	29,737324  	27,871544  	29,184973  	29,349057  	33,955760  	32,390181  	35,262129  	60,082631  	26,475652  	25,333582  	28,347455  	64,953982  	0,171166  	0,086731  	-3999,928379  	25560,873226  	-0,018535  	-0,050000  	0,409573  	0,207534  	-4,130969  	16117,239158  	37712,094822  	5,469677  	-0,047952  
49,556000  	21,746983  	32,789734  	24,211918  	1256,670793  	70,358326  	65,603636  	0,005706  	0,011475  	0,003966  	0,004214  	0,004509  	-0,000001  	-0,000000  	26,365926  	23,788426  	24,775377  	25,215696  	29,718442  	27,876930  	29,179820  	29,335488  	33,948837  	32,386354  	35,252168  	60,067969  	26,471247  	25,312045  	28,338396  	64,945879  	0,179731  	0,091071  	-4205,153617  	25567,776395  	-0,018540  	-0,050015  	0,429064  	0,217410  	-4,328613  	16095,521976  	37681,520288  	5,465242  	-0,047965  
50,559000  	21,747719  	32,792752  	24,212839  	1256,670793  	70,353653  	65,601023  	0,005701  	0,011461  	0,003966  	0,004179  	0,004452  	0,000002  	-0,000000  	26,375297  	23,805799  	24,764654  	25,224496  	29,732734  	27,879516  	29,183652  	29,348702  	33,960035  	32,386042  	35,264531  	60,082307  	26,477650  	25,312663  	28,342176  	64,952592  	0,151441  	0,076736  	-3543,988488  	25551,604097  	-0,018528  	-0,049980  	0,384609  	0,194884  	-3,878446  	16066,010153  	37585,023387  	5,451247  	-0,047934  
51,560000  	21,774887  	32,791274  	24,213300  	1256,670793  	70,352313  	65,600184  	0,005691  	0,011482  	0,003967  	0,004180  	0,004489  	0,000000  	-0,000000  	26,369011  	23,786374  	24,774744  	25,225284  	29,726014  	27,874490  	29,185728  	29,336576  	33,952555  	32,390151  	35,253975  	60,078991  	26,476090  	25,300171  	28,345557  	64,945984  	0,152762  	0,077406  	-3565,616002  	25558,812426  	-0,018534  	-0,049996  	0,413243  	0,209393  	-4,166752  	16111,496110  	37366,560221  	5,419561  	-0,047948  
52,556000  	21,813997  	32,785299  	24,214529  	1256,670793  	70,352999  	65,599313  	0,005691  	0,011483  	0,003965  	0,004184  	0,004464  	0,000000  	-0,000000  	26,364296  	23,787854  	24,761496  	25,202743  	29,726275  	27,869340  	29,173305  	29,339042  	33,938982  	32,386893  	35,249124  	60,075088  	26,460364  	25,276680  	28,331625  	64,947034  	0,155901  	0,078996  	-3623,974492  	25559,622369  	-0,018534  	-0,049998  	0,393826  	0,199554  	-3,972267  	16112,613875  	37369,695346  	5,420016  	-0,047950  
53,557000  	21,834074  	32,776491  	24,215850  	57,696365  	70,354214  	65,595580  	0,005700  	0,011443  	0,003964  	0,004196  	0,004446  	0,000001  	-0,000000  	26,373416  	23,790530  	24,775144  	25,226072  	29,736186  	27,866025  	29,186077  	29,350565  	33,957087  	32,394717  	35,263196  	60,085771  	26,468565  	25,250300  	28,340271  	64,944256  	0,165830  	0,084027  	-3844,640437  	1815,139579  	-0,053897  	-0,049987  	0,379860  	0,192478  	-3,835387  	16025,291676  	37554,604197  	5,446835  	-0,047940  
54,555000  	21,848625  	32,768853  	24,217079  	1256,670793  	70,352095  	65,599375  	0,005691  	0,011456  	0,003966  	0,004178  	0,004477  	0,000001  	-0,000000  	26,369561  	23,794204  	24,776318  	25,223260  	29,745291  	27,876089  	29,181792  	29,348426  	33,951005  	32,386428  	35,247940  	60,089958  	26,470871  	25,250174  	28,334847  	64,951662  	0,150623  	0,076322  	-3484,990314  	25552,585976  	-0,018529  	-0,049983  	0,404046  	0,204733  	-4,074525  	16055,219477  	37359,866304  	5,418590  	-0,047936  
55,558000  	21,854427  	32,767929  	24,217171  	1256,670793  	70,346924  	65,596420  	0,005699  	0,011483  	0,003965  	0,004162  	0,004486  	0,000000  	-0,000000  	26,369143  	23,790912  	24,778449  	25,218859  	29,730841  	27,878579  	29,175227  	29,341956  	33,956182  	32,384566  	35,247451  	60,087386  	26,469844  	25,241619  	28,341116  	64,953558  	0,137944  	0,069897  	-3189,674557  	25558,288201  	-0,018533  	-0,049995  	0,411536  	0,208529  	-4,148126  	16111,969392  	37536,902036  	5,444267  	-0,047947  
56,557000  	21,864005  	32,777661  	24,217109  	1256,670793  	70,346987  	65,601272  	0,005700  	0,011489  	0,003964  	0,004161  	0,004454  	-0,000001  	-0,000000  	26,365415  	23,782224  	24,765691  	25,216106  	29,727787  	27,876071  	29,177445  	29,332965  	33,947651  	32,390536  	35,252267  	60,080016  	26,463036  	25,235375  	28,339635  	64,949336  	0,137319  	0,069580  	-3175,243677  	25568,953777  	-0,018541  	-0,050018  	0,386050  	0,195614  	-3,887312  	16124,489066  	37547,077071  	5,445743  	-0,047967  
57,556000  	21,879753  	32,790750  	24,218737  	57,696365  	70,347641  	65,605938  	0,005711  	0,011478  	0,003965  	0,004217  	0,004439  	0,000001  	-0,000000  	26,359744  	23,790061  	24,773554  	25,218237  	29,728835  	27,887936  	29,180391  	29,345260  	33,953086  	32,383417  	35,247155  	60,077148  	26,459014  	25,239263  	28,334131  	64,949673  	0,182310  	0,092378  	-4214,565174  	1815,017886  	-0,053898  	-0,049988  	0,373969  	0,189493  	-3,762485  	16101,441886  	37792,075826  	5,481277  	-0,047941  
58,557000  	21,873184  	32,799620  	24,219168  	1256,670793  	70,345709  	65,599717  	0,005703  	0,011477  	0,003965  	0,004143  	0,004477  	0,000001  	-0,000000  	26,367820  	23,790324  	24,766618  	25,213813  	29,729904  	27,872997  	29,177601  	29,341478  	33,939257  	32,386206  	35,254616  	60,081246  	26,465395  	25,226649  	28,337337  	64,944623  	0,122324  	0,061983  	-2831,843175  	25555,891199  	-0,018532  	-0,049990  	0,404335  	0,204879  	-4,071666  	16099,662659  	37612,907644  	5,455291  	-0,047943  
59,557000  	21,850989  	32,809322  	24,219260  	1256,670793  	70,341784  	65,598348  	0,005696  	0,011446  	0,003966  	0,004143  	0,004430  	0,000002  	-0,000000  	26,363110  	23,787533  	24,766601  	25,213538  	29,726342  	27,867659  	29,174714  	29,343804  	33,936248  	32,378301  	35,251805  	60,082273  	26,460746  	25,218628  	28,342141  	64,940333  	0,122527  	0,062085  	-2844,814901  	25551,452082  	-0,018528  	-0,049980  	0,367010  	0,185966  	-3,693809  	16031,902760  	37462,781739  	5,433517  	-0,047934  
60,558000  	21,831955  	32,816405  	24,219260  	1256,670793  	70,343280  	65,600526  	0,005690  	0,011474  	0,003965  	0,004169  	0,004466  	0,000000  	-0,000000  	26,370468  	23,789534  	24,765627  	25,217656  	29,736229  	27,869100  	29,186575  	29,339747  	33,948347  	32,385854  	35,254833  	60,080777  	26,461532  	25,219637  	28,340002  	64,948735  	0,143692  	0,072810  	-3344,170213  	25558,735194  	-0,018534  	-0,049996  	0,395422  	0,200363  	-3,979193  	16092,271969  	37331,205326  	5,414434  	-0,047948  
61,557000  	21,834442  	32,821887  	24,219444  	956,927186  	70,344650  	65,596327  	0,005703  	0,011469  	0,003963  	0,004162  	0,004455  	0,000000  	-0,000000  	26,365750  	23,789847  	24,762063  	25,210579  	29,723735  	27,867304  	29,175840  	29,342906  	33,943377  	32,380456  	35,248957  	60,078173  	26,458970  	25,208788  	28,338971  	64,942568  	0,137970  	0,069911  	-3211,890308  	22510,853895  	-0,022170  	-0,049995  	0,386611  	0,195899  	-3,895097  	16082,842419  	37610,626911  	5,454960  	-0,047947  
62,556000  	21,829899  	32,824289  	24,219014  	357,439972  	70,344152  	65,597882  	0,005703  	0,011470  	0,003965  	0,004191  	0,004459  	-0,000001  	-0,000000  	26,369509  	23,779798  	24,762606  	25,214811  	29,725084  	27,866053  	29,172678  	29,335508  	33,943257  	32,378796  	35,246244  	60,076513  	26,459036  	25,190848  	28,337639  	64,942847  	0,161672  	0,081921  	-3766,048072  	12536,333161  	-0,036500  	-0,050007  	0,389912  	0,197571  	-3,926656  	16084,545242  	37614,277496  	5,455490  	-0,047957  
63,558000  	21,825294  	32,823458  	24,218922  	1256,670793  	70,343248  	65,602174  	0,005699  	0,011498  	0,003965  	0,004172  	0,004520  	-0,000001  	-0,000000  	26,365347  	23,794773  	24,770227  	25,220741  	29,733909  	27,876003  	29,181706  	29,343509  	33,950154  	32,387682  	35,255900  	60,079725  	26,460563  	25,192847  	28,340791  	64,951350  	0,145876  	0,073916  	-3399,248795  	25564,612327  	-0,018538  	-0,050009  	0,438375  	0,222128  	-4,409878  	16144,753153  	37535,129701  	5,444010  	-0,047959  
64,557000  	21,826767  	32,820994  	24,218307  	57,696365  	70,347423  	65,598193  	0,005702  	0,011450  	0,003967  	0,004158  	0,004483  	-0,000000  	-0,000000  	26,366497  	23,799454  	24,777330  	25,221624  	29,739822  	27,876599  	29,181125  	29,346006  	33,956079  	32,394899  	35,255464  	60,080733  	26,459865  	25,187314  	28,339432  	64,952033  	0,134558  	0,068181  	-3134,380717  	1815,620819  	-0,053915  	-0,050006  	0,408459  	0,206969  	-4,116001  	16040,656698  	37591,060621  	5,452122  	-0,047957  
65,557000  	21,817128  	32,819701  	24,216372  	1256,670793  	70,347765  	65,601677  	0,005701  	0,011507  	0,003965  	0,004171  	0,004437  	0,000002  	-0,000000  	26,375937  	23,794840  	24,778562  	25,217607  	29,738311  	27,876263  	29,179567  	29,346406  	33,958692  	32,394986  	35,251831  	60,085316  	26,459722  	25,176434  	28,338277  	64,953714  	0,145222  	0,073585  	-3385,371403  	25547,691690  	-0,018526  	-0,049972  	0,372289  	0,188642  	-3,749045  	16164,345874  	37578,477753  	5,450297  	-0,047927  
66,556000  	21,806322  	32,817914  	24,216065  	1256,670793  	70,345585  	65,602237  	0,005704  	0,011470  	0,003966  	0,004184  	0,004456  	-0,000000  	-0,000000  	26,368956  	23,784517  	24,769449  	25,214364  	29,734310  	27,877904  	29,176685  	29,342183  	33,957012  	32,389346  	35,245736  	60,082559  	26,458551  	25,164856  	28,335342  	64,944293  	0,155653  	0,078871  	-3631,513977  	25563,055957  	-0,018537  	-0,050005  	0,387489  	0,196343  	-3,899855  	16083,849822  	37650,790410  	5,460785  	-0,047956  
67,558000  	21,818479  	32,814218  	24,216710  	1256,670793  	70,348139  	65,599002  	0,005702  	0,011509  	0,003965  	0,004198  	0,004478  	0,000001  	-0,000000  	26,360976  	23,777645  	24,760601  	25,215095  	29,736058  	27,875466  	29,175426  	29,338547  	33,953712  	32,384685  	35,243765  	60,076565  	26,448299  	25,155072  	28,330278  	64,938515  	0,166670  	0,084453  	-3882,951070  	25555,353204  	-0,018531  	-0,049989  	0,404609  	0,205018  	-4,077126  	16169,668699  	37588,822255  	5,451798  	-0,047942  
68,557000  	21,833582  	32,813787  	24,216096  	57,696365  	70,347205  	65,596886  	0,005699  	0,011460  	0,003965  	0,004177  	0,004424  	0,000001  	-0,000000  	26,367356  	23,791707  	24,766478  	25,219161  	29,735643  	27,876445  	29,180172  	29,346622  	33,955402  	32,387991  	35,252534  	60,075431  	26,442565  	25,150567  	28,339564  	64,946704  	0,149793  	0,075901  	-3484,825708  	1815,205084  	-0,053900  	-0,049990  	0,362164  	0,183511  	-3,650329  	16063,316906  	37539,239258  	5,444606  	-0,047942  
69,557000  	21,826921  	32,812709  	24,217263  	1256,670793  	70,343093  	65,608738  	0,005692  	0,011458  	0,003967  	0,004189  	0,004430  	0,000001  	-0,000000  	26,370577  	23,796791  	24,775746  	25,222283  	29,735086  	27,875741  	29,178889  	29,346285  	33,958581  	32,394664  	35,255522  	60,073302  	26,449475  	25,144119  	28,351125  	64,942509  	0,160014  	0,081080  	-3724,508229  	25557,558958  	-0,018533  	-0,049993  	0,366760  	0,185840  	-3,684237  	16058,738314  	37387,983578  	5,422669  	-0,047946  
70,556000  	21,817773  	32,810184  	24,216157  	657,183579  	70,344463  	65,611350  	0,005702  	0,011454  	0,003965  	0,004178  	0,004459  	-0,000001  	-0,000000  	26,372680  	23,796979  	24,777718  	25,222114  	29,741017  	27,877400  	29,179664  	29,349572  	33,960096  	32,397502  	35,259616  	60,081778  	26,448591  	25,145078  	28,345312  	64,947528  	0,150445  	0,076232  	-3503,888272  	18488,840417  	-0,027589  	-0,050007  	0,389976  	0,197604  	-3,916422  	16050,048753  	37605,020403  	5,454147  	-0,047957  
71,555000  	21,805892  	32,807227  	24,215420  	657,183579  	70,345803  	65,603761  	0,005696  	0,011461  	0,003967  	0,004246  	0,004439  	0,000001  	-0,000000  	26,375846  	23,806830  	24,776584  	25,232150  	29,738804  	27,885603  	29,186019  	29,357925  	33,965980  	32,399775  	35,263473  	60,080361  	26,450518  	25,138991  	28,343447  	64,957909  	0,206130  	0,104447  	-4804,689666  	18483,673318  	-0,027581  	-0,049991  	0,374136  	0,189577  	-3,764429  	16066,149520  	37461,094138  	5,433272  	-0,047944  
72,556000  	21,799875  	32,806796  	24,215174  	57,696365  	70,349728  	65,597166  	0,005698  	0,011474  	0,003965  	0,004180  	0,004519  	-0,000001  	-0,000000  	26,377266  	23,799054  	24,772835  	25,230949  	29,733033  	27,882274  	29,193115  	29,356453  	33,957158  	32,398197  	35,263808  	60,076972  	26,455665  	25,133019  	28,347426  	64,952106  	0,152072  	0,077056  	-3546,461200  	1815,893646  	-0,053919  	-0,050009  	0,437258  	0,221562  	-4,409297  	16093,863723  	37504,371579  	5,439549  	-0,047959  
73,556000  	21,803590  	32,809968  	24,215266  	1256,670793  	70,351223  	65,594522  	0,005706  	0,011476  	0,003966  	0,004130  	0,004457  	0,000002  	-0,000000  	26,373726  	23,794166  	24,783100  	25,224062  	29,728490  	27,887498  	29,184962  	29,344796  	33,958754  	32,389789  	35,255975  	60,083614  	26,449305  	25,115295  	28,340636  	64,940623  	0,112224  	0,056865  	-2617,040442  	25551,641462  	-0,018528  	-0,049980  	0,388141  	0,196674  	-3,917409  	16098,014309  	37687,628133  	5,466128  	-0,047935  
74,556000  	21,799292  	32,811262  	24,214222  	1256,670793  	70,348046  	65,596575  	0,005704  	0,011457  	0,003966  	0,004197  	0,004442  	-0,000000  	-0,000000  	26,375999  	23,789647  	24,779456  	25,230529  	29,736804  	27,885830  	29,184398  	29,350503  	33,959715  	32,392475  	35,253392  	60,093142  	26,442426  	25,109293  	28,338257  	64,947303  	0,166303  	0,084267  	-3880,108827  	25561,543436  	-0,018536  	-0,050002  	0,376475  	0,190763  	-3,795494  	16056,698747  	37648,883914  	5,460509  	-0,047953  
75,557000  	21,797450  	32,809968  	24,214222  	1256,670793  	70,342688  	65,596358  	0,005704  	0,011470  	0,003965  	0,004213  	0,004474  	-0,000002  	-0,000000  	26,364682  	23,788860  	24,782320  	25,221106  	29,736458  	27,882644  	29,191418  	29,353245  	33,958548  	32,383912  	35,251746  	60,079136  	26,450082  	25,108434  	28,336518  	64,944802  	0,179216  	0,090810  	-4181,598973  	25569,828006  	-0,018542  	-0,050020  	0,401764  	0,203577  	-4,046064  	16085,050359  	37635,425471  	5,458557  	-0,047969  
76,572000  	21,799169  	32,806211  	24,212440  	57,696365  	70,341130  	65,596669  	0,005690  	0,011504  	0,003966  	0,004162  	0,004470  	0,000001  	-0,000000  	26,366904  	23,788870  	24,772476  	25,222039  	29,738637  	27,882655  	29,181503  	29,352227  	33,948660  	32,400323  	35,258560  	60,082796  	26,442874  	25,118468  	28,341721  	64,949675  	0,137918  	0,069884  	-3216,418860  	1815,316678  	-0,053897  	-0,049987  	0,398588  	0,201967  	-4,012497  	16156,908493  	37336,105725  	5,415144  	-0,047940  
77,570000  	21,772370  	32,802885  	24,212655  	-242,047242  	70,344339  	65,594398  	0,005699  	0,011461  	0,003966  	0,004244  	0,004425  	-0,000000  	-0,000000  	26,374238  	23,796222  	24,767446  	25,217260  	29,734154  	27,880658  	29,182220  	29,359393  	33,956152  	32,393268  	35,250734  	60,067493  	26,449779  	25,128159  	28,337549  	64,947770  	0,204154  	0,103446  	-4771,261803  	-27059,486914  	-0,103109  	-0,050002  	0,362507  	0,183685  	-3,653498  	16066,219557  	37536,923219  	5,444270  	-0,047953  
78,556000  	21,753705  	32,799497  	24,212839  	357,439972  	70,343965  	65,594336  	0,005694  	0,011468  	0,003964  	0,004207  	0,004454  	-0,000000  	-0,000000  	26,361802  	23,778658  	24,756168  	25,206872  	29,720283  	27,862939  	29,178859  	29,336034  	33,946508  	32,393284  	35,247081  	60,064551  	26,435040  	25,124029  	28,321291  	64,929345  	0,174147  	0,088242  	-4075,624477  	12536,412714  	-0,036500  	-0,050006  	0,386066  	0,195623  	-3,890680  	16079,530864  	37423,832748  	5,427868  	-0,047956  
79,556000  	21,778110  	32,797649  	24,212379  	357,439972  	70,343062  	65,597851  	0,005698  	0,011453  	0,003966  	0,004204  	0,004441  	0,000001  	-0,000000  	26,376139  	23,805498  	24,785186  	25,230806  	29,738145  	27,893358  	29,181900  	29,353903  	33,964985  	32,403084  	35,268815  	60,080518  	26,444746  	25,149891  	28,349835  	64,943493  	0,171737  	0,087020  	-4009,651062  	12532,774093  	-0,036489  	-0,049989  	0,375831  	0,190436  	-3,784006  	16047,014517  	37509,949842  	5,440358  	-0,047942  
80,558000  	21,782347  	32,797588  	24,211027  	-242,047242  	70,344744  	65,587897  	0,005701  	0,011509  	0,003963  	0,004213  	0,004449  	0,000002  	-0,000000  	26,377173  	23,801879  	24,786180  	25,232905  	29,749494  	27,891520  	29,186902  	29,355553  	33,961797  	32,395934  	35,262828  	60,084116  	26,460380  	25,163551  	28,340939  	64,954183  	0,178878  	0,090639  	-4174,762766  	-27048,929276  	-0,103070  	-0,049980  	0,381998  	0,193561  	-3,855528  	16168,695253  	37574,678885  	5,449746  	-0,047934  
81,556000  	21,766936  	32,793738  	24,211887  	-242,047242  	70,343747  	65,591972  	0,005699  	0,011474  	0,003966  	0,004157  	0,004482  	-0,000001  	-0,000000  	26,378586  	23,802677  	24,770430  	25,225483  	29,745235  	27,893023  	29,190801  	29,356806  	33,962002  	32,403982  	35,263771  	60,079863  	26,446765  	25,167446  	28,347692  	64,951676  	0,134097  	0,067948  	-3132,930684  	-27064,268091  	-0,103128  	-0,050012  	0,407785  	0,206628  	-4,111413  	16094,166510  	37529,551438  	5,443201  	-0,047961  
82,556000  	21,754104  	32,788194  	24,211211  	357,439972  	70,342563  	65,593963  	0,005708  	0,011466  	0,003967  	0,004140  	0,004463  	0,000001  	-0,000000  	26,381865  	23,798815  	24,781221  	25,233538  	29,739956  	27,894494  	29,190433  	29,355476  	33,967850  	32,406101  	35,262407  	60,086927  	26,455395  	25,161383  	28,347239  	64,948994  	0,119869  	0,060738  	-2802,352883  	12532,828829  	-0,036489  	-0,049989  	0,392877  	0,199074  	-3,958462  	16075,509740  	37723,837420  	5,471380  	-0,047942  
83,556000  	21,762577  	32,786254  	24,211027  	357,439972  	70,345149  	65,587866  	0,005701  	0,011476  	0,003968  	0,004201  	0,004460  	0,000001  	-0,000000  	26,375110  	23,802130  	24,779983  	25,238029  	29,739882  	27,889432  	29,182014  	29,362817  	33,959240  	32,395142  	35,256923  	60,079922  	26,433806  	25,153245  	28,341195  	64,962114  	0,169550  	0,085912  	-3960,091688  	12532,533291  	-0,036488  	-0,049988  	0,390274  	0,197755  	-3,939417  	16098,530745  	37568,563978  	5,448860  	-0,047941  
84,558000  	21,797389  	32,784098  	24,211211  	956,927186  	70,344463  	65,589048  	0,005704  	0,011421  	0,003968  	0,004208  	0,004493  	-0,000000  	-0,000000  	26,379066  	23,791575  	24,784873  	25,232845  	29,737511  	27,881972  	29,188495  	29,354969  	33,969431  	32,395306  	35,264648  	60,083382  	26,436214  	25,159567  	28,338191  	64,959078  	0,174777  	0,088561  	-4068,468798  	22513,741749  	-0,022173  	-0,050002  	0,416328  	0,210957  	-4,200761  	15978,255704  	37634,239207  	5,458385  	-0,047953  
85,558000  	21,826552  	32,782743  	24,211303  	-242,047242  	70,344962  	65,594336  	0,005693  	0,011503  	0,003967  	0,004130  	0,004462  	0,000001  	-0,000000  	26,383226  	23,803874  	24,785836  	25,232045  	29,740857  	27,885980  	29,186874  	29,351379  	33,962993  	32,396527  	35,262430  	60,080305  	26,436797  	25,156526  	28,345873  	64,964262  	0,111619  	0,056558  	-2591,059773  	-27054,685322  	-0,103091  	-0,049992  	0,392307  	0,198785  	-3,954396  	16155,823978  	37412,344350  	5,426202  	-0,047944  
86,556000  	21,850559  	32,779478  	24,211733  	-242,047242  	70,343217  	65,597260  	0,005694  	0,011487  	0,003965  	0,004164  	0,004440  	0,000000  	-0,000000  	26,368277  	23,800250  	24,779609  	25,229473  	29,730581  	27,880051  	29,181669  	29,344076  	33,960553  	32,394138  	35,258920  	60,070231  	26,434640  	25,139699  	28,334063  	64,950225  	0,139756  	0,070816  	-3236,137524  	-27055,597848  	-0,103095  	-0,049994  	0,374768  	0,189898  	-3,773901  	16121,651500  	37435,878974  	5,429615  	-0,047946  
87,557000  	21,850190  	32,776707  	24,212010  	-242,047242  	70,339759  	65,598100  	0,005703  	0,011426  	0,003966  	0,004178  	0,004417  	0,000002  	-0,000000  	26,370262  	23,796356  	24,776732  	25,216285  	29,739024  	27,882843  	29,177905  	29,350887  	33,958707  	32,381414  	35,260862  	60,069714  	26,435630  	25,150358  	28,329845  	64,938443  	0,150985  	0,076505  	-3495,367468  	-27048,965616  	-0,103069  	-0,049980  	0,356367  	0,180574  	-3,585349  	15990,510086  	37621,338589  	5,456514  	-0,047934  
88,556000  	21,856146  	32,774920  	24,212256  	-242,047242  	70,340569  	65,597726  	0,005703  	0,011432  	0,003967  	0,004178  	0,004464  	-0,000000  	-0,000000  	26,368059  	23,798876  	24,774491  	25,222457  	29,739145  	27,881747  	29,182471  	29,351302  	33,959705  	32,389744  	35,254462  	60,078868  	26,437801  	25,152162  	28,333484  	64,939193  	0,151089  	0,076558  	-3495,292527  	-27060,683334  	-0,103114  	-0,050004  	0,393646  	0,199464  	-3,961402  	16001,563225  	37628,025445  	5,457484  	-0,047955  
89,556000  	21,879569  	32,781295  	24,212317  	57,696365  	70,341566  	65,592594  	0,005697  	0,011482  	0,003966  	0,004223  	0,004479  	0,000001  	-0,000000  	26,367733  	23,798550  	24,777808  	25,221539  	29,734704  	27,877281  	29,179583  	29,345040  	33,958630  	32,390124  	35,248685  	60,080627  	26,438362  	25,156460  	28,332747  	64,939388  	0,187119  	0,094814  	-4322,044475  	1815,272751  	-0,053896  	-0,049985  	0,405812  	0,205628  	-4,089104  	16110,578553  	37487,382588  	5,437085  	-0,047939  
90,559000  	21,876929  	32,792814  	24,211580  	1256,670793  	70,340009  	65,589919  	0,005696  	0,011444  	0,003965  	0,004201  	0,004462  	0,000000  	-0,000000  	26,369797  	23,796906  	24,783913  	25,225816  	29,737107  	27,874079  	29,181494  	29,344227  	33,962213  	32,390487  	35,258298  	60,077448  	26,444369  	25,167732  	28,327486  	64,943995  	0,169512  	0,085893  	-3920,451499  	25559,268785  	-0,018534  	-0,049997  	0,392452  	0,198858  	-3,955416  	16027,788253  	37478,104312  	5,435739  	-0,047949  
91,557000  	21,866799  	32,801037  	24,211027  	357,439972  	70,337392  	65,588457  	0,005702  	0,011468  	0,003964  	0,004216  	0,004470  	0,000001  	-0,000000  	26,379461  	23,800765  	24,785650  	25,227505  	29,741820  	27,879543  	29,184075  	29,353785  	33,967822  	32,392495  	35,262530  	60,084344  	26,449042  	25,190398  	28,340722  	64,956033  	0,181663  	0,092050  	-4208,547061  	12531,256423  	-0,036485  	-0,049982  	0,398368  	0,201856  	-4,014064  	16080,384044  	37606,121933  	5,454307  	-0,047936  
92,555000  	21,870175  	32,805102  	24,209921  	956,927186  	70,337641  	65,592438  	0,005700  	0,011476  	0,003967  	0,004163  	0,004481  	0,000001  	-0,000000  	26,376703  	23,800660  	24,781130  	25,220552  	29,734676  	27,880653  	29,180552  	29,350387  	33,959609  	32,390756  	35,254114  	60,080600  	26,442656  	25,210572  	28,344391  	64,950897  	0,138680  	0,070270  	-3212,970437  	22510,036931  	-0,022169  	-0,049992  	0,406822  	0,206140  	-4,096024  	16098,210979  	37546,815811  	5,445705  	-0,047945  
93,556000  	21,867167  	32,812247  	24,210105  	-242,047242  	70,336613  	65,595736  	0,005700  	0,011457  	0,003965  	0,004183  	0,004460  	0,000001  	-0,000000  	26,376887  	23,801528  	24,781564  	25,227526  	29,734714  	27,881923  	29,186856  	29,346510  	33,957240  	32,392571  	35,253678  	60,074534  	26,443175  	25,227261  	28,339427  	64,947440  	0,154648  	0,078361  	-3586,262166  	-27052,724432  	-0,103084  	-0,049988  	0,390775  	0,198008  	-3,930871  	16056,464582  	37550,671168  	5,446264  	-0,047941  
94,558000  	21,845187  	32,819023  	24,209798  	-242,047242  	70,335056  	65,596855  	0,005697  	0,011455  	0,003967  	0,004230  	0,004496  	-0,000000  	-0,000000  	26,386760  	23,807508  	24,784970  	25,234694  	29,742476  	27,889426  	29,192677  	29,355341  	33,968978  	32,391554  	35,261856  	60,080954  	26,452933  	25,256327  	28,349315  	64,959029  	0,192584  	0,097584  	-4477,727515  	-27060,838165  	-0,103115  	-0,050005  	0,418712  	0,212165  	-4,209526  	16052,083368  	37493,723450  	5,438005  	-0,047955  
95,557000  	21,833859  	32,824197  	24,209245  	-242,047242  	70,334028  	65,588364  	0,005702  	0,011456  	0,003963  	0,004165  	0,004485  	-0,000001  	-0,000000  	26,379914  	23,800868  	24,777156  	25,227879  	29,734891  	27,882342  	29,183589  	29,350510  	33,963564  	32,390063  	35,260818  	60,079691  	26,451029  	25,286050  	28,346008  	64,956075  	0,140679  	0,071283  	-3275,819944  	-27062,395972  	-0,103122  	-0,050008  	0,410496  	0,208002  	-4,133422  	16055,459301  	37608,155528  	5,454602  	-0,047958  
96,555000  	21,828026  	32,826784  	24,208324  	956,927186  	70,336582  	65,580836  	0,005702  	0,011440  	0,003966  	0,004243  	0,004406  	-0,000000  	-0,000000  	26,382385  	23,793961  	24,772772  	25,225048  	29,734496  	27,876344  	29,181715  	29,347836  	33,953363  	32,393480  	35,254384  	60,079259  	26,450585  	25,314752  	28,338281  	64,951772  	0,203124  	0,102924  	-4733,508771  	22514,141428  	-0,022173  	-0,050002  	0,347582  	0,176122  	-3,507346  	16019,295362  	37601,115618  	5,453581  	-0,047953  
97,554000  	21,819584  	32,829710  	24,208262  	1256,670793  	70,341317  	65,581925  	0,005693  	0,011465  	0,003966  	0,004178  	0,004474  	-0,000001  	-0,000000  	26,375292  	23,799116  	24,778378  	25,220836  	29,735520  	27,882510  	29,185099  	29,350321  	33,957064  	32,389343  	35,256437  	60,077756  	26,459648  	25,336903  	28,340209  	64,949295  	0,150832  	0,076428  	-3518,558263  	25564,361019  	-0,018538  	-0,050008  	0,401900  	0,203646  	-4,058569  	16073,306045  	37399,846214  	5,424389  	-0,047958  
98,557000  	21,804357  	32,827431  	24,207279  	1256,670793  	70,341815  	65,585471  	0,005699  	0,011438  	0,003967  	0,004161  	0,004477  	0,000000  	-0,000000  	26,370376  	23,796794  	24,775510  	25,216973  	29,737019  	27,879700  	29,179535  	29,342283  	33,951476  	32,389299  	35,252527  	60,082210  	26,457420  	25,343416  	28,341792  	64,949386  	0,137352  	0,069597  	-3207,873438  	25560,370383  	-0,018535  	-0,049999  	0,404179  	0,204800  	-4,078967  	16016,640317  	37531,916904  	5,443544  	-0,047950  
99,556000  	21,789714  	32,824289  	24,207095  	357,439972  	70,340040  	65,586777  	0,005694  	0,011511  	0,003965  	0,004164  	0,004479  	-0,000000  	-0,000000  	26,372051  	23,805880  	24,773873  	25,214377  	29,731660  	27,881639  	29,180351  	29,344521  	33,958480  	32,392081  	35,251696  	60,084527  	26,456415  	25,368558  	28,337892  	64,953096  	0,139685  	0,070780  	-3265,778968  	12536,371594  	-0,036499  	-0,050004  	0,405812  	0,205628  	-4,092793  	16173,224323  	37431,854150  	5,429031  	-0,047955  
100,555000  	21,806967  	32,821641  	24,207341  	956,927186  	70,340538  	65,587213  	0,005705  	0,011464  	0,003967  	0,004179  	0,004503  	0,000000  	-0,000000  	26,386607  	23,802182  	24,779621  	25,229385  	29,741680  	27,890653  	29,187773  	29,356126  	33,972596  	32,398778  	35,254298  	60,087443  	26,479272  	25,393947  	28,350371  	64,946471  	0,151463  	0,076748  	-3534,746617  	22513,155435  	-0,022172  	-0,050000  	0,424560  	0,215128  	-4,281938  	16071,500643  	37667,087413  	5,463149  	-0,047951  
101,556000  	21,820658  	32,819115  	24,206941  	1256,670793  	70,341504  	65,591847  	0,005703  	0,011408  	0,003965  	0,004189  	0,004457  	0,000000  	-0,000000  	26,385280  	23,798941  	24,779124  	25,221278  	29,736336  	27,893552  	29,179834  	29,355162  	33,968919  	32,399301  	35,253793  	60,080240  	26,472516  	25,422405  	28,346441  	64,945922  	0,159400  	0,080769  	-3714,497346  	25559,359332  	-0,018534  	-0,049997  	0,388146  	0,196676  	-3,911657  	15950,524523  	37612,229779  	5,455193  	-0,047949  
102,557000  	21,823176  	32,814557  	24,206388  	657,183579  	70,344868  	65,591287  	0,005696  	0,011461  	0,003965  	0,004185  	0,004455  	-0,000001  	-0,000000  	26,383470  	23,790901  	24,781606  	25,229754  	29,741782  	27,880758  	29,189975  	29,347765  	33,962524  	32,404605  	35,254885  	60,080056  	26,484711  	25,442727  	28,332788  	64,947871  	0,156555  	0,079328  	-3645,849500  	18492,546009  	-0,027594  	-0,050017  	0,386237  	0,195709  	-3,895637  	16065,633792  	37470,951424  	5,434702  	-0,047966  
103,556000  	21,831464  	32,811693  	24,205743  	657,183579  	70,346582  	65,587773  	0,005695  	0,011510  	0,003966  	0,004192  	0,004416  	0,000001  	-0,000000  	26,388851  	23,804044  	24,791014  	25,231410  	29,739610  	27,892453  	29,190821  	29,364493  	33,976279  	32,393771  	35,259960  	60,079629  	26,475924  	25,463573  	28,342669  	64,951352  	0,161801  	0,081986  	-3764,194233  	18481,829703  	-0,027578  	-0,049984  	0,355639  	0,180205  	-3,590962  	16170,569985  	37454,640299  	5,432336  	-0,047938  
104,558000  	21,820720  	32,809414  	24,204883  	1256,670793  	70,341411  	65,590199  	0,005701  	0,011483  	0,003966  	0,004201  	0,004511  	-0,000002  	-0,000000  	26,388504  	23,801036  	24,789111  	25,237035  	29,754910  	27,891444  	29,188489  	29,361716  	33,969562  	32,403316  	35,264659  	60,083169  	26,497911  	25,468980  	28,345192  	64,949724  	0,169719  	0,085998  	-3951,442017  	25569,612521  	-0,018541  	-0,050019  	0,431110  	0,218446  	-4,346058  	16113,421071  	37569,079438  	5,448934  	-0,047968  
105,555000  	21,823513  	32,809383  	24,204238  	1256,670793  	70,334838  	65,597944  	0,005705  	0,011459  	0,003965  	0,004187  	0,004476  	-0,000000  	-0,000000  	26,396448  	23,810615  	24,786648  	25,231575  	29,755444  	27,891095  	29,201696  	29,366614  	33,972838  	32,416217  	35,269926  	60,089241  	26,499075  	25,481443  	28,345435  	64,960043  	0,158202  	0,080162  	-3682,361910  	25562,853721  	-0,018536  	-0,050004  	0,403517  	0,204465  	-4,055636  	16061,521407  	37653,678397  	5,461204  	-0,047955  
106,556000  	21,806506  	32,809198  	24,202149  	1256,670793  	70,335959  	65,596140  	0,005699  	0,011447  	0,003965  	0,004218  	0,004459  	-0,000000  	-0,000000  	26,374681  	23,806973  	24,786684  	25,230504  	29,739607  	27,887908  	29,191015  	29,349890  	33,968043  	32,401740  	35,256067  	60,076271  	26,514068  	25,448421  	28,338329  	64,943223  	0,183442  	0,092952  	-4276,397039  	25561,453970  	-0,018535  	-0,050001  	0,389857  	0,197544  	-3,920770  	16035,365001  	37527,433110  	5,442894  	-0,047952  
107,556000  	21,780996  	32,809106  	24,201043  	357,439972  	70,335648  	65,595393  	0,005702  	0,011432  	0,003965  	0,004150  	0,004465  	0,000000  	-0,000001  	26,378830  	23,802756  	24,787477  	25,230614  	29,742905  	27,888169  	29,195190  	29,353574  	33,959580  	32,398551  	35,260898  	60,079805  	26,514212  	25,443595  	28,335649  	64,949064  	0,128118  	0,064919  	-2993,592936  	12535,191927  	-0,036495  	-0,049998  	0,394660  	0,199977  	-3,969430  	16002,809745  	37602,054744  	5,453717  	-0,047949  
108,558000  	21,798064  	32,809229  	24,200674  	956,927186  	70,334651  	65,592967  	0,005704  	0,011459  	0,003967  	0,004140  	0,004465  	-0,000001  	-0,000000  	26,386184  	23,801002  	24,792615  	25,241376  	29,745667  	27,895715  	29,200264  	29,355970  	33,972742  	32,409204  	35,256494  	60,084061  	26,521620  	25,423158  	28,357042  	64,947809  	0,120217  	0,060915  	-2804,653733  	22516,671572  	-0,022176  	-0,050008  	0,394540  	0,199916  	-3,969424  	16060,639222  	37641,893432  	5,459495  	-0,047958  
109,555000  	21,817036  	32,809352  	24,200490  	956,927186  	70,334028  	65,587088  	0,005704  	0,011422  	0,003964  	0,004230  	0,004449  	0,000000  	-0,000000  	26,383330  	23,806702  	24,784450  	25,241738  	29,746441  	27,888697  	29,194991  	29,361899  	33,977959  	32,396700  	35,253937  	60,078963  	26,518599  	25,409981  	28,346108  	64,947775  	0,193292  	0,097942  	-4501,748709  	22512,866664  	-0,022172  	-0,049998  	0,381525  	0,193321  	-3,842728  	15980,468596  	37644,717869  	5,459905  	-0,047950  
110,558000  	21,800459  	32,806273  	24,200797  	357,439972  	70,332595  	65,586964  	0,005702  	0,011444  	0,003966  	0,004206  	0,004466  	-0,000001  	-0,000000  	26,373224  	23,801006  	24,780324  	25,232264  	29,742261  	27,881292  	29,190573  	29,353196  	33,963732  	32,395096  	35,253946  	60,072149  	26,520046  	25,385310  	28,333351  	64,932942  	0,173190  	0,087756  	-4038,532191  	12538,509899  	-0,036505  	-0,050012  	0,395303  	0,200303  	-3,980402  	16027,851923  	37594,231052  	5,452582  	-0,047962  
111,557000  	21,774580  	32,799251  	24,200705  	1256,670793  	70,331037  	65,580805  	0,005696  	0,011455  	0,003966  	0,004168  	0,004498  	-0,000000  	-0,000000  	26,384074  	23,806913  	24,777288  	25,230502  	29,743840  	27,878316  	29,186323  	29,351652  	33,964738  	32,401482  	35,251421  	60,074794  	26,524262  	25,376997  	28,338149  	64,939087  	0,142747  	0,072331  	-3334,373706  	25562,032400  	-0,018536  	-0,050002  	0,420786  	0,213215  	-4,241107  	16051,902970  	37473,189791  	5,435027  	-0,047953  
112,558000  	21,770221  	32,792968  	24,199108  	1256,670793  	70,329916  	65,585098  	0,005698  	0,011467  	0,003966  	0,004150  	0,004463  	0,000001  	-0,000000  	26,386376  	23,808445  	24,784706  	25,239522  	29,745712  	27,887405  	29,194960  	29,353305  	33,971543  	32,398512  	35,260822  	60,078052  	26,537058  	25,376857  	28,339665  	64,949975  	0,128128  	0,064923  	-2992,369058  	25555,354978  	-0,018531  	-0,049987  	0,393198  	0,199236  	-3,958527  	16078,773189  	37522,024312  	5,442110  	-0,047941  
113,556000  	21,781272  	32,793799  	24,199784  	1256,670793  	70,328576  	65,584133  	0,005700  	0,011447  	0,003966  	0,004213  	0,004435  	-0,000000  	-0,000000  	26,380638  	23,804337  	24,781757  	25,240909  	29,747195  	27,888622  	29,197333  	29,359759  	33,970175  	32,401264  	35,259757  	60,074474  	26,536343  	25,387560  	28,339283  	64,948052  	0,179074  	0,090738  	-4178,290880  	25561,468923  	-0,018535  	-0,050001  	0,370720  	0,187847  	-3,731940  	16035,332459  	37552,005714  	5,446458  	-0,047952  
114,557000  	21,794411  	32,793923  	24,199046  	657,183579  	70,329511  	65,579654  	0,005694  	0,011477  	0,003967  	0,004217  	0,004504  	-0,000000  	-0,000000  	26,381884  	23,807064  	24,790675  	25,236836  	29,749753  	27,896491  	29,203355  	29,367096  	33,970746  	32,403302  	35,262715  	60,074794  	26,539104  	25,400801  	28,344320  	64,946938  	0,182539  	0,092494  	-4254,112900  	18487,467692  	-0,027586  	-0,050000  	0,425293  	0,215499  	-4,286191  	16099,354920  	37416,150279  	5,426754  	-0,047952  
115,555000  	21,781978  	32,790134  	24,198217  	657,183579  	70,332377  	65,578348  	0,005692  	0,011442  	0,003967  	0,004214  	0,004443  	0,000001  	-0,000000  	26,391590  	23,815213  	24,793330  	25,235118  	29,754931  	27,902346  	29,205398  	29,374370  	33,975574  	32,405306  	35,265927  	60,084280  	26,534107  	25,418569  	28,351113  	64,953208  	0,180002  	0,091208  	-4198,276815  	18484,968635  	-0,027582  	-0,049993  	0,377505  	0,191285  	-3,807916  	16023,984315  	37377,088311  	5,421088  	-0,047945  
116,557000  	21,765708  	32,785145  	24,197050  	1256,670793  	70,334557  	65,581583  	0,005704  	0,011473  	0,003966  	0,004174  	0,004465  	0,000000  	-0,000000  	26,389804  	23,812426  	24,784058  	25,232269  	29,748199  	27,896993  	29,195181  	29,360120  	33,971541  	32,399105  	35,260349  	60,080325  	26,526142  	25,424356  	28,349398  	64,950694  	0,147473  	0,074726  	-3443,124183  	25558,386711  	-0,018533  	-0,049994  	0,394520  	0,199906  	-3,978663  	16091,761900  	37632,763438  	5,458171  	-0,047946  
117,556000  	21,779707  	32,781942  	24,197848  	57,696365  	70,338295  	65,588395  	0,005703  	0,011455  	0,003965  	0,004219  	0,004483  	-0,000000  	-0,000000  	26,388964  	23,807926  	24,777403  	25,238153  	29,744009  	27,894333  	29,192863  	29,353246  	33,971942  	32,400862  	35,262774  	60,072976  	26,520600  	25,439226  	28,349246  	64,950599  	0,184223  	0,093347  	-4294,423681  	1816,642543  	-0,053913  	-0,050002  	0,408952  	0,207219  	-4,121552  	16053,298053  	37609,949046  	5,454862  	-0,047953  
118,557000  	21,806476  	32,782373  	24,196927  	1256,670793  	70,343093  	65,584475  	0,005689  	0,011461  	0,003966  	0,004219  	0,004479  	0,000000  	-0,000000  	26,383675  	23,806392  	24,784708  	25,239920  	29,742573  	27,892473  	29,196410  	29,358204  	33,971499  	32,399759  	35,263517  	60,072629  	26,512394  	25,457683  	28,345689  	64,951005  	0,183832  	0,093149  	-4275,034325  	25558,362618  	-0,018533  	-0,049994  	0,405243  	0,205340  	-4,091664  	16066,250685  	37328,260850  	5,414007  	-0,047946  
119,557000  	21,827750  	32,785145  	24,196650  	1256,670793  	70,342252  	65,581365  	0,005696  	0,011444  	0,003964  	0,004195  	0,004452  	-0,000000  	-0,000000  	26,380734  	23,805902  	24,790755  	25,234638  	29,746122  	27,886261  	29,196933  	29,356507  	33,964687  	32,392076  	35,255152  	60,074357  	26,511164  	25,472739  	28,337527  	64,945023  	0,164939  	0,083576  	-3829,217443  	25562,379190  	-0,018536  	-0,050003  	0,383990  	0,194570  	-3,878917  	16027,674354  	37474,912697  	5,435277  	-0,047954  
120,559000  	21,853475  	32,783852  	24,197019  	57,696365  	70,340383  	65,585222  	0,005698  	0,011453  	0,003966  	0,004190  	0,004479  	0,000001  	-0,000000  	26,385249  	23,805624  	24,784264  	25,230069  	29,747285  	27,885617  	29,194892  	29,358130  	33,964619  	32,394335  	35,248039  	60,074874  	26,511234  	25,498132  	28,339454  	64,938082  	0,160666  	0,081411  	-3720,813572  	1816,054185  	-0,053894  	-0,049982  	0,405694  	0,205568  	-4,093242  	16047,797660  	37508,657662  	5,440171  	-0,047936  
121,556000  	21,828640  	32,782127  	24,196773  	1256,670793  	70,337890  	65,586560  	0,005698  	0,011506  	0,003966  	0,004194  	0,004409  	0,000000  	-0,000000  	26,373603  	23,803732  	24,782593  	25,226958  	29,734709  	27,885029  	29,189949  	29,361069  	33,964032  	32,396249  	35,247707  	60,071127  	26,510457  	25,516056  	28,345880  	64,933212  	0,163481  	0,082837  	-3794,013637  	25558,472423  	-0,018533  	-0,049994  	0,350378  	0,177539  	-3,532282  	16162,086291  	37519,835373  	5,441792  	-0,047946  
122,559000  	21,809177  	32,786870  	24,195913  	1256,670793  	70,334401  	65,589608  	0,005696  	0,011455  	0,003965  	0,004210  	0,004436  	-0,000001  	-0,000000  	26,369006  	23,809320  	24,784173  	25,231859  	29,738119  	27,881027  	29,190731  	29,361467  	33,961720  	32,396572  	35,258043  	60,071156  	26,520510  	25,527373  	28,351501  	64,938547  	0,176999  	0,089686  	-4116,804757  	25564,273072  	-0,018537  	-0,050007  	0,371721  	0,188354  	-3,742291  	16051,774214  	37475,632929  	5,435381  	-0,047957  
123,555000  	21,803835  	32,794723  	24,194991  	1256,670793  	70,331099  	65,593869  	0,005697  	0,011442  	0,003966  	0,004153  	0,004449  	0,000000  	-0,000000  	26,376501  	23,809205  	24,780208  	25,223625  	29,738058  	27,885301  	29,187234  	29,359393  	33,961925  	32,392076  	35,254191  	60,072605  	26,518349  	25,534274  	28,351441  	64,941678  	0,130307  	0,066028  	-3034,457219  	25558,891473  	-0,018533  	-0,049995  	0,381548  	0,193333  	-3,835104  	16023,323560  	37479,933135  	5,436005  	-0,047947  
124,558000  	21,807335  	32,799035  	24,194377  	57,696365  	70,330352  	65,587088  	0,005699  	0,011477  	0,003968  	0,004134  	0,004486  	0,000001  	-0,000000  	26,381005  	23,800363  	24,781395  	25,231231  	29,737530  	27,884884  	29,185660  	29,352911  	33,958874  	32,392540  	35,250066  	60,076955  	26,528562  	25,521757  	28,339121  	64,946613  	0,115585  	0,058568  	-2691,818659  	1816,528904  	-0,053904  	-0,049992  	0,411006  	0,208260  	-4,136457  	16099,661951  	37533,378550  	5,443756  	-0,047945  
125,556000  	21,829469  	32,801191  	24,193640  	-242,047242  	70,332127  	65,584320  	0,005707  	0,011427  	0,003965  	0,004145  	0,004475  	-0,000001  	-0,000000  	26,386444  	23,806961  	24,789417  	25,235035  	29,745249  	27,896886  	29,192041  	29,356370  	33,972289  	32,405681  	35,258975  	60,088986  	26,530553  	25,517838  	28,347519  	64,950423  	0,124179  	0,062922  	-2886,697753  	-27062,262736  	-0,103127  	-0,050008  	0,402623  	0,204012  	-4,055971  	15990,891400  	37701,700892  	5,468169  	-0,047959  
126,557000  	21,836468  	32,800760  	24,193517  	357,439972  	70,334059  	65,585875  	0,005702  	0,011475  	0,003967  	0,004167  	0,004466  	-0,000000  	-0,000000  	26,380481  	23,797363  	24,781217  	25,228756  	29,737601  	27,885410  	29,187637  	29,355776  	33,965623  	32,394351  	35,250428  	60,073729  	26,527573  	25,496191  	28,334023  	64,938956  	0,141639  	0,071769  	-3290,342265  	12536,722511  	-0,036499  	-0,050003  	0,395315  	0,200309  	-3,982668  	16094,937626  	37602,026499  	5,453713  	-0,047954  
127,556000  	21,845586  	32,800575  	24,193148  	357,439972  	70,335648  	65,588239  	0,005693  	0,011471  	0,003966  	0,004212  	0,004468  	0,000001  	-0,000000  	26,384577  	23,799529  	24,787413  	25,231491  	29,747957  	27,890743  	29,185051  	29,361615  	33,967595  	32,403307  	35,254705  	60,080867  	26,539210  	25,496191  	28,333582  	64,941053  	0,178298  	0,090345  	-4138,446706  	12532,851328  	-0,036487  	-0,049985  	0,397135  	0,201231  	-4,000348  	16087,573112  	37407,451012  	5,425492  	-0,047939  
128,559000  	21,851050  	32,798542  	24,193025  	956,927186  	70,331473  	65,587866  	0,005693  	0,011448  	0,003964  	0,004165  	0,004461  	0,000001  	-0,000000  	26,376174  	23,795539  	24,778139  	25,229470  	29,736448  	27,877714  	29,188469  	29,355853  	33,962535  	32,397049  	35,252204  	60,080637  	26,537131  	25,458531  	28,343187  	64,938206  	0,140341  	0,071112  	-3255,194148  	22507,179641  	-0,022166  	-0,049984  	0,391197  	0,198223  	-3,937387  	16036,574734  	37403,969893  	5,424987  	-0,047937  
129,555000  	21,854826  	32,799497  	24,193179  	1256,670793  	70,327579  	65,590199  	0,005699  	0,011462  	0,003964  	0,004225  	0,004469  	0,000001  	-0,000000  	26,373091  	23,794472  	24,775079  	25,225324  	29,744021  	27,879447  	29,184099  	29,355205  	33,954059  	32,401753  	35,243320  	60,072212  	26,535552  	25,441107  	28,336185  	64,927690  	0,188552  	0,095541  	-4372,321589  	25555,013762  	-0,018531  	-0,049986  	0,397362  	0,201346  	-3,994184  	16066,428254  	37541,753007  	5,444971  	-0,047940  
130,557000  	21,841380  	32,801714  	24,193117  	1256,670793  	70,332065  	65,585222  	0,005699  	0,011435  	0,003967  	0,004159  	0,004476  	0,000000  	-0,000000  	26,389562  	23,813642  	24,793078  	25,232468  	29,753118  	27,894571  	29,204938  	29,364747  	33,977611  	32,403132  	35,263845  	60,084837  	26,555362  	25,437033  	28,352650  	64,959008  	0,135328  	0,068572  	-3142,600674  	25559,300410  	-0,018534  	-0,049996  	0,403555  	0,204484  	-4,064532  	16008,224537  	37543,574769  	5,445235  	-0,047948  
131,555000  	21,834657  	32,806611  	24,193855  	1256,670793  	70,331193  	65,581769  	0,005703  	0,011499  	0,003964  	0,004170  	0,004474  	0,000001  	-0,000000  	26,379179  	23,788687  	24,775064  	25,231526  	29,741158  	27,873160  	29,192055  	29,352782  	33,967757  	32,394179  	35,242612  	60,075871  	26,550537  	25,407994  	28,332198  	64,945352  	0,144386  	0,073162  	-3356,516072  	25555,852895  	-0,018531  	-0,049988  	0,402003  	0,203698  	-4,051105  	16147,674198  	37608,988737  	5,454723  	-0,047941  
132,557000  	21,854795  	32,814064  	24,194776  	57,696365  	70,329822  	65,583636  	0,005701  	0,011494  	0,003965  	0,004174  	0,004454  	-0,000000  	-0,000000  	26,360769  	23,795504  	24,780213  	25,214755  	29,731292  	27,883485  	29,178767  	29,353498  	33,959029  	32,388736  	35,235445  	60,070123  	26,561443  	25,394121  	28,342203  	64,924341  	0,147385  	0,074681  	-3422,260060  	1816,879463  	-0,053915  	-0,050004  	0,385834  	0,195505  	-3,885511  	16136,662799  	37583,173380  	5,450978  	-0,047955  
133,557000  	21,866706  	32,818838  	24,195851  	57,696365  	70,332532  	65,582329  	0,005707  	0,011464  	0,003963  	0,004192  	0,004433  	0,000001  	-0,000000  	26,379963  	23,794553  	24,770520  	25,230037  	29,741935  	27,882473  	29,180788  	29,350215  	33,959154  	32,392581  	35,251863  	60,075983  	26,549298  	25,369899  	28,337656  	64,939243  	0,161928  	0,082050  	-3757,487028  	1816,489592  	-0,053905  	-0,049994  	0,369426  	0,187191  	-3,723429  	16071,661233  	37697,266526  	5,467526  	-0,047946  
134,555000  	21,857742  	32,818961  	24,196036  	657,183579  	70,330850  	65,586746  	0,005701  	0,011468  	0,003967  	0,004198  	0,004445  	0,000000  	-0,000000  	26,384564  	23,807072  	24,787825  	25,234366  	29,744004  	27,891889  	29,192362  	29,363164  	33,972578  	32,400088  	35,254979  	60,080714  	26,554945  	25,364448  	28,347801  	64,952499  	0,166825  	0,084531  	-3874,340628  	18486,592647  	-0,027585  	-0,049997  	0,378996  	0,192040  	-3,814984  	16080,922410  	37565,781907  	5,448456  	-0,047949  
135,556000  	21,854611  	32,816097  	24,196128  	657,183579  	70,328981  	65,588519  	0,005706  	0,011477  	0,003966  	0,004179  	0,004501  	0,000000  	-0,000000  	26,382941  	23,809296  	24,782682  	25,242259  	29,747179  	27,893692  	29,195182  	29,350435  	33,974532  	32,399270  	35,256621  	60,082866  	26,551875  	25,359216  	28,342169  	64,953814  	0,151914  	0,076976  	-3528,142835  	18487,489023  	-0,027586  	-0,050000  	0,423386  	0,214533  	-4,258539  	16100,055999  	37692,309638  	5,466807  	-0,047951  
136,558000  	21,847612  	32,812463  	24,197234  	1256,670793  	70,330165  	65,587399  	0,005702  	0,011472  	0,003964  	0,004157  	0,004480  	0,000000  	-0,000000  	26,372053  	23,799971  	24,773414  	25,220560  	29,736668  	27,880905  	29,190646  	29,351461  	33,966259  	32,386769  	35,243638  	60,068890  	26,530198  	25,330727  	28,334289  	64,943804  	0,133833  	0,067814  	-3109,163599  	25558,564173  	-0,018533  	-0,049994  	0,406788  	0,206122  	-4,093578  	16089,658663  	37606,792737  	5,454404  	-0,047946  
137,557000  	21,836069  	32,817668  	24,197940  	1256,670793  	70,334401  	65,581863  	0,005701  	0,011439  	0,003966  	0,004186  	0,004462  	0,000001  	-0,000000  	26,388836  	23,804260  	24,791438  	25,236326  	29,745405  	27,887800  	29,201999  	29,356765  	33,972866  	32,407743  	35,250583  	60,078981  	26,547215  	25,342072  	28,345777  	64,940479  	0,157198  	0,079653  	-3657,548180  	25553,790542  	-0,018530  	-0,049984  	0,392050  	0,198655  	-3,953394  	16017,930698  	37584,684454  	5,451198  	-0,047938  
138,557000  	21,848471  	32,821240  	24,199108  	1256,670793  	70,332844  	65,582423  	0,005702  	0,011436  	0,003964  	0,004178  	0,004420  	-0,000000  	-0,000000  	26,386479  	23,805500  	24,782982  	25,227375  	29,748065  	27,888152  	29,192535  	29,355677  	33,958169  	32,400006  	35,250898  	60,077835  	26,535205  	25,334254  	28,341182  	64,934281  	0,150967  	0,076496  	-3509,744095  	25562,911564  	-0,018536  	-0,050004  	0,359207  	0,182013  	-3,620591  	16011,500720  	37591,505470  	5,452187  	-0,047955  
139,555000  	21,857036  	32,822257  	24,200121  	357,439972  	70,329947  	65,587026  	0,005701  	0,011424  	0,003966  	0,004199  	0,004478  	0,000001  	-0,000000  	26,396363  	23,811158  	24,790285  	25,244324  	29,753489  	27,896770  	29,197338  	29,370833  	33,976453  	32,407157  	35,262573  	60,083265  	26,544323  	25,329834  	28,353338  	64,948350  	0,168214  	0,085235  	-3908,030419  	12534,126360  	-0,036492  	-0,049993  	0,404786  	0,205108  	-4,073568  	15984,936825  	37585,821290  	5,451362  	-0,047945  
140,558000  	21,842117  	32,822688  	24,199753  	-242,047242  	70,330196  	65,582174  	0,005700  	0,011474  	0,003965  	0,004205  	0,004501  	-0,000000  	-0,000000  	26,385278  	23,808618  	24,785423  	25,236364  	29,744681  	27,887320  	29,192752  	29,367020  	33,972364  	32,394047  	35,251205  	60,075327  	26,530282  	25,320056  	28,346531  	64,936984  	0,172904  	0,087612  	-4022,606569  	-27060,531603  	-0,103118  	-0,050005  	0,423205  	0,214441  	-4,263508  	16093,113122  	37550,868878  	5,446293  	-0,047955  
141,556000  	21,846691  	32,819300  	24,196435  	1256,670793  	70,333778  	65,584475  	0,005691  	0,011464  	0,003967  	0,004188  	0,004491  	0,000000  	-0,000000  	26,380255  	23,805468  	24,791093  	25,235834  	29,747239  	27,884817  	29,194415  	29,362219  	33,970932  	32,400199  	35,241000  	60,075051  	26,520490  	25,302422  	28,339405  	64,939961  	0,158803  	0,080467  	-3691,876006  	25559,986468  	-0,018534  	-0,049997  	0,414916  	0,210241  	-4,181128  	16071,008260  	37361,483294  	5,418825  	-0,047949  
142,558000  	21,851418  	32,818191  	24,195882  	1256,670793  	70,333716  	65,585471  	0,005710  	0,011487  	0,003966  	0,004217  	0,004452  	0,000001  	-0,000000  	26,379939  	23,807737  	24,790993  	25,232339  	29,747102  	27,889341  	29,199301  	29,363810  	33,976578  	32,399220  	35,244675  	60,069110  	26,516715  	25,291633  	28,340585  	64,942437  	0,182276  	0,092361  	-4235,328222  	25557,108666  	-0,018532  	-0,049991  	0,384151  	0,194652  	-3,870242  	16122,112047  	37767,418488  	5,477701  	-0,047944  
143,556000  	21,839814  	32,816898  	24,196896  	1256,670793  	70,334682  	65,584133  	0,005705  	0,011444  	0,003967  	0,004266  	0,004449  	0,000000  	-0,000000  	26,375874  	23,803191  	24,782131  	25,233987  	29,737307  	27,883699  	29,195669  	29,357715  	33,970015  	32,394141  	35,248932  	60,062914  	26,504147  	25,280600  	28,335782  	64,934020  	0,222466  	0,112725  	-5174,035467  	25560,793260  	-0,018535  	-0,049999  	0,381903  	0,193513  	-3,849460  	16029,077927  	37663,472133  	5,462625  	-0,047951  
144,557000  	21,812247  	32,817637  	24,199231  	1256,670793  	70,337735  	65,591723  	0,005705  	0,011460  	0,003964  	0,004210  	0,004451  	0,000000  	-0,000000  	26,385170  	23,809295  	24,788454  	25,247281  	29,749554  	27,889780  	29,197993  	29,360593  	33,974198  	32,404377  	35,257025  	60,072266  	26,502578  	25,278255  	28,343156  	64,938839  	0,177035  	0,089705  	-4128,039454  	25560,155986  	-0,018534  	-0,049998  	0,383632  	0,194389  	-3,863196  	16063,563097  	37660,139297  	5,462141  	-0,047950  
145,556000  	21,796867  	32,819824  	24,200121  	1256,670793  	70,337236  	65,594118  	0,005688  	0,011444  	0,003965  	0,004200  	0,004416  	0,000000  	-0,000000  	26,394434  	23,818516  	24,798202  	25,250218  	29,764758  	27,901597  	29,204439  	29,365889  	33,981091  	32,407771  	35,261872  	60,078455  	26,504765  	25,280491  	28,352339  	64,943441  	0,169021  	0,085644  	-3947,456763  	25560,228170  	-0,018534  	-0,049998  	0,356089  	0,180433  	-3,583652  	16028,782215  	37292,454046  	5,408813  	-0,047950  
146,558000  	21,792753  	32,820686  	24,201780  	1256,670793  	70,336239  	65,589390  	0,005695  	0,011465  	0,003965  	0,004210  	0,004446  	0,000001  	-0,000000  	26,389887  	23,814014  	24,793735  	25,242302  	29,752853  	27,898253  	29,200713  	29,365171  	33,973185  	32,401631  	35,255130  	60,072190  	26,489086  	25,273796  	28,344523  	64,939660  	0,177161  	0,089769  	-4139,455713  	25558,081666  	-0,018533  	-0,049993  	0,379356  	0,192222  	-3,820811  	16074,609161  	37451,780556  	5,431922  	-0,047946  
147,556000  	21,784557  	32,821980  	24,203163  	1256,670793  	70,339604  	65,580929  	0,005688  	0,011445  	0,003965  	0,004205  	0,004449  	0,000001  	-0,000000  	26,386567  	23,807805  	24,784633  	25,238157  	29,739550  	27,895629  	29,194617  	29,368430  	33,967894  	32,396826  	35,249907  	60,065847  	26,472515  	25,269271  	28,337582  	64,936823  	0,172610  	0,087463  	-4036,591170  	25555,030687  	-0,018531  	-0,049987  	0,382006  	0,193565  	-3,857085  	16031,145085  	37302,353699  	5,410249  	-0,047940  
148,557000  	21,809607  	32,817791  	24,203777  	57,696365  	70,340351  	65,583293  	0,005700  	0,011466  	0,003966  	0,004186  	0,004466  	-0,000001  	-0,000000  	26,389052  	23,802980  	24,781978  	25,244949  	29,740582  	27,898478  	29,199963  	29,363067  	33,968556  	32,398515  	35,254370  	60,070375  	26,469717  	25,275104  	28,332288  	64,929943  	0,157153  	0,079631  	-3665,368777  	1816,687472  	-0,053924  	-0,050014  	0,395207  	0,200254  	-3,989020  	16075,191389  	37553,361444  	5,446655  	-0,047963  
149,555000  	21,819584  	32,811385  	24,206296  	57,696365  	70,340538  	65,586217  	0,005701  	0,011436  	0,003965  	0,004160  	0,004496  	-0,000000  	-0,000000  	26,394419  	23,814382  	24,785291  	25,241435  	29,746993  	27,902264  	29,207062  	29,364849  	33,977164  	32,405763  	35,261002  	60,079746  	26,465035  	25,297792  	28,335901  	64,933974  	0,136036  	0,068930  	-3168,110984  	1816,213413  	-0,053914  	-0,050003  	0,418803  	0,212211  	-4,224757  	16010,808131  	37583,060403  	5,450962  	-0,047954  
150,557000  	21,833275  	32,807443  	24,206480  	1256,670793  	70,334869  	65,593745  	0,005693  	0,011463  	0,003965  	0,004177  	0,004459  	-0,000000  	-0,000000  	26,391210  	23,808172  	24,792321  	25,239663  	29,749472  	27,897623  	29,198181  	29,362312  	33,972936  	32,403782  	35,252876  	60,071116  	26,459937  	25,308019  	28,344056  	64,939448  	0,149920  	0,075966  	-3485,856292  	25561,521249  	-0,018535  	-0,050001  	0,389832  	0,197531  	-3,921597  	16069,784378  	37398,045636  	5,424128  	-0,047953  
151,557000  	21,843222  	32,805410  	24,207033  	1256,670793  	70,334557  	65,590323  	0,005707  	0,011460  	0,003966  	0,004202  	0,004498  	-0,000000  	-0,000000  	26,397765  	23,818263  	24,795516  	25,244544  	29,756050  	27,896321  	29,212522  	29,366807  	33,976826  	32,413798  	35,261814  	60,079430  	26,476154  	25,319835  	28,340673  	64,940972  	0,170227  	0,086255  	-3953,696401  	25562,690043  	-0,018536  	-0,050004  	0,420761  	0,213203  	-4,235503  	16063,427975  	37706,304725  	5,468837  	-0,047955  
152,555000  	21,831249  	32,803439  	24,208078  	57,696365  	70,336862  	65,586342  	0,005705  	0,011425  	0,003968  	0,004170  	0,004443  	0,000001  	-0,000000  	26,392503  	23,818456  	24,792592  	25,230331  	29,742411  	27,899973  	29,197826  	29,364116  	33,980295  	32,411225  	35,258920  	60,066927  	26,464355  	25,308650  	28,334302  	64,939425  	0,144372  	0,073154  	-3356,261559  	1815,734337  	-0,053902  	-0,049992  	0,376815  	0,190935  	-3,798156  	15987,640684  	37662,815452  	5,462530  	-0,047944  
153,556000  	21,792293  	32,803562  	24,209429  	956,927186  	70,333187  	65,580743  	0,005701  	0,011464  	0,003968  	0,004167  	0,004454  	0,000000  	-0,000000  	26,399873  	23,815369  	24,793485  	25,236536  	29,745642  	27,893282  	29,199608  	29,365942  	33,967649  	32,409940  	35,261434  	60,071255  	26,463959  	25,308282  	28,342847  	64,932372  	0,142204  	0,072056  	-3317,634535  	22512,092715  	-0,022171  	-0,049997  	0,385840  	0,195508  	-3,890698  	16071,794233  	37573,930409  	5,449638  	-0,047949  
154,558000  	21,782347  	32,809352  	24,208508  	-242,047242  	70,328950  	65,582049  	0,005697  	0,011451  	0,003968  	0,004179  	0,004474  	-0,000001  	-0,000000  	26,380096  	23,805963  	24,781927  	25,229983  	29,746777  	27,887353  	29,197729  	29,365993  	33,964150  	32,404878  	35,258552  	60,067598  	26,463707  	25,304414  	28,334079  	64,928649  	0,151916  	0,076977  	-3549,287362  	-27063,634878  	-0,103127  	-0,050011  	0,401621  	0,203504  	-4,045105  	16042,887276  	37499,005148  	5,438771  	-0,047960  
155,557000  	21,792109  	32,815635  	24,209890  	657,183579  	70,328919  	65,586062  	0,005702  	0,011442  	0,003967  	0,004187  	0,004439  	0,000000  	-0,000000  	26,396588  	23,811375  	24,796477  	25,245929  	29,757594  	27,895441  	29,205393  	29,369307  	33,979801  	32,416530  	35,255388  	60,072937  	26,476806  	25,306145  	28,342326  	64,939608  	0,158535  	0,080331  	-3702,767597  	18486,804397  	-0,027585  	-0,050000  	0,374099  	0,189558  	-3,764691  	16024,323182  	37594,400518  	5,452607  	-0,047951  
156,556000  	21,790021  	32,814157  	24,210136  	1256,670793  	70,330414  	65,586871  	0,005691  	0,011445  	0,003967  	0,004217  	0,004478  	-0,000001  	-0,000000  	26,402141  	23,815167  	24,799446  	25,246905  	29,753716  	27,908052  	29,208064  	29,372926  	33,981866  	32,418159  	35,265346  	60,077334  	26,481097  	25,307121  	28,347493  	64,935609  	0,182171  	0,092307  	-4255,043075  	25563,938973  	-0,018537  	-0,050007  	0,404801  	0,205116  	-4,074249  	16029,619831  	37357,514960  	5,418249  	-0,047957  
157,558000  	21,758985  	32,803778  	24,211395  	1256,670793  	70,333249  	65,581987  	0,005698  	0,011461  	0,003965  	0,004190  	0,004419  	0,000001  	-0,000000  	26,388300  	23,805681  	24,789794  	25,248095  	29,751457  	27,884339  	29,194718  	29,360788  	33,972526  	32,413386  	35,255307  	60,076000  	26,485026  	25,301138  	28,336239  	64,938758  	0,160933  	0,081546  	-3766,023689  	25553,241943  	-0,018530  	-0,049984  	0,358222  	0,181514  	-3,611304  	16064,941202  	37517,872389  	5,441507  	-0,047937  
158,557000  	21,725095  	32,796386  	24,212256  	1256,670793  	70,336052  	65,582609  	0,005696  	0,011453  	0,003966  	0,004191  	0,004469  	-0,000000  	-0,000000  	26,392508  	23,812116  	24,789159  	25,242368  	29,753470  	27,898479  	29,203548  	29,365448  	33,969700  	32,401980  	35,257743  	60,071067  	26,473109  	25,298284  	28,340015  	64,936415  	0,161063  	0,081612  	-3778,116098  	25560,952077  	-0,018535  	-0,050001  	0,397347  	0,201339  	-4,007573  	16048,016968  	37478,506794  	5,435798  	-0,047952  
159,557000  	21,700783  	32,792229  	24,213362  	357,439972  	70,338264  	65,578286  	0,005692  	0,011468  	0,003967  	0,004173  	0,004503  	-0,000000  	-0,000000  	26,394660  	23,796945  	24,783431  	25,234309  	29,747879  	27,887285  	29,188765  	29,352357  	33,967087  	32,404906  	35,247591  	60,066983  	26,476896  	25,305424  	28,342333  	64,928734  	0,146630  	0,074299  	-3445,836320  	12535,149191  	-0,036496  	-0,050000  	0,424775  	0,215237  	-4,290098  	16080,846006  	37385,971166  	5,422377  	-0,047952  
160,555000  	21,709132  	32,792167  	24,214467  	956,927186  	70,337890  	65,577912  	0,005707  	0,011480  	0,003964  	0,004213  	0,004465  	-0,000001  	-0,000000  	26,391067  	23,814994  	24,784614  	25,235713  	29,748450  	27,891206  	29,192994  	29,361161  	33,976384  	32,406062  	35,258152  	60,071380  	26,477870  	25,324108  	28,341098  	64,929646  	0,179396  	0,090901  	-4212,638434  	22517,380813  	-0,022177  	-0,050011  	0,394184  	0,199736  	-3,981137  	16106,582897  	37702,717690  	5,468317  	-0,047961  
161,557000  	21,741641  	32,787332  	24,215481  	956,927186  	70,335866  	65,582454  	0,005701  	0,011423  	0,003964  	0,004186  	0,004491  	-0,000000  	-0,000000  	26,396929  	23,819761  	24,792820  	25,245132  	29,752484  	27,898246  	29,204740  	29,366217  	33,979633  	32,410058  	35,260896  	60,073375  	26,498105  	25,341128  	28,351172  	64,941560  	0,157723  	0,079920  	-3691,224913  	22514,661221  	-0,022174  	-0,050004  	0,415192  	0,210381  	-4,187526  	15982,729593  	37570,964750  	5,449208  	-0,047955  
162,555000  	21,770927  	32,780372  	24,216218  	357,439972  	70,331131  	65,584071  	0,005697  	0,011482  	0,003966  	0,004186  	0,004463  	-0,000000  	-0,000000  	26,385203  	23,812737  	24,787830  	25,243687  	29,747297  	27,890402  	29,199626  	29,357316  	33,973369  	32,403785  	35,248922  	60,076191  	26,476561  	25,340995  	28,332019  	64,931285  	0,157064  	0,079586  	-3663,728890  	12535,117289  	-0,036496  	-0,050001  	0,393074  	0,199174  	-3,959153  	16110,152670  	37492,657225  	5,437850  	-0,047952  
163,558000  	21,795793  	32,776399  	24,217048  	1256,670793  	70,334557  	65,583822  	0,005696  	0,011457  	0,003965  	0,004138  	0,004479  	0,000001  	-0,000000  	26,397904  	23,814393  	24,798115  	25,244633  	29,758022  	27,891638  	29,201669  	29,369919  	33,975003  	32,407245  	35,261107  	60,082758  	26,500631  	25,351090  	28,342427  	64,938846  	0,118838  	0,060216  	-2764,784773  	25554,361428  	-0,018530  	-0,049986  	0,405707  	0,205575  	-4,089557  	16055,576030  	37466,580607  	5,434068  	-0,047940  
164,557000  	21,800766  	32,768638  	24,216864  	1256,670793  	70,338358  	65,586062  	0,005702  	0,011471  	0,003968  	0,004179  	0,004452  	-0,000002  	-0,000000  	26,384670  	23,813652  	24,799520  	25,236850  	29,748288  	27,891563  	29,198230  	29,367513  	33,975517  	32,394511  	35,264465  	60,079324  	26,497493  	25,362171  	28,340950  	64,937084  	0,151340  	0,076685  	-3516,876516  	25569,877056  	-0,018542  	-0,050020  	0,384409  	0,194783  	-3,876150  	16087,343899  	37590,255657  	5,452006  	-0,047969  
165,555000  	21,776637  	32,758105  	24,215758  	956,927186  	70,335461  	65,584787  	0,005702  	0,011478  	0,003966  	0,004181  	0,004453  	0,000001  	-0,000000  	26,390280  	23,810446  	24,794076  	25,237865  	29,743025  	27,897073  	29,199570  	29,358040  	33,969424  	32,395327  	35,257724  	60,071040  	26,498528  	25,371148  	28,338175  	64,942133  	0,153367  	0,077712  	-3568,395081  	22508,386321  	-0,022168  	-0,049989  	0,385174  	0,195170  	-3,882532  	16101,665439  	37588,087901  	5,451691  	-0,047942  
166,558000  	21,765463  	32,759645  	24,216003  	357,439972  	70,332782  	65,584849  	0,005696  	0,011453  	0,003966  	0,004205  	0,004492  	-0,000000  	-0,000000  	26,396737  	23,811524  	24,790561  	25,237451  	29,749593  	27,890786  	29,203143  	29,361744  	33,967184  	32,399166  	35,258330  	60,077453  	26,502825  	25,381794  	28,337019  	64,945308  	0,172695  	0,087506  	-4022,757091  	12535,912883  	-0,036499  	-0,050004  	0,415966  	0,210773  	-4,190496  	16048,350883  	37463,946820  	5,433686  	-0,047955  
167,556000  	21,769699  	32,765281  	24,215819  	357,439972  	70,331754  	65,581396  	0,005700  	0,011467  	0,003966  	0,004161  	0,004480  	0,000001  	-0,000000  	26,389111  	23,810003  	24,781873  	25,234412  	29,743343  	27,883032  	29,199617  	29,357724  	33,967051  	32,396038  	35,251078  	60,072025  	26,501676  	25,370241  	28,335983  	64,933221  	0,136732  	0,069283  	-3185,434773  	12531,996109  	-0,036487  	-0,049987  	0,406105  	0,205776  	-4,093242  	16078,811391  	37560,712042  	5,447721  	-0,047940  
168,557000  	21,772155  	32,771563  	24,215328  	-242,047242  	70,333062  	65,577788  	0,005701  	0,011468  	0,003965  	0,004141  	0,004455  	-0,000001  	-0,000000  	26,378127  	23,804350  	24,785752  	25,230946  	29,739396  	27,884449  	29,192834  	29,356698  	33,961364  	32,397983  	35,248321  	60,064845  	26,504812  	25,360062  	28,330081  	64,928420  	0,120790  	0,061205  	-2815,013722  	-27065,354367  	-0,103131  	-0,050014  	0,386624  	0,195905  	-3,900923  	16081,145963  	37579,861727  	5,450498  	-0,047963  
169,556000  	21,751863  	32,773688  	24,215450  	956,927186  	70,338389  	65,584818  	0,005701  	0,011432  	0,003964  	0,004210  	0,004464  	-0,000000  	-0,000000  	26,387406  	23,808452  	24,793847  	25,233485  	29,745745  	27,895556  	29,194508  	29,364860  	33,968008  	32,399076  	35,258386  	60,072067  	26,517087  	25,352659  	28,333727  	64,932833  	0,176555  	0,089462  	-4123,004952  	22514,118309  	-0,022173  	-0,050003  	0,394091  	0,199689  	-3,974836  	16003,546196  	37585,595335  	5,451330  	-0,047954  
170,557000  	21,766476  	32,773873  	24,216003  	-242,047242  	70,341442  	65,585502  	0,005702  	0,011479  	0,003966  	0,004186  	0,004441  	0,000001  	-0,000000  	26,392591  	23,810324  	24,795073  	25,236703  	29,749060  	27,899850  	29,198576  	29,364648  	33,973505  	32,404471  	35,260348  	60,078735  	26,522824  	25,341690  	28,349277  	64,936908  	0,157550  	0,079832  	-3674,387779  	-27052,797844  	-0,103082  	-0,049988  	0,375521  	0,190279  	-3,789426  	16104,431553  	37597,373239  	5,453038  	-0,047941  
171,556000  	21,801288  	32,772857  	24,217109  	657,183579  	70,344526  	65,581894  	0,005695  	0,011511  	0,003964  	0,004193  	0,004460  	0,000000  	-0,000000  	26,376152  	23,798289  	24,787254  	25,231830  	29,739697  	27,887317  	29,189174  	29,354904  	33,963118  	32,401728  	35,250727  	60,068888  	26,518818  	25,316438  	28,347936  	64,936739  	0,162641  	0,082411  	-3780,756082  	18486,471399  	-0,027585  	-0,050000  	0,390974  	0,198110  	-3,950920  	16172,477260  	37444,451141  	5,430858  	-0,047951  
172,556000  	21,822285  	32,771502  	24,217171  	1256,670793  	70,343965  	65,583511  	0,005699  	0,011449  	0,003965  	0,004161  	0,004436  	0,000000  	-0,000000  	26,364068  	23,790535  	24,772998  	25,217561  	29,731569  	27,876152  	29,180706  	29,345671  	33,951894  	32,387409  	35,244317  	60,060579  	26,516096  	25,289399  	28,335524  	64,931116  	0,137360  	0,069601  	-3186,554586  	25559,789376  	-0,018534  	-0,049998  	0,371478  	0,188231  	-3,752187  	16039,318210  	37536,478370  	5,444206  	-0,047950  
173,558000  	21,808962  	32,769192  	24,219290  	956,927186  	70,335803  	65,587275  	0,005699  	0,011470  	0,003965  	0,004158  	0,004489  	-0,000001  	-0,000000  	26,364780  	23,796347  	24,771527  	25,210750  	29,736195  	27,878132  	29,183511  	29,344731  	33,949366  	32,384960  	35,244172  	60,067412  	26,518105  	25,297748  	28,335958  	64,930167  	0,134607  	0,068206  	-3125,840023  	22518,141426  	-0,022177  	-0,050013  	0,413238  	0,209391  	-4,163543  	16085,213779  	37529,798576  	5,443237  	-0,047963  
174,557000  	21,786061  	32,768391  	24,219843  	-242,047242  	70,334495  	65,591941  	0,005703  	0,011487  	0,003965  	0,004184  	0,004451  	-0,000000  	-0,000000  	26,373714  	23,801164  	24,777659  	25,229129  	29,735171  	27,881827  	29,184334  	29,350321  	33,961007  	32,389361  	35,249350  	60,068764  	26,527380  	25,319798  	28,339624  	64,934671  	0,155960  	0,079026  	-3629,015404  	-27060,718694  	-0,103111  	-0,050004  	0,383504  	0,194324  	-3,859095  	16121,345883  	37609,588930  	5,454810  	-0,047955  
175,557000  	21,783114  	32,773103  	24,220765  	657,183579  	70,338638  	65,589950  	0,005700  	0,011466  	0,003965  	0,004186  	0,004486  	-0,000000  	-0,000000  	26,375962  	23,797137  	24,777971  	25,236609  	29,730889  	27,880750  	29,190362  	29,348299  	33,967730  	32,399475  	35,254178  	60,069530  	26,532524  	25,330832  	28,343030  	64,932927  	0,157378  	0,079744  	-3664,551125  	18487,452954  	-0,027587  	-0,050003  	0,411077  	0,208296  	-4,141907  	16075,561383  	37562,096017  	5,447921  	-0,047954  
176,556000  	21,813383  	32,778770  	24,221809  	1256,670793  	70,337018  	65,586280  	0,005702  	0,011444  	0,003968  	0,004158  	0,004444  	0,000001  	-0,000000  	26,365093  	23,802646  	24,783850  	25,222782  	29,731835  	27,881987  	29,183382  	29,351451  	33,961756  	32,387721  	35,250853  	60,073051  	26,527789  	25,326092  	28,333392  	64,930526  	0,134732  	0,068270  	-3130,223326  	25556,544878  	-0,018532  	-0,049992  	0,377958  	0,191514  	-3,809851  	16027,816551  	37601,920583  	5,453697  	-0,047944  
177,557000  	21,845279  	32,783852  	24,221564  	57,696365  	70,334869  	65,585440  	0,005707  	0,011436  	0,003966  	0,004184  	0,004421  	0,000001  	-0,000000  	26,373017  	23,808603  	24,780162  	25,221033  	29,745084  	27,886008  	29,192159  	29,353724  	33,969793  	32,398646  	35,255261  	60,080668  	26,528742  	25,340153  	28,350173  	64,943956  	0,155335  	0,078709  	-3600,052435  	1814,968677  	-0,053901  	-0,049992  	0,359760  	0,182293  	-3,625417  	16011,606130  	37697,669008  	5,467585  	-0,047944  
178,556000  	21,853383  	32,782127  	24,221134  	657,183579  	70,338731  	65,585378  	0,005700  	0,011481  	0,003964  	0,004210  	0,004446  	-0,000001  	-0,000000  	26,368504  	23,800052  	24,785858  	25,220638  	29,737564  	27,882164  	29,181481  	29,355242  	33,965705  	32,392720  	35,252994  	60,067703  	26,523435  	25,342071  	28,352673  	64,943489  	0,176882  	0,089628  	-4095,746628  	18489,332519  	-0,027590  	-0,050009  	0,379445  	0,192267  	-3,826943  	16108,604778  	37559,568145  	5,447555  	-0,047959  
179,557000  	21,861672  	32,779910  	24,222055  	-242,047242  	70,337641  	65,586404  	0,005701  	0,011458  	0,003966  	0,004217  	0,004444  	0,000001  	-0,000000  	26,362627  	23,778839  	24,762655  	25,216484  	29,723066  	27,862963  	29,164372  	29,327700  	33,946187  	32,378148  	35,231764  	60,061550  	26,500868  	25,336136  	28,328628  	64,917637  	0,182574  	0,092511  	-4223,458219  	-27055,303780  	-0,103090  	-0,049993  	0,378039  	0,191555  	-3,811068  	16058,208437  	37569,404248  	5,448981  	-0,047945  
180,557000  	21,866215  	32,783113  	24,222117  	956,927186  	70,336021  	65,586093  	0,005692  	0,011528  	0,003965  	0,004156  	0,004471  	-0,000000  	-0,000000  	26,373395  	23,796818  	24,771118  	25,222028  	29,736156  	27,877193  	29,195844  	29,355166  	33,959811  	32,379936  	35,246471  	60,078352  	26,517152  	25,352365  	28,344976  	64,943660  	0,132706  	0,067243  	-3069,487870  	22512,959768  	-0,022172  	-0,050001  	0,399662  	0,202512  	-4,027943  	16208,913566  	37392,509738  	5,423325  	-0,047952  
181,555000  	21,863452  	32,788903  	24,221994  	1256,670793  	70,333529  	65,587182  	0,005702  	0,011423  	0,003968  	0,004181  	0,004475  	-0,000000  	-0,000000  	26,379647  	23,803510  	24,782409  	25,227402  	29,742755  	27,875073  	29,200214  	29,341792  	33,963832  	32,395956  	35,249217  	60,075645  	26,520022  	25,354113  	28,346499  	64,932515  	0,153412  	0,077735  	-3551,221459  	25563,237993  	-0,018537  	-0,050006  	0,402482  	0,203941  	-4,053305  	15982,431051  	37595,953959  	5,452832  	-0,047957  
182,556000  	21,850068  	32,794138  	24,220704  	1256,670793  	70,333155  	65,592283  	0,005699  	0,011486  	0,003965  	0,004197  	0,004439  	-0,000001  	-0,000000  	26,378206  	23,791868  	24,783576  	25,219049  	29,739067  	27,886221  	29,179367  	29,355745  	33,959499  	32,391178  	35,259798  	60,070312  	26,522952  	25,350404  	28,347657  	64,947196  	0,166186  	0,084208  	-3853,465614  	25565,720647  	-0,018539  	-0,050012  	0,373824  	0,189419  	-3,760354  	16119,785257  	37534,409470  	5,443906  	-0,047961  
183,557000  	21,801809  	32,801622  	24,220519  	357,439972  	70,331941  	65,594242  	0,005698  	0,011455  	0,003964  	0,004167  	0,004502  	-0,000001  	-0,000000  	26,372871  	23,791369  	24,780596  	25,234058  	29,746894  	27,883424  	29,187831  	29,344278  	33,962035  	32,396694  	35,240572  	60,078580  	26,530054  	25,342758  	28,350609  	64,942454  	0,142018  	0,071961  	-3309,839865  	12537,141776  	-0,036503  	-0,050011  	0,423990  	0,214839  	-4,262135  	16052,671256  	37505,882653  	5,439768  	-0,047961  
184,556000  	21,770497  	32,808890  	24,219843  	956,927186  	70,327455  	65,590510  	0,005699  	0,011470  	0,003966  	0,004169  	0,004485  	0,000000  	-0,000000  	26,366631  	23,797307  	24,757927  	25,211399  	29,727637  	27,880726  	29,175212  	29,341995  	33,955370  	32,379685  	35,237791  	60,063782  	26,501823  	25,325563  	28,331034  	64,927251  	0,143767  	0,072848  	-3362,360359  	22510,821072  	-0,022170  	-0,049995  	0,410579  	0,208044  	-4,126662  	16084,053567  	37524,841688  	5,442518  	-0,047947  
185,556000  	21,796468  	32,816128  	24,221748  	57,696365  	70,323810  	65,588799  	0,005699  	0,011466  	0,003964  	0,004191  	0,004435  	0,000001  	-0,000000  	26,372196  	23,791284  	24,773796  	25,224715  	29,735542  	27,881351  	29,189161  	29,338564  	33,959136  	32,388294  	35,247610  	60,074991  	26,521258  	25,317903  	28,337045  	64,932033  	0,161626  	0,081897  	-3773,633701  	1814,770748  	-0,053896  	-0,049986  	0,370739  	0,187856  	-3,724713  	16074,933879  	37527,376621  	5,442886  	-0,047939  
186,558000  	21,817466  	32,819701  	24,221687  	1256,670793  	70,323499  	65,587617  	0,005695  	0,011500  	0,003968  	0,004200  	0,004477  	0,000001  	-0,000000  	26,371902  	23,796236  	24,771215  	25,223943  	29,735306  	27,879807  	29,182748  	29,352644  	33,956888  	32,388315  	35,252918  	60,062215  	26,529558  	25,315495  	28,341302  	64,941201  	0,169005  	0,085636  	-3939,670892  	25555,674742  	-0,018531  	-0,049990  	0,404184  	0,204803  	-4,061469  	16148,929208  	37447,995810  	5,431373  	-0,047943  
187,557000  	21,828149  	32,817483  	24,221502  	1256,670793  	70,330227  	65,581987  	0,005687  	0,011445  	0,003967  	0,004188  	0,004452  	0,000001  	-0,000000  	26,372395  	23,792351  	24,774765  	25,221181  	29,735781  	27,879801  	29,176512  	29,344022  	33,951185  	32,385737  	35,245023  	60,071211  	26,529227  	25,301051  	28,338267  	64,933484  	0,158706  	0,080418  	-3695,250443  	25554,224476  	-0,018530  	-0,049986  	0,384254  	0,194704  	-3,871278  	16030,315958  	37268,467512  	5,405334  	-0,047940  
188,557000  	21,828149  	32,811077  	24,222424  	1256,670793  	70,329542  	65,584600  	0,005695  	0,011484  	0,003965  	0,004204  	0,004427  	-0,000000  	-0,000000  	26,377794  	23,802308  	24,778922  	25,228325  	29,741461  	27,884015  	29,193293  	29,353270  	33,964857  	32,401995  	35,250728  	60,070603  	26,538222  	25,297254  	28,340367  	64,937359  	0,171741  	0,087023  	-3996,426418  	25560,738323  	-0,018535  	-0,050001  	0,364523  	0,184706  	-3,669940  	16114,876288  	37449,464517  	5,431586  	-0,047952  
189,557000  	21,837143  	32,801314  	24,223130  	1256,670793  	70,325928  	65,581054  	0,005699  	0,011441  	0,003966  	0,004170  	0,004453  	0,000001  	-0,000000  	26,381131  	23,792122  	24,770222  	25,221917  	29,734749  	27,886547  	29,179491  	29,350773  	33,958026  	32,392872  	35,243831  	60,064770  	26,528403  	25,277656  	28,345033  	64,934448  	0,144627  	0,073283  	-3359,713529  	25554,547907  	-0,018531  	-0,049987  	0,385176  	0,195172  	-3,877817  	16021,707753  	37534,868441  	5,443972  	-0,047941  
190,558000  	21,850712  	32,802361  	24,224175  	1256,670793  	70,323374  	65,580183  	0,005695  	0,011482  	0,003965  	0,004206  	0,004461  	0,000000  	-0,000000  	26,368992  	23,782059  	24,766962  	25,219710  	29,722356  	27,874259  	29,171905  	29,350504  	33,955123  	32,389910  	35,242587  	60,064948  	26,525104  	25,258469  	28,334896  	64,931507  	0,173754  	0,088042  	-4031,741946  	25559,268341  	-0,018534  	-0,049998  	0,391669  	0,198461  	-3,941780  	16110,564404  	37446,950768  	5,431221  	-0,047949  
191,556000  	21,850804  	32,806427  	24,225465  	1256,670793  	70,319200  	65,586497  	0,005701  	0,011484  	0,003967  	0,004200  	0,004475  	0,000002  	-0,000000  	26,374235  	23,798916  	24,777707  	25,229141  	29,739003  	27,880747  	29,187942  	29,357160  	33,962300  	32,394926  	35,255229  	60,067268  	26,539028  	25,263352  	28,337751  	64,945000  	0,168453  	0,085356  	-3910,149242  	25550,601381  	-0,018528  	-0,049979  	0,402079  	0,203736  	-4,037606  	16115,520064  	37582,834448  	5,450929  	-0,047933  
192,559000  	21,845524  	32,811539  	24,226387  	1256,670793  	70,321941  	65,585004  	0,005697  	0,011487  	0,003967  	0,004161  	0,004467  	-0,000001  	-0,000000  	26,378443  	23,796706  	24,776492  	25,227483  	29,746318  	27,878765  	29,188022  	29,348599  	33,960802  	32,401049  	35,253385  	60,072854  	26,536137  	25,255883  	28,344945  	64,945414  	0,137425  	0,069634  	-3192,944171  	25565,642971  	-0,018539  	-0,050012  	0,396250  	0,200783  	-3,982630  	16121,945797  	37479,615386  	5,435959  	-0,047962  
193,557000  	21,849515  	32,815851  	24,226786  	1256,670793  	70,323281  	65,582018  	0,005702  	0,011440  	0,003969  	0,004162  	0,004427  	0,000001  	-0,000000  	26,374524  	23,790671  	24,779564  	25,216191  	29,732869  	27,874769  	29,183231  	29,348074  	33,954927  	32,391454  	35,253288  	60,066430  	26,527306  	25,243942  	28,341013  	64,936553  	0,137584  	0,069715  	-3196,752811  	25551,724664  	-0,018529  	-0,049981  	0,364426  	0,184657  	-3,666121  	16019,515378  	37603,050358  	5,453861  	-0,047935  
194,559000  	21,857804  	32,817144  	24,227216  	657,183579  	70,326146  	65,577041  	0,005703  	0,011442  	0,003966  	0,004193  	0,004460  	0,000001  	-0,000000  	26,366445  	23,789815  	24,779089  	25,221270  	29,730707  	27,880136  	29,185007  	29,348428  	33,960129  	32,387428  	35,257497  	60,063150  	26,527551  	25,237233  	28,334194  	64,933279  	0,162791  	0,082487  	-3779,999724  	18483,799430  	-0,027582  	-0,049993  	0,390707  	0,197974  	-3,937001  	16023,888810  	37615,047155  	5,455601  	-0,047945  
195,560000  	21,852831  	32,817514  	24,227585  	-242,047242  	70,328016  	65,579405  	0,005702  	0,011495  	0,003966  	0,004197  	0,004486  	-0,000000  	-0,000000  	26,368272  	23,794462  	24,780627  	25,228305  	29,742397  	27,886615  	29,189071  	29,355391  	33,968122  	32,387471  	35,261382  	60,066069  	26,531182  	25,228766  	28,329863  	64,939348  	0,166102  	0,084165  	-3858,778516  	-27059,183925  	-0,103102  	-0,050001  	0,411241  	0,208379  	-4,143487  	16137,504660  	37599,505689  	5,453347  	-0,047952  
196,558000  	21,825263  	32,818438  	24,227155  	956,927186  	70,326209  	65,578783  	0,005689  	0,011424  	0,003966  	0,004165  	0,004453  	0,000000  	-0,000000  	26,378926  	23,797273  	24,781875  	25,233870  	29,748268  	27,884998  	29,192749  	29,358728  	33,967054  	32,388930  	35,263616  	60,068587  	26,532993  	25,218735  	28,334320  	64,937345  	0,139983  	0,070931  	-3260,454576  	22510,792854  	-0,022170  	-0,049996  	0,385271  	0,195219  	-3,880850  	15984,399874  	37319,024940  	5,412667  	-0,047948  
197,557000  	21,815961  	32,816190  	24,227185  	57,696365  	70,321630  	65,586777  	0,005695  	0,011515  	0,003966  	0,004219  	0,004426  	0,000000  	-0,000000  	26,377007  	23,793049  	24,773535  	25,234757  	29,738764  	27,882861  	29,185312  	29,352822  	33,956361  	32,390637  	35,253869  	60,065986  	26,527735  	25,211321  	28,338985  	64,926798  	0,184457  	0,093466  	-4299,083990  	1814,758585  	-0,053904  	-0,049995  	0,363358  	0,184116  	-3,650431  	16181,680427  	37447,099051  	5,431243  	-0,047947  
198,558000  	21,815102  	32,816436  	24,226632  	657,183579  	70,320010  	65,579810  	0,005696  	0,011424  	0,003966  	0,004203  	0,004500  	0,000001  	-0,000000  	26,373714  	23,795956  	24,778218  	25,234771  	29,737638  	27,891535  	29,183388  	29,357209  	33,956978  	32,393600  	35,247319  	60,066267  	26,526954  	25,204709  	28,341719  	64,928010  	0,171026  	0,086660  	-3986,463077  	18483,757938  	-0,027582  	-0,049993  	0,422348  	0,214007  	-4,247856  	15984,986347  	37464,864762  	5,433819  	-0,047945  
199,556000  	21,802301  	32,820039  	24,227462  	657,183579  	70,317705  	65,578503  	0,005697  	0,011461  	0,003967  	0,004185  	0,004494  	-0,000001  	-0,000000  	26,382577  	23,800711  	24,788674  	25,242482  	29,748789  	27,899199  	29,194433  	29,361253  	33,971598  	32,402552  	35,256749  	60,076986  	26,528723  	25,197348  	28,345113  	64,935351  	0,156788  	0,079446  	-3660,030603  	18488,965652  	-0,027589  	-0,050008  	0,417498  	0,211549  	-4,198197  	16064,583942  	37481,846691  	5,436282  	-0,047959  
200,557000  	21,792538  	32,821086  	24,227216  	1256,670793  	70,319760  	65,575642  	0,005701  	0,011441  	0,003964  	0,004174  	0,004461  	0,000000  	-0,000000  	26,379687  	23,796631  	24,780600  	25,232567  	29,740386  	27,895355  	29,190080  	29,357477  	33,969449  	32,396222  	35,258993  	60,073660  	26,517644  	25,189503  	28,335745  	64,935042  	0,147518  	0,074748  	-3447,013401  	25557,535653  	-0,018533  	-0,049994  	0,391229  	0,198238  	-3,938119  	16022,851694  	37571,692042  	5,449313  	-0,047946  
201,556000  	21,774887  	32,820748  	24,225895  	956,927186  	70,322284  	65,576730  	0,005696  	0,011434  	0,003967  	0,004170  	0,004493  	-0,000000  	-0,000000  	26,372987  	23,800371  	24,779042  	25,225799  	29,738201  	27,887855  	29,188719  	29,356220  	33,963495  	32,388610  	35,257696  	60,062672  	26,521864  	25,176672  	28,336197  	64,932452  	0,144726  	0,073334  	-3387,086316  	22513,330192  	-0,022173  	-0,050002  	0,416342  	0,210964  	-4,192179  	16006,650470  	37462,795861  	5,433519  	-0,047953  
202,557000  	21,769607  	32,815204  	24,226264  	357,439972  	70,323717  	65,571007  	0,005698  	0,011482  	0,003966  	0,004201  	0,004452  	0,000001  	-0,000000  	26,375550  	23,802441  	24,775166  	25,225798  	29,741452  	27,880035  	29,182398  	29,355503  	33,959377  	32,395261  	35,257247  	60,069341  	26,520638  	25,168858  	28,341595  	64,935238  	0,169842  	0,086060  	-3974,797343  	12532,207865  	-0,036489  	-0,049990  	0,384211  	0,194683  	-3,874482  	16109,526580  	37511,510344  	5,440585  	-0,047943  
203,558000  	21,786276  	32,811046  	24,227001  	1256,670793  	70,326178  	65,571194  	0,005709  	0,011474  	0,003964  	0,004216  	0,004495  	0,000001  	-0,000000  	26,384232  	23,801095  	24,783180  	25,237194  	29,749328  	27,898633  	29,197187  	29,360818  	33,963636  	32,398985  	35,265456  	60,076007  	26,530362  	25,173345  	28,348340  	64,940826  	0,181367  	0,091900  	-4236,516298  	25556,314748  	-0,018532  	-0,049991  	0,417959  	0,211783  	-4,216823  	16093,688983  	37759,354719  	5,476531  	-0,047944  
204,555000  	21,808440  	32,806057  	24,227124  	57,696365  	70,328919  	65,576606  	0,005703  	0,011449  	0,003966  	0,004158  	0,004509  	-0,000000  	-0,000000  	26,383331  	23,802630  	24,782969  	25,232666  	29,752462  	27,896151  	29,199817  	29,361784  	33,961743  	32,400754  	35,262583  	60,072717  	26,524627  	25,161773  	28,340776  	64,946899  	0,134780  	0,068294  	-3140,532901  	1815,082787  	-0,053914  	-0,050005  	0,429116  	0,217436  	-4,326958  	16038,951046  	37629,458847  	5,457692  	-0,047956  
205,556000  	21,807703  	32,801037  	24,227861  	956,927186  	70,328825  	65,574740  	0,005693  	0,011438  	0,003969  	0,004160  	0,004433  	0,000001  	-0,000000  	26,380778  	23,812429  	24,787024  	25,244966  	29,742472  	27,897604  	29,189110  	29,371197  	33,971418  	32,401592  	35,268446  	60,073252  	26,533578  	25,153771  	28,337019  	64,944394  	0,135942  	0,068883  	-3166,383286  	22508,457205  	-0,022168  	-0,049990  	0,369354  	0,187155  	-3,725743  	16015,799163  	37410,310755  	5,425907  	-0,047943  
206,556000  	21,788548  	32,795863  	24,227062  	357,439972  	70,326645  	65,568767  	0,005697  	0,011440  	0,003965  	0,004188  	0,004446  	0,000001  	-0,000000  	26,381112  	23,801921  	24,784446  	25,234051  	29,735056  	27,876830  	29,185657  	29,356244  	33,962293  	32,397493  	35,258121  	60,063843  	26,526688  	25,139196  	28,337186  	64,937404  	0,159267  	0,080702  	-3714,393424  	12532,833373  	-0,036491  	-0,049993  	0,379740  	0,192417  	-3,833561  	16019,766521  	37486,153958  	5,436907  	-0,047945  
207,559000  	21,754381  	32,790596  	24,227062  	357,439972  	70,323094  	65,571691  	0,005703  	0,011441  	0,003965  	0,004186  	0,004487  	0,000000  	-0,000000  	26,377809  	23,793253  	24,787697  	25,230603  	29,743013  	27,895495  	29,192085  	29,365214  	33,963924  	32,392576  	35,262503  	60,072288  	26,526951  	25,125936  	28,348458  	64,927792  	0,157013  	0,079560  	-3671,455678  	12533,161061  	-0,036492  	-0,049994  	0,411575  	0,208548  	-4,149290  	16023,100007  	37619,107284  	5,456190  	-0,047947  
208,556000  	21,728042  	32,788810  	24,227493  	956,927186  	70,322907  	65,571753  	0,005698  	0,011454  	0,003967  	0,004171  	0,004479  	0,000001  	-0,000000  	26,383254  	23,802701  	24,785039  	25,240344  	29,742132  	27,884591  	29,192443  	29,348013  	33,958435  	32,396754  	35,261756  	60,076725  	26,518016  	25,118318  	28,334682  	64,924693  	0,144937  	0,073441  	-3396,618999  	22509,057657  	-0,022169  	-0,049991  	0,405694  	0,205568  	-4,089780  	16049,041350  	37512,668363  	5,440753  	-0,047944  
209,558000  	21,749101  	32,789272  	24,228076  	57,696365  	70,318795  	65,574366  	0,005695  	0,011450  	0,003966  	0,004176  	0,004475  	0,000001  	-0,000000  	26,370884  	23,798384  	24,789266  	25,229580  	29,746339  	27,891101  	29,190215  	29,365316  	33,977721  	32,402783  	35,267732  	60,076537  	26,515059  	25,107055  	28,337708  	64,937277  	0,148898  	0,075448  	-3482,942132  	1814,609349  	-0,053901  	-0,049992  	0,402521  	0,203961  	-4,052057  	16040,455076  	37438,894060  	5,430052  	-0,047945  
210,558000  	21,773782  	32,789950  	24,227708  	657,183579  	70,316116  	65,571753  	0,005699  	0,011459  	0,003965  	0,004185  	0,004448  	0,000001  	-0,000000  	26,384600  	23,790852  	24,788907  	25,236305  	29,752374  	27,897510  	29,178089  	29,358563  	33,970558  	32,400007  	35,274271  	60,071326  	26,515461  	25,109228  	28,336564  	64,931215  	0,156348  	0,079223  	-3649,253599  	18483,477984  	-0,027581  	-0,049992  	0,381109  	0,193111  	-3,836453  	16060,308845  	37538,504904  	5,444500  	-0,047944  
211,558000  	21,790635  	32,785145  	24,227062  	-242,047242  	70,312658  	65,569421  	0,005703  	0,011446  	0,003965  	0,004210  	0,004447  	0,000000  	-0,000000  	26,365526  	23,793151  	24,795351  	25,224796  	29,738562  	27,890222  	29,186102  	29,363022  	33,966141  	32,390078  	35,262126  	60,063451  	26,503381  	25,101874  	28,339460  	64,940633  	0,176373  	0,089369  	-4108,542225  	-27057,770126  	-0,103097  	-0,049998  	0,380326  	0,192714  	-3,827655  	16032,806168  	37629,670680  	5,457722  	-0,047949  
212,556000  	21,813659  	32,776830  	24,226632  	956,927186  	70,314403  	65,562391  	0,005700  	0,011493  	0,003967  	0,004155  	0,004453  	0,000000  	-0,000000  	26,371909  	23,793157  	24,771683  	25,227353  	29,739694  	27,876390  	29,185208  	29,345575  	33,961085  	32,388954  	35,261089  	60,056310  	26,497103  	25,114057  	28,328226  	64,936193  	0,132445  	0,067111  	-3076,462501  	22511,900127  	-0,022171  	-0,049998  	0,384854  	0,195008  	-3,880393  	16133,751658  	37561,651168  	5,447857  	-0,047950  
213,559000  	21,828732  	32,765897  	24,226233  	956,927186  	70,312502  	65,561458  	0,005704  	0,011433  	0,003965  	0,004181  	0,004455  	0,000001  	-0,000000  	26,380925  	23,805326  	24,779917  	25,222910  	29,743784  	27,886939  	29,183807  	29,359838  	33,962469  	32,394408  	35,265471  	60,064440  	26,489774  	25,131461  	28,340721  	64,937883  	0,152948  	0,077500  	-3544,270257  	22509,361158  	-0,022169  	-0,049992  	0,386439  	0,195812  	-3,895581  	16004,492759  	37638,186358  	5,458957  	-0,047945  
214,558000  	21,829776  	32,765096  	24,225496  	357,439972  	70,311630  	65,565564  	0,005694  	0,011476  	0,003966  	0,004175  	0,004472  	-0,000000  	-0,000000  	26,383926  	23,801574  	24,785955  	25,239276  	29,751263  	27,890415  	29,196100  	29,357838  	33,969406  	32,402381  	35,277097  	60,070655  	26,486313  	25,143308  	28,348928  	64,939248  	0,148453  	0,075222  	-3439,520622  	12535,115637  	-0,036497  	-0,050003  	0,399956  	0,202660  	-4,027613  	16098,345394  	37420,944761  	5,427449  	-0,047954  
215,558000  	21,833920  	32,766112  	24,225127  	1256,670793  	70,311599  	65,565750  	0,005692  	0,011438  	0,003968  	0,004182  	0,004465  	-0,000002  	-0,000000  	26,386017  	23,809497  	24,790653  	25,234721  	29,748124  	27,892935  	29,198148  	29,353631  	33,965711  	32,402777  	35,273653  	60,076663  	26,471517  	25,146160  	28,341157  	64,943157  	0,154475  	0,078274  	-3578,041735  	25571,291654  	-0,018543  	-0,050024  	0,394890  	0,200094  	-3,976418  	16015,550142  	37372,915205  	5,420483  	-0,047972  
216,556000  	21,838218  	32,771779  	24,223775  	1256,670793  	70,314029  	65,565626  	0,005692  	0,011460  	0,003965  	0,004205  	0,004456  	-0,000001  	-0,000000  	26,378360  	23,793455  	24,779790  	25,230006  	29,741555  	27,888436  	29,193104  	29,356597  	33,966085  	32,395839  	35,258089  	60,061747  	26,459250  	25,131443  	28,337797  	64,940635  	0,172671  	0,087494  	-4000,006998  	25566,360340  	-0,018539  	-0,050013  	0,387730  	0,196466  	-3,906421  	16063,221400  	37383,916388  	5,422079  	-0,047963  
217,557000  	21,823452  	32,781049  	24,222301  	-242,047242  	70,318203  	65,560960  	0,005692  	0,011437  	0,003967  	0,004148  	0,004430  	0,000000  	-0,000000  	26,383846  	23,796478  	24,771757  	25,226698  	29,740475  	27,883186  	29,188366  	29,347587  	33,957187  	32,393718  	35,261523  	60,061180  	26,451251  	25,139162  	28,339055  	64,936797  	0,126397  	0,064046  	-2934,479994  	-27056,291730  	-0,103093  	-0,049995  	0,367093  	0,186009  	-3,705384  	16013,939287  	37387,792928  	5,422641  	-0,047947  
218,556000  	21,821487  	32,787270  	24,222362  	357,439972  	70,316583  	65,569358  	0,005701  	0,011449  	0,003965  	0,004186  	0,004415  	-0,000001  	-0,000000  	26,389889  	23,806452  	24,787295  	25,236548  	29,748666  	27,893931  	29,195569  	29,361442  	33,970030  	32,404454  	35,271878  	60,073796  	26,450783  	25,138546  	28,345726  	64,944373  	0,157194  	0,079651  	-3652,204203  	12537,206482  	-0,036503  	-0,050011  	0,354628  	0,179693  	-3,572032  	16040,329858  	37577,792827  	5,450198  	-0,047961  
219,558000  	21,813935  	32,793276  	24,221441  	1256,670793  	70,314839  	65,566497  	0,005695  	0,011483  	0,003965  	0,004182  	0,004522  	0,000000  	-0,000000  	26,389255  	23,806869  	24,793199  	25,236417  	29,748233  	27,890952  	29,197142  	29,362662  	33,977091  	32,406551  	35,267465  	60,075466  	26,454211  	25,126342  	28,344981  	64,940959  	0,154351  	0,078211  	-3590,573596  	25558,696276  	-0,018534  	-0,049996  	0,439719  	0,222809  	-4,430156  	16112,446918  	37444,175758  	5,430819  	-0,047948  
220,557000  	21,804726  	32,802515  	24,220028  	1256,670793  	70,315773  	65,565626  	0,005699  	0,011480  	0,003966  	0,004155  	0,004496  	0,000001  	-0,000000  	26,382218  	23,798190  	24,783808  	25,227602  	29,736993  	27,878496  	29,189756  	29,355333  	33,966628  	32,405857  	35,259968  	60,073343  	26,448273  	25,121301  	28,345161  	64,940650  	0,132192  	0,066983  	-3080,279376  	25555,840844  	-0,018532  	-0,049990  	0,418794  	0,212206  	-4,220945  	16105,527387  	37537,255090  	5,444319  	-0,047943  
221,558000  	21,796376  	32,807720  	24,220089  	-242,047242  	70,314589  	65,564693  	0,005697  	0,011434  	0,003966  	0,004170  	0,004496  	-0,000000  	-0,000000  	26,369004  	23,796037  	24,779773  	25,220718  	29,733262  	27,878339  	29,182459  	29,347741  	33,957175  	32,397508  	35,257930  	60,067229  	26,449369  	25,109981  	28,334124  	64,933282  	0,144377  	0,073157  	-3368,346155  	-27061,581809  	-0,103114  	-0,050006  	0,418814  	0,212216  	-4,220924  	16006,743853  	37495,135669  	5,438210  	-0,047956  
222,556000  	21,809208  	32,805379  	24,219659  	357,439972  	70,312658  	65,568674  	0,005693  	0,011433  	0,003968  	0,004199  	0,004439  	0,000001  	-0,000000  	26,362361  	23,799242  	24,782419  	25,220264  	29,738541  	27,883298  	29,179692  	29,347619  	33,954529  	32,392439  	35,263646  	60,063364  	26,457455  	25,109332  	28,331379  	64,927165  	0,167943  	0,085098  	-3912,761540  	12531,743408  	-0,036487  	-0,049986  	0,373898  	0,189457  	-3,763564  	16003,914068  	37413,396453  	5,426354  	-0,047940  
223,559000  	21,817681  	32,803901  	24,218922  	357,439972  	70,312814  	65,570945  	0,005697  	0,011478  	0,003968  	0,004216  	0,004487  	-0,000000  	-0,000000  	26,367186  	23,796865  	24,779945  	25,227227  	29,737750  	27,884501  	29,184321  	29,354234  	33,959066  	32,396167  	35,270675  	60,064804  	26,456813  	25,115284  	28,340864  	64,928898  	0,181470  	0,091952  	-4224,092559  	12535,523577  	-0,036498  	-0,050003  	0,412172  	0,208851  	-4,146965  	16100,813673  	37481,825508  	5,436279  	-0,047954  
224,557000  	21,829776  	32,805256  	24,218246  	956,927186  	70,314371  	65,572002  	0,005692  	0,011464  	0,003964  	0,004153  	0,004484  	-0,000000  	-0,000000  	26,372290  	23,796237  	24,778308  	25,228819  	29,734743  	27,886341  	29,188309  	29,355691  	33,964798  	32,393736  	35,266875  	60,065235  	26,451175  	25,111079  	28,343606  	64,928325  	0,130980  	0,066369  	-3045,846929  	22513,446706  	-0,022173  	-0,050002  	0,409903  	0,207701  	-4,124577  	16072,337551  	37376,248041  	5,420966  	-0,047953  
225,555000  	21,824803  	32,803470  	24,216280  	1256,670793  	70,313312  	65,569545  	0,005703  	0,011445  	0,003966  	0,004226  	0,004433  	0,000002  	-0,000000  	26,369961  	23,795038  	24,780624  	25,220812  	29,736469  	27,884207  	29,180664  	29,349810  	33,960781  	32,389136  	35,260005  	60,061071  	26,442921  	25,106108  	28,342043  	64,932960  	0,189551  	0,096047  	-4409,149015  	25550,474288  	-0,018528  	-0,049978  	0,368864  	0,186906  	-3,712723  	16031,699015  	37621,133818  	5,456484  	-0,047932  
226,557000  	21,824434  	32,800205  	24,214314  	1256,670793  	70,314870  	65,565999  	0,005694  	0,011431  	0,003966  	0,004189  	0,004460  	-0,000001  	-0,000000  	26,365264  	23,789148  	24,774163  	25,219224  	29,734741  	27,874512  	29,175319  	29,341098  	33,955767  	32,386679  	35,259667  	60,052264  	26,429680  	25,090711  	28,332212  	64,930478  	0,159423  	0,080781  	-3707,372154  	25564,321936  	-0,018538  	-0,050008  	0,390520  	0,197879  	-3,934922  	16000,766640  	37422,992478  	5,427746  	-0,047958  
227,558000  	21,832078  	32,797434  	24,213577  	1256,670793  	70,317673  	65,570260  	0,005701  	0,011511  	0,003966  	0,004204  	0,004445  	0,000000  	-0,000000  	26,371422  	23,799042  	24,775217  	25,227630  	29,735340  	27,874818  	29,183721  	29,350289  	33,959099  	32,391400  	35,261826  	60,061630  	26,425905  	25,090667  	28,341614  	64,928490  	0,171904  	0,087105  	-3993,814614  	25560,591026  	-0,018535  	-0,050000  	0,378940  	0,192011  	-3,817064  	16173,820700  	37569,891464  	5,449052  	-0,047951  
228,557000  	21,836437  	32,799713  	24,213454  	1256,670793  	70,315306  	65,567834  	0,005705  	0,011454  	0,003966  	0,004219  	0,004480  	-0,000000  	-0,000000  	26,380356  	23,807055  	24,785605  	25,234803  	29,740169  	27,885616  	29,185794  	29,347401  	33,962372  	32,396821  	35,266828  	60,071609  	26,444881  	25,095219  	28,349463  	64,932268  	0,183815  	0,093141  	-4269,732147  	25561,180885  	-0,018535  	-0,050001  	0,406268  	0,205859  	-4,092397  	16051,055449  	37660,781857  	5,462235  	-0,047952  
229,560000  	21,808164  	32,803131  	24,213945  	1256,670793  	70,315275  	65,567399  	0,005709  	0,011460  	0,003964  	0,004218  	0,004492  	0,000001  	-0,000000  	26,380445  	23,800347  	24,781292  	25,234523  	29,754843  	27,882107  	29,190468  	29,358065  	33,967756  	32,395873  	35,263315  	60,070895  	26,438049  	25,095031  	28,349312  	64,933483  	0,183562  	0,093012  	-4276,185390  	25557,114374  	-0,018532  	-0,049992  	0,415703  	0,210640  	-4,187794  	16063,703171  	37757,052803  	5,476198  	-0,047945  
230,557000  	21,757451  	32,801222  	24,213392  	1256,670793  	70,312658  	65,569763  	0,005695  	0,011464  	0,003965  	0,004170  	0,004500  	-0,000001  	-0,000000  	26,369062  	23,793112  	24,774253  	25,226859  	29,736925  	27,877992  	29,188416  	29,349034  	33,964986  	32,391413  	35,261070  	60,061830  	26,425318  	25,082321  	28,332667  	64,937375  	0,144358  	0,073147  	-3377,846114  	25564,986371  	-0,018538  	-0,050009  	0,421909  	0,213784  	-4,245848  	16070,740845  	37454,506138  	5,432317  	-0,047959  
231,556000  	21,724021  	32,799743  	24,212471  	1256,670793  	70,304652  	65,574055  	0,005699  	0,011480  	0,003967  	0,004188  	0,004418  	0,000001  	-0,000000  	26,366670  	23,792681  	24,775083  	25,224340  	29,738577  	27,882642  	29,179965  	29,346001  	33,963393  	32,392842  	35,257120  	60,054879  	26,423381  	25,085003  	28,335838  	64,921616  	0,159257  	0,080697  	-3737,264413  	25553,781722  	-0,018530  	-0,049985  	0,357616  	0,181207  	-3,589516  	16106,102541  	37532,425302  	5,443618  	-0,047938  
232,558000  	21,725433  	32,800667  	24,211549  	1256,670793  	70,299730  	65,573744  	0,005694  	0,011452  	0,003967  	0,004176  	0,004452  	-0,000000  	-0,000000  	26,370722  	23,792161  	24,779222  	25,228920  	29,731546  	27,884424  	29,191211  	29,363703  	33,963874  	32,389402  	35,266889  	60,070259  	26,424754  	25,091637  	28,342912  	64,932829  	0,149518  	0,075762  	-3508,554621  	25563,440158  	-0,018537  	-0,050006  	0,384090  	0,194621  	-3,851481  	16044,831338  	37429,248607  	5,428654  	-0,047956  
233,556000  	21,748425  	32,799743  	24,211488  	57,696365  	70,301600  	65,562733  	0,005696  	0,011464  	0,003966  	0,004207  	0,004442  	0,000001  	-0,000000  	26,376073  	23,791919  	24,772247  	25,231127  	29,738051  	27,873426  	29,188736  	29,350041  	33,956483  	32,390732  	35,262561  	60,057818  	26,411323  	25,092129  	28,339355  	64,917999  	0,174171  	0,088254  	-4078,218824  	1815,475177  	-0,053900  	-0,049990  	0,376390  	0,190719  	-3,784548  	16072,183328  	37465,281366  	5,433880  	-0,047943  
234,558000  	21,765371  	32,793892  	24,211180  	1256,670793  	70,301288  	65,554024  	0,005705  	0,011430  	0,003965  	0,004193  	0,004488  	0,000000  	-0,000000  	26,376515  	23,800564  	24,783135  	25,228063  	29,747124  	27,882922  	29,189398  	29,356913  	33,955860  	32,402421  	35,259290  	60,061284  	26,404045  	25,088384  	28,334959  	64,918017  	0,162743  	0,082463  	-3802,769077  	25560,708052  	-0,018535  	-0,050000  	0,412830  	0,209184  	-4,158304  	15998,581339  	37657,244249  	5,461722  	-0,047951  
235,556000  	21,779277  	32,781511  	24,210535  	1256,670793  	70,299793  	65,550540  	0,005699  	0,011495  	0,003966  	0,004200  	0,004457  	-0,000000  	-0,000000  	26,385759  	23,805443  	24,775777  	25,234545  	29,749675  	27,884792  	29,185981  	29,364519  	33,976469  	32,398323  	35,267339  	60,069866  	26,420224  	25,085901  	28,337313  	64,931290  	0,168397  	0,085328  	-3925,511530  	25562,312523  	-0,018536  	-0,050003  	0,388501  	0,196857  	-3,914887  	16137,651809  	37541,873045  	5,444988  	-0,047954  
236,559000  	21,790021  	32,768268  	24,211027  	1256,670793  	70,301911  	65,553650  	0,005697  	0,011453  	0,003966  	0,004154  	0,004491  	0,000000  	-0,000000  	26,375277  	23,801808  	24,777806  	25,233252  	29,740672  	27,882937  	29,186555  	29,352205  	33,965087  	32,388244  	35,260937  	60,058405  	26,406913  	25,081430  	28,333518  	64,913610  	0,131285  	0,066523  	-3053,717770  	25557,950251  	-0,018533  	-0,049994  	0,415054  	0,210311  	-4,181581  	16047,895995  	37492,480698  	5,437825  	-0,047946  
237,558000  	21,803928  	32,759922  	24,210136  	1256,670793  	70,303562  	65,553215  	0,005707  	0,011475  	0,003966  	0,004181  	0,004454  	0,000000  	-0,000000  	26,381191  	23,794427  	24,776439  	25,223898  	29,738853  	27,878832  	29,191222  	29,351937  	33,961070  	32,400923  	35,273423  	60,067979  	26,412436  	25,083085  	28,339638  	64,928268  	0,153516  	0,077788  	-3563,576336  	25560,633364  	-0,018535  	-0,050000  	0,386220  	0,195701  	-3,892801  	16094,929136  	37703,663876  	5,468454  	-0,047951  
238,556000  	21,828302  	32,756657  	24,210935  	657,183579  	70,303998  	65,553464  	0,005705  	0,011473  	0,003965  	0,004123  	0,004452  	0,000001  	-0,000000  	26,375466  	23,795430  	24,781755  	25,232385  	29,734646  	27,884764  	29,186376  	29,348483  	33,957704  	32,388518  	35,267941  	60,060600  	26,407129  	25,059542  	28,333955  	64,919395  	0,106296  	0,053861  	-2461,216669  	18481,225663  	-0,027577  	-0,049983  	0,384447  	0,194802  	-3,875074  	16091,651539  	37665,936455  	5,462982  	-0,047937  
239,557000  	21,825724  	32,758875  	24,209921  	-242,047242  	70,307643  	65,554895  	0,005700  	0,011455  	0,003966  	0,004156  	0,004460  	-0,000000  	-0,000000  	26,382119  	23,800270  	24,780932  	25,234412  	29,745842  	27,880559  	29,195079  	29,346451  	33,962844  	32,393006  	35,273847  	60,062578  	26,418807  	25,065118  	28,334353  	64,919972  	0,133421  	0,067606  	-3090,646738  	-27059,009832  	-0,103108  	-0,050001  	0,390952  	0,198098  	-3,942488  	16051,887406  	37550,332235  	5,446215  	-0,047952  
240,559000  	21,806997  	32,760661  	24,209921  	956,927186  	70,311630  	65,556325  	0,005699  	0,011471  	0,003966  	0,004197  	0,004461  	-0,000000  	-0,000000  	26,379878  	23,795068  	24,773466  	25,223333  	29,735067  	27,876849  	29,178140  	29,344346  	33,961370  	32,395342  	35,261046  	60,059014  	26,410100  	25,053116  	28,339164  	64,916558  	0,166117  	0,084173  	-3855,246187  	22515,203733  	-0,022174  	-0,050005  	0,391020  	0,198133  	-3,945288  	16087,037575  	37528,400479  	5,443034  	-0,047956  
241,555000  	21,787872  	32,763094  	24,209767  	956,927186  	70,310291  	65,555050  	0,005692  	0,011474  	0,003964  	0,004209  	0,004469  	-0,000000  	-0,000000  	26,375724  	23,801359  	24,776351  	25,220821  	29,737865  	27,881322  	29,183499  	29,346456  	33,961724  	32,391738  	35,271401  	60,062572  	26,410646  	25,051790  	28,340997  	64,925819  	0,176252  	0,089308  	-4098,524210  	22513,488215  	-0,022173  	-0,050001  	0,397952  	0,201645  	-4,015173  	16092,936968  	37373,473031  	5,420564  	-0,047952  
242,556000  	21,781671  	32,770978  	24,209952  	-242,047242  	70,307736  	65,565128  	0,005698  	0,011449  	0,003966  	0,004178  	0,004455  	0,000000  	-0,000000  	26,387244  	23,800771  	24,788863  	25,238585  	29,750098  	27,897299  	29,195872  	29,357591  	33,972646  	32,394870  	35,277873  	60,071409  	26,423419  	25,068841  	28,352257  	64,928349  	0,150920  	0,076472  	-3513,968435  	-27055,830185  	-0,103096  	-0,049994  	0,386966  	0,196079  	-3,893969  	16038,622791  	37520,555605  	5,441897  	-0,047947  
243,556000  	21,780842  	32,778462  	24,209122  	657,183579  	70,304497  	65,566123  	0,005701  	0,011491  	0,003965  	0,004158  	0,004482  	0,000001  	-0,000000  	26,381182  	23,795840  	24,777195  	25,230446  	29,742912  	27,887574  	29,190883  	29,348683  	33,957684  	32,397541  	35,268147  	60,062248  	26,414220  	25,069908  	28,343912  	64,924751  	0,134890  	0,068350  	-3143,096787  	18481,496379  	-0,027578  	-0,049984  	0,408106  	0,206790  	-4,103026  	16129,821088  	37586,040184  	5,451394  	-0,047937  
244,561000  	21,774457  	32,780988  	24,210351  	57,696365  	70,301880  	65,558285  	0,005694  	0,011437  	0,003967  	0,004151  	0,004455  	-0,000000  	-0,000000  	26,369579  	23,795736  	24,772118  	25,217697  	29,735360  	27,877754  	29,180707  	29,351641  	33,953456  	32,386197  	35,257072  	60,059482  	26,396860  	25,060940  	28,339753  	64,919624  	0,128868  	0,065298  	-3005,220623  	1815,944975  	-0,053912  	-0,050002  	0,386714  	0,195951  	-3,892237  	16014,412569  	37432,546138  	5,429132  	-0,047953  
245,557000  	21,787381  	32,781788  	24,210658  	1256,670793  	70,301381  	65,556792  	0,005699  	0,011477  	0,003964  	0,004191  	0,004464  	-0,000001  	-0,000000  	26,368971  	23,794157  	24,779009  	25,217252  	29,736681  	27,880403  	29,181230  	29,350095  	33,955704  	32,391637  	35,263340  	60,069573  	26,396105  	25,067518  	28,341703  	64,922841  	0,161417  	0,081791  	-3760,105452  	25564,318855  	-0,018538  	-0,050008  	0,393551  	0,199415  	-3,961883  	16100,375057  	37526,388068  	5,442742  	-0,047958  
246,555000  	21,810712  	32,780125  	24,210290  	1256,670793  	70,298391  	65,557850  	0,005700  	0,011468  	0,003966  	0,004171  	0,004484  	0,000001  	-0,000000  	26,365414  	23,792328  	24,784601  	25,220350  	29,731187  	27,878361  	29,183087  	29,345133  	33,959491  	32,392095  	35,261850  	60,069402  	26,395007  	25,073523  	28,340498  	64,922778  	0,145455  	0,073703  	-3380,579282  	25554,267987  	-0,018530  	-0,049986  	0,409496  	0,207495  	-4,118883  	16080,596278  	37557,449817  	5,447248  	-0,047939  
247,556000  	21,810344  	32,778000  	24,209368  	1256,670793  	70,297488  	65,558098  	0,005705  	0,011500  	0,003965  	0,004194  	0,004454  	0,000000  	-0,000000  	26,369629  	23,797337  	24,783054  	25,226930  	29,733817  	27,880306  	29,190314  	29,343822  	33,962879  	32,392629  	35,261700  	60,065933  	26,397491  	25,080974  	28,340660  	64,922604  	0,163652  	0,082924  	-3802,890184  	25559,254418  	-0,018534  	-0,049997  	0,385711  	0,195443  	-3,878701  	16148,255719  	37657,187760  	5,461713  	-0,047948  
248,559000  	21,785048  	32,775413  	24,210474  	57,696365  	70,295432  	65,556357  	0,005696  	0,011462  	0,003964  	0,004204  	0,004468  	-0,000001  	-0,000000  	26,375094  	23,798161  	24,776152  	25,224459  	29,735765  	27,883334  	29,189810  	29,342573  	33,959440  	32,391934  	35,260880  	60,064588  	26,393015  	25,093540  	28,339723  	64,918142  	0,172108  	0,087208  	-4007,682429  	1816,143818  	-0,053918  	-0,050009  	0,396527  	0,200923  	-3,987201  	16067,703779  	37459,526575  	5,433045  	-0,047959  
249,556000  	21,776422  	32,773873  	24,211518  	-242,047242  	70,298796  	65,559436  	0,005699  	0,011444  	0,003967  	0,004213  	0,004484  	-0,000000  	-0,000000  	26,366908  	23,793779  	24,771175  	25,220517  	29,725787  	27,876006  	29,180561  	29,343884  	33,951258  	32,386653  	35,252211  	60,055846  	26,384882  	25,090785  	28,335320  	64,911423  	0,179440  	0,090923  	-4181,102944  	-27059,193732  	-0,103109  	-0,050001  	0,409809  	0,207653  	-4,121000  	16028,032322  	37533,823399  	5,443821  	-0,047952  
250,556000  	21,803559  	32,775105  	24,212317  	-242,047242  	70,306210  	65,549607  	0,005689  	0,011482  	0,003967  	0,004154  	0,004507  	0,000000  	-0,000000  	26,363764  	23,796096  	24,776809  	25,228381  	29,725718  	27,874376  	29,184171  	29,350339  	33,951555  	32,391422  	35,258733  	60,055036  	26,391827  	25,084361  	28,336790  	64,918322  	0,131609  	0,066687  	-3059,379296  	-27056,244093  	-0,103097  	-0,049995  	0,427799  	0,216769  	-4,317561  	16110,512760  	37317,457378  	5,412440  	-0,047947  
251,556000  	21,814703  	32,776676  	24,211672  	657,183579  	70,307020  	65,548456  	0,005703  	0,011473  	0,003965  	0,004183  	0,004467  	0,000001  	-0,000000  	26,373526  	23,797651  	24,784940  	25,231224  	29,735107  	27,880674  	29,188944  	29,355017  	33,958464  	32,394768  	35,266981  	60,063167  	26,398956  	25,083196  	28,343685  	64,928860  	0,154672  	0,078373  	-3592,360074  	18482,732189  	-0,027579  	-0,049988  	0,395769  	0,200539  	-3,995940  	16091,380587  	37624,226577  	5,456933  	-0,047941  
252,559000  	21,800643  	32,776737  	24,212286  	1256,670793  	70,305088  	65,554677  	0,005692  	0,011480  	0,003965  	0,004242  	0,004473  	0,000001  	-0,000000  	26,373479  	23,795018  	24,780606  	25,230360  	29,736010  	27,877608  	29,183677  	29,350408  	33,958559  	32,392590  	35,261592  	60,062038  	26,401852  	25,070154  	28,342161  	64,927087  	0,202630  	0,102674  	-4712,284868  	25556,885529  	-0,018532  	-0,049992  	0,401244  	0,203314  	-4,044286  	16105,598132  	37389,706484  	5,422918  	-0,047944  
253,557000  	21,772554  	32,777415  	24,212962  	1256,670793  	70,310602  	65,561240  	0,005700  	0,011490  	0,003967  	0,004177  	0,004442  	0,000001  	-0,000000  	26,360661  	23,793900  	24,773181  	25,227024  	29,729566  	27,874829  	29,179247  	29,342684  	33,958316  	32,384815  	35,265370  	60,063470  	26,395562  	25,066182  	28,331486  	64,914167  	0,149812  	0,075911  	-3493,106269  	25556,743817  	-0,018532  	-0,049991  	0,376000  	0,190522  	-3,789009  	16128,517972  	37549,845020  	5,446145  	-0,047944  
254,555000  	21,761748  	32,779817  	24,214007  	1256,670793  	70,310353  	65,565035  	0,005704  	0,011422  	0,003966  	0,004188  	0,004451  	0,000002  	-0,000000  	26,367741  	23,787197  	24,766580  	25,217216  	29,730050  	27,878365  	29,176603  	29,334898  	33,943812  	32,378921  	35,261036  	60,053232  	26,388649  	25,055385  	28,327731  	64,909862  	0,159243  	0,080689  	-3717,458971  	25551,871351  	-0,018529  	-0,049981  	0,383329  	0,194236  	-3,859576  	15982,111285  	37641,547439  	5,459445  	-0,047935  
255,557000  	21,769300  	32,783143  	24,214744  	1256,670793  	70,309200  	65,562049  	0,005701  	0,011428  	0,003965  	0,004221  	0,004471  	0,000000  	-0,000000  	26,370290  	23,795709  	24,773671  	25,218327  	29,730127  	27,877672  	29,180616  	29,342437  	33,953889  	32,385971  	35,266363  	60,063251  	26,400120  	25,052118  	28,335870  	64,922400  	0,185432  	0,093960  	-4327,172858  	25558,814267  	-0,018534  	-0,049996  	0,399079  	0,202216  	-4,019704  	15993,876115  	37581,648184  	5,450757  	-0,047948  
256,557000  	21,773352  	32,786285  	24,215666  	1256,670793  	70,310259  	65,558938  	0,005707  	0,011487  	0,003966  	0,004176  	0,004484  	-0,000000  	-0,000001  	26,366946  	23,791618  	24,775829  	25,214248  	29,733891  	27,877645  	29,174965  	29,342159  	33,955735  	32,382689  	35,259713  	60,056286  	26,401486  	25,045404  	28,335505  	64,924733  	0,149103  	0,075551  	-3479,116120  	25563,314116  	-0,018537  	-0,050006  	0,409636  	0,207565  	-4,129656  	16121,466149  	37705,182011  	5,468674  	-0,047956  
257,556000  	21,794104  	32,785145  	24,215850  	1256,670793  	70,310633  	65,561738  	0,005700  	0,011478  	0,003965  	0,004169  	0,004491  	-0,000000  	-0,000000  	26,387228  	23,795934  	24,776088  	25,225797  	29,741038  	27,882551  	29,189377  	29,349529  	33,953192  	32,387949  	35,273132  	60,063707  	26,414548  	25,048657  	28,352930  	64,933540  	0,143876  	0,072903  	-3350,473678  	25560,796192  	-0,018535  	-0,050000  	0,415133  	0,210351  	-4,182937  	16101,118583  	37561,750023  	5,447871  	-0,047952  
258,557000  	21,816821  	32,777507  	24,216464  	1256,670793  	70,310509  	65,566403  	0,005694  	0,011446  	0,003964  	0,004170  	0,004464  	0,000000  	-0,000000  	26,366922  	23,793534  	24,767883  	25,213574  	29,720894  	27,877492  	29,174454  	29,344888  	33,949559  	32,385409  	35,259735  	60,052554  	26,406474  	25,059357  	28,336980  	64,913676  	0,144453  	0,073195  	-3354,621940  	25558,795909  	-0,018534  	-0,049996  	0,393915  	0,199600  	-3,965147  	16033,667130  	37424,990768  	5,428036  	-0,047948  
259,555000  	21,845831  	32,771687  	24,216833  	1256,670793  	70,312066  	65,564008  	0,005702  	0,011448  	0,003966  	0,004165  	0,004458  	0,000000  	-0,000000  	26,356815  	23,785722  	24,772559  	25,216080  	29,722600  	27,869498  	29,178269  	29,343130  	33,950069  	32,388935  	35,257516  	60,050788  	26,408254  	25,060143  	28,333707  	64,915596  	0,140009  	0,070943  	-3241,073984  	25559,272491  	-0,018534  	-0,049997  	0,389024  	0,197121  	-3,919176  	16036,842149  	37600,889663  	5,453548  	-0,047949  
260,557000  	21,855225  	32,767437  	24,216956  	57,696365  	70,312627  	65,559591  	0,005700  	0,011449  	0,003967  	0,004193  	0,004487  	0,000001  	-0,000000  	26,376126  	23,784242  	24,780994  	25,218313  	29,731216  	27,873102  	29,175914  	29,339621  	33,950307  	32,380597  	35,264100  	60,057257  	26,409586  	25,063026  	28,325545  	64,916461  	0,162819  	0,082502  	-3764,402349  	1815,283446  	-0,053903  	-0,049993  	0,411973  	0,208750  	-4,154715  	16039,761779  	37564,320261  	5,448244  	-0,047946  
261,650000  	21,822838  	32,766913  	24,216096  	1256,670793  	70,308453  	65,560276  	0,005695  	0,011458  	0,003964  	0,004166  	0,004492  	0,000001  	-0,000001  	26,372534  	23,800038  	24,771890  	25,217976  	29,729502  	27,867905  	29,183360  	29,338366  	33,949744  	32,375452  	35,267008  	60,056074  	26,403996  	25,056968  	28,333531  	64,911920  	0,140992  	0,071442  	-3269,277870  	25555,973972  	-0,018532  	-0,049990  	0,415890  	0,210734  	-4,189932  	16057,918384  	37437,856080  	5,429902  	-0,047943  
262,556000  	21,787412  	32,772149  	24,215481  	657,183579  	70,304839  	65,562391  	0,005699  	0,011438  	0,003963  	0,004144  	0,004447  	0,000000  	-0,000000  	26,371177  	23,790032  	24,772938  	25,219688  	29,725916  	27,882891  	29,178256  	29,341174  	33,950344  	32,387927  	35,270380  	60,063481  	26,416684  	25,066351  	28,341340  	64,920390  	0,123052  	0,062352  	-2863,913288  	18486,428336  	-0,027585  	-0,049999  	0,380170  	0,192635  	-3,825452  	16014,660882  	37526,931772  	5,442821  	-0,047951  
263,556000  	21,772124  	32,778801  	24,214007  	-242,047242  	70,306085  	65,564288  	0,005705  	0,011449  	0,003967  	0,004230  	0,004450  	0,000001  	-0,000000  	26,374712  	23,791515  	24,774714  	25,224673  	29,732772  	27,880330  	29,180569  	29,342381  	33,953980  	32,384899  	35,266006  	60,060593  	26,430249  	25,061334  	28,346428  	64,922498  	0,192991  	0,097790  	-4500,630918  	-27051,121488  	-0,103077  	-0,049984  	0,382829  	0,193982  	-3,851681  	16039,342263  	37668,690281  	5,463382  	-0,047938  
264,557000  	21,781272  	32,787363  	24,213638  	956,927186  	70,306397  	65,557072  	0,005702  	0,011492  	0,003967  	0,004183  	0,004427  	-0,000000  	-0,000000  	26,373583  	23,796942  	24,778492  	25,221624  	29,734366  	27,871124  	29,183799  	29,354781  	33,950846  	32,388797  	35,268665  	60,066869  	26,428177  	25,069831  	28,340202  	64,919729  	0,154540  	0,078307  	-3603,747494  	22513,288133  	-0,022172  	-0,050001  	0,364364  	0,184626  	-3,671720  	16131,622245  	37593,383721  	5,452459  	-0,047952  
265,556000  	21,767213  	32,796140  	24,212501  	1256,670793  	70,303250  	65,555237  	0,005695  	0,011447  	0,003965  	0,004175  	0,004463  	0,000000  	-0,000000  	26,376410  	23,784591  	24,771559  	25,225541  	29,733471  	27,869641  	29,179699  	29,345396  	33,951465  	32,385266  	35,260519  	60,068022  	26,429747  	25,108130  	28,335120  	64,915826  	0,148317  	0,075153  	-3465,806651  	25559,706846  	-0,018534  	-0,049998  	0,392917  	0,199094  	-3,958357  	16035,753389  	37452,366626  	5,432007  	-0,047950  
266,557000  	21,750943  	32,793307  	24,212256  	657,183579  	70,305929  	65,560898  	0,005695  	0,011491  	0,003967  	0,004200  	0,004461  	0,000002  	-0,000000  	26,370351  	23,795217  	24,778479  	25,211832  	29,728345  	27,882840  	29,179023  	29,348464  	33,946030  	32,380666  	35,264533  	60,061588  	26,425687  	25,150965  	28,335960  	64,918365  	0,168711  	0,085487  	-3947,172391  	18479,903669  	-0,027575  	-0,049979  	0,391217  	0,198233  	-3,938754  	16130,059497  	37439,790819  	5,430183  	-0,047933  
267,555000  	21,739155  	32,785823  	24,211611  	-242,047242  	70,307269  	65,563853  	0,005695  	0,011440  	0,003966  	0,004222  	0,004455  	0,000001  	-0,000000  	26,363994  	23,794312  	24,764560  	25,207098  	29,730730  	27,874118  	29,175081  	29,341156  	33,946137  	32,376182  	35,264969  	60,055085  	26,419916  	25,162779  	28,342551  	64,906289  	0,186420  	0,094460  	-4363,204484  	-27052,942070  	-0,103085  	-0,049988  	0,386680  	0,195933  	-3,891748  	16020,965642  	37453,807090  	5,432215  	-0,047941  
268,558000  	21,741058  	32,780957  	24,210566  	-242,047242  	70,306895  	65,558814  	0,005700  	0,011441  	0,003965  	0,004219  	0,004426  	-0,000000  	-0,000000  	26,364779  	23,795265  	24,779093  	25,214540  	29,729709  	27,875564  	29,173107  	29,347853  	33,952859  	32,384125  	35,272537  	60,058373  	26,426387  	25,196710  	28,340016  	64,911078  	0,183946  	0,093207  	-4302,661252  	-27059,821823  	-0,103111  	-0,050003  	0,363288  	0,184081  	-3,659915  	16021,997099  	37555,825766  	5,447012  	-0,047954  
269,556000  	21,756898  	32,778031  	24,207494  	1256,670793  	70,306241  	65,556823  	0,005697  	0,011442  	0,003965  	0,004177  	0,004469  	-0,000000  	-0,000000  	26,376282  	23,791880  	24,787180  	25,223685  	29,733709  	27,878982  	29,184672  	29,339486  	33,957932  	32,390295  	35,270386  	60,064744  	26,432676  	25,214795  	28,339120  	64,911388  	0,150153  	0,076084  	-3506,241008  	25561,834652  	-0,018536  	-0,050002  	0,397818  	0,201577  	-4,008915  	16023,128305  	37498,517932  	5,438700  	-0,047953  
270,560000  	21,775624  	32,773534  	24,207863  	1256,670793  	70,305369  	65,557570  	0,005692  	0,011485  	0,003967  	0,004161  	0,004503  	0,000001  	-0,000000  	26,371335  	23,788324  	24,777625  	25,219300  	29,728313  	27,874704  	29,177091  	29,337764  	33,949776  	32,388284  	35,262618  	60,060631  	26,421895  	25,218244  	28,334024  	64,902406  	0,136932  	0,069385  	-3190,775969  	25557,667274  	-0,018533  	-0,049993  	0,424351  	0,215022  	-4,274839  	16117,919014  	37376,897661  	5,421061  	-0,047945  
271,556000  	21,811357  	32,769839  	24,206480  	1256,670793  	70,307736  	65,555952  	0,005698  	0,011447  	0,003965  	0,004251  	0,004425  	0,000001  	-0,000000  	26,369442  	23,798508  	24,779552  	25,223605  	29,730423  	27,878390  	29,181103  	29,342687  	33,953223  	32,393825  	35,266001  	60,058541  	26,427075  	25,218864  	28,340105  	64,908601  	0,209787  	0,106300  	-4870,882822  	25555,892702  	-0,018531  	-0,049989  	0,363185  	0,184029  	-3,661734  	16034,596715  	37506,341624  	5,439835  	-0,047942  
272,556000  	21,830697  	32,764357  	24,205313  	1256,670793  	70,306179  	65,553091  	0,005704  	0,011448  	0,003966  	0,004269  	0,004438  	0,000000  	-0,000000  	26,367239  	23,791884  	24,767976  	25,222237  	29,734590  	27,874422  	29,177233  	29,340258  	33,944327  	32,386693  	35,262822  	60,057716  	26,424809  	25,216964  	28,336040  	64,910394  	0,224654  	0,113834  	-5204,248203  	25558,386382  	-0,018533  	-0,049994  	0,373368  	0,189188  	-3,765425  	16036,554218  	37642,218242  	5,459542  	-0,047947  
273,556000  	21,826000  	32,759583  	24,204115  	1256,670793  	70,301911  	65,559000  	0,005706  	0,011478  	0,003967  	0,004158  	0,004458  	-0,000000  	-0,000000  	26,367968  	23,786381  	24,763782  	25,217398  	29,730948  	27,871479  	29,172124  	29,342577  	33,942904  	32,381906  	35,263385  	60,060280  	26,418116  	25,206067  	28,331134  	64,908894  	0,134670  	0,068238  	-3119,689078  	25562,138928  	-0,018536  	-0,050003  	0,388823  	0,197019  	-3,912899  	16101,596816  	37692,909831  	5,466894  	-0,047954  
274,559000  	21,783820  	32,761431  	24,202579  	657,183579  	70,302409  	65,558627  	0,005696  	0,011475  	0,003965  	0,004138  	0,004460  	0,000000  	-0,000000  	26,366216  	23,785179  	24,768474  	25,216886  	29,726911  	27,864209  	29,173465  	29,341957  	33,951069  	32,380298  	35,265586  	60,057164  	26,417350  	25,189139  	28,337544  	64,909117  	0,118315  	0,059951  	-2751,878182  	18485,964860  	-0,027584  	-0,049996  	0,390291  	0,197763  	-3,928396  	16096,038412  	37471,247990  	5,434745  	-0,047948  
275,558000  	21,745049  	32,767252  	24,201565  	657,183579  	70,303032  	65,556823  	0,005693  	0,011461  	0,003966  	0,004152  	0,004443  	0,000000  	-0,000000  	26,362113  	23,780789  	24,768414  	25,211937  	29,730828  	27,858511  	29,170062  	29,337147  	33,948256  	32,376289  	35,262716  	60,054514  	26,419395  	25,178382  	28,335060  	64,906258  	0,130081  	0,065913  	-3037,842284  	18486,634824  	-0,027585  	-0,049998  	0,377347  	0,191205  	-3,800054  	16064,869750  	37405,431539  	5,425199  	-0,047950  
276,557000  	21,735471  	32,772241  	24,201074  	1256,670793  	70,305151  	65,558316  	0,005706  	0,011478  	0,003966  	0,004244  	0,004491  	0,000001  	-0,000000  	26,369012  	23,787502  	24,770605  	25,211341  	29,734515  	27,867793  	29,173874  	29,340302  	33,951946  	32,379765  	35,264715  	60,060375  	26,425041  	25,180529  	28,330579  	64,908146  	0,204150  	0,103444  	-4773,887172  	25555,034783  	-0,018531  	-0,049987  	0,415116  	0,210343  	-4,180958  	16101,169519  	37683,716288  	5,465561  	-0,047940  
277,555000  	21,757082  	32,779694  	24,199630  	1256,670793  	70,306210  	65,555797  	0,005704  	0,011472  	0,003965  	0,004229  	0,004471  	0,000000  	-0,000000  	26,369154  	23,787866  	24,767360  	25,216649  	29,726959  	27,871882  	29,177627  	29,341261  	33,957677  	32,381959  	35,263578  	60,057426  	26,426078  	25,182786  	28,335974  	64,910366  	0,191893  	0,097233  	-4481,507722  	25559,119142  	-0,018534  	-0,049996  	0,399286  	0,202321  	-4,024544  	16087,914101  	37638,963078  	5,459070  	-0,047948  
278,558000  	21,781395  	32,781049  	24,198401  	657,183579  	70,304777  	65,559094  	0,005705  	0,011502  	0,003966  	0,004188  	0,004501  	-0,000001  	-0,000000  	26,360633  	23,779693  	24,762509  	25,214825  	29,718677  	27,868525  	29,170010  	29,336652  	33,950526  	32,381613  	35,258131  	60,051931  	26,422576  	25,173966  	28,332110  	64,906170  	0,159110  	0,080622  	-3708,150828  	18490,592703  	-0,027591  	-0,050010  	0,423366  	0,214523  	-4,263014  	16154,126815  	37658,169252  	5,461856  	-0,047960  
279,557000  	21,786552  	32,775598  	24,196558  	657,183579  	70,303188  	65,552873  	0,005699  	0,011495  	0,003966  	0,004171  	0,004501  	-0,000001  	-0,000000  	26,364440  	23,781940  	24,756418  	25,213524  	29,718410  	27,861718  	29,168597  	29,331744  	33,944414  	32,377435  	35,254935  	60,052723  	26,415953  	25,173617  	28,324892  	64,903868  	0,145153  	0,073550  	-3379,608527  	18490,160778  	-0,027590  	-0,050008  	0,423058  	0,214367  	-4,264069  	16138,213521  	37534,105843  	5,443862  	-0,047958  
280,555000  	21,782255  	32,766667  	24,194715  	57,696365  	70,305618  	65,548580  	0,005698  	0,011429  	0,003966  	0,004208  	0,004470  	-0,000000  	-0,000000  	26,363916  	23,782412  	24,771304  	25,211302  	29,726558  	27,870470  	29,170501  	29,335926  	33,941661  	32,384408  	35,259534  	60,059720  	26,425124  	25,180917  	28,329025  	64,907627  	0,175390  	0,088871  	-4081,899598  	1816,888685  	-0,053915  	-0,050004  	0,398826  	0,202088  	-4,025518  	15996,118719  	37514,391270  	5,441002  	-0,047955  
281,556000  	21,767458  	32,755641  	24,194162  	-242,047242  	70,305805  	65,549669  	0,005696  	0,011472  	0,003966  	0,004197  	0,004478  	-0,000001  	-0,000000  	26,366798  	23,778539  	24,767912  	25,210818  	29,731192  	27,863787  	29,171803  	29,337851  	33,942278  	32,383964  	35,261296  	60,064198  	26,422653  	25,188609  	28,333024  	64,914742  	0,166365  	0,084298  	-3873,183850  	-27063,284173  	-0,103131  	-0,050010  	0,404660  	0,205044  	-4,083627  	16088,758084  	37471,664595  	5,434805  	-0,047960  
282,558000  	21,746829  	32,756380  	24,192564  	-242,047242  	70,306428  	65,556512  	0,005708  	0,011470  	0,003967  	0,004180  	0,004443  	0,000000  	-0,000000  	26,358032  	23,768459  	24,756824  	25,202132  	29,714975  	27,872369  	29,170780  	29,339527  	33,943325  	32,375300  	35,243394  	60,055407  	26,416874  	25,189465  	28,332442  	64,905392  	0,152496  	0,077271  	-3557,207273  	-27056,333576  	-0,103105  	-0,049996  	0,377103  	0,191081  	-3,800558  	16085,336167  	37719,939696  	5,470815  	-0,047948  
283,557000  	21,759538  	32,757766  	24,191919  	-242,047242  	70,310945  	65,560338  	0,005699  	0,011471  	0,003965  	0,004235  	0,004428  	-0,000000  	-0,000000  	26,358531  	23,781484  	24,762296  	25,213524  	29,719980  	27,866629  	29,173428  	29,330889  	33,946472  	32,371662  	35,247234  	60,061200  	26,412454  	25,203581  	28,336391  	64,906308  	0,197285  	0,099966  	-4597,238999  	-27060,590172  	-0,103122  	-0,050005  	0,365332  	0,185117  	-3,682469  	16087,013522  	37541,710640  	5,444965  	-0,047956  
284,557000  	21,779062  	32,760538  	24,190506  	-242,047242  	70,315555  	65,563200  	0,005685  	0,011420  	0,003965  	0,004172  	0,004461  	0,000001  	-0,000000  	26,369648  	23,785941  	24,766792  	25,212169  	29,729911  	27,874069  	29,173506  	29,343121  	33,949703  	32,375558  	35,255059  	60,062532  	26,418796  	25,226755  	28,339318  	64,908104  	0,145879  	0,073918  	-3394,170333  	-27052,722055  	-0,103092  	-0,049989  	0,391353  	0,198301  	-3,946202  	15976,876891  	37238,189544  	5,400943  	-0,047942  
285,556000  	21,777343  	32,765681  	24,190076  	956,927186  	70,318109  	65,563635  	0,005699  	0,011462  	0,003967  	0,004167  	0,004459  	0,000001  	-0,000000  	26,357080  	23,784870  	24,766240  	25,215962  	29,731043  	27,872311  	29,177752  	29,334706  	33,948680  	32,386838  	35,258591  	60,061028  	26,417465  	25,245596  	28,343839  	64,909614  	0,142337  	0,072123  	-3313,821799  	22507,047383  	-0,022166  	-0,049983  	0,389408  	0,197316  	-3,928340  	16068,272566  	37530,059836  	5,443275  	-0,047937  
286,558000  	21,772984  	32,763340  	24,190813  	357,439972  	70,319480  	65,563386  	0,005700  	0,011471  	0,003967  	0,004174  	0,004448  	-0,000000  	-0,000000  	26,368054  	23,787003  	24,768981  	25,200770  	29,718340  	27,868032  	29,170391  	29,351549  	33,945030  	32,385162  	35,264720  	60,066619  	26,397772  	25,267057  	28,342724  	64,913260  	0,147267  	0,074621  	-3429,235225  	12537,137805  	-0,036500  	-0,050004  	0,381123  	0,193118  	-3,846075  	16085,752853  	37547,091193  	5,445745  	-0,047955  
287,556000  	21,784772  	32,758906  	24,190537  	1256,670793  	70,317954  	65,560805  	0,005689  	0,011471  	0,003965  	0,004151  	0,004459  	0,000001  	-0,000000  	26,372208  	23,789088  	24,773339  	25,226343  	29,735538  	27,877701  	29,172236  	29,336363  	33,957814  	32,385137  	35,263305  	60,066351  	26,417998  	25,297912  	28,344519  	64,926661  	0,128788  	0,065258  	-2994,513431  	25556,817791  	-0,018532  	-0,049990  	0,389740  	0,197484  	-3,933905  	16085,684938  	37316,673596  	5,412326  	-0,047943  
288,556000  	21,800919  	32,761616  	24,190353  	1256,670793  	70,314527  	65,558441  	0,005699  	0,011476  	0,003969  	0,004223  	0,004445  	0,000001  	-0,000000  	26,360851  	23,782138  	24,765593  	25,211958  	29,717907  	27,875856  	29,174805  	29,344086  	33,951670  	32,379645  	35,261409  	60,062118  	26,407462  	25,321013  	28,329145  	64,914261  	0,187200  	0,094856  	-4347,336424  	25552,877903  	-0,018529  	-0,049981  	0,378810  	0,191946  	-3,822729  	16097,275735  	37534,021110  	5,443850  	-0,047935  
289,557000  	21,804480  	32,765312  	24,189769  	956,927186  	70,316365  	65,559716  	0,005704  	0,011441  	0,003966  	0,004209  	0,004463  	0,000001  	-0,000000  	26,358149  	23,783438  	24,754721  	25,207815  	29,717447  	27,865723  	29,167193  	29,331369  	33,952109  	32,374632  	35,261386  	60,057661  	26,417676  	25,339215  	28,331312  	64,911120  	0,176230  	0,089297  	-4092,639460  	22510,700620  	-0,022169  	-0,049992  	0,392790  	0,199030  	-3,964276  	16022,873625  	37651,404725  	5,460875  	-0,047945  
290,557000  	21,798218  	32,767036  	24,189646  	357,439972  	70,314247  	65,568363  	0,005704  	0,011448  	0,003968  	0,004201  	0,004415  	0,000001  	-0,000000  	26,370995  	23,795428  	24,774051  	25,215367  	29,730147  	27,876857  	29,173461  	29,333415  	33,949700  	32,385853  	35,255845  	60,061320  	26,426996  	25,355001  	28,351266  	64,927338  	0,169460  	0,085867  	-3938,293613  	12532,801628  	-0,036487  	-0,049984  	0,354932  	0,179847  	-3,574082  	16036,470032  	37648,149561  	5,460402  	-0,047938  
291,556000  	21,804388  	32,770639  	24,188632  	357,439972  	70,309387  	65,569981  	0,005702  	0,011416  	0,003963  	0,004197  	0,004460  	0,000001  	-0,000000  	26,354760  	23,785389  	24,766845  	25,214225  	29,723306  	27,865725  	29,170531  	29,327205  	33,948704  	32,385241  	35,245473  	60,058644  	26,433925  	25,342983  	28,332107  	64,913750  	0,166472  	0,084353  	-3867,936730  	12534,696674  	-0,036492  	-0,049993  	0,390229  	0,197732  	-3,924156  	15968,323868  	37593,743837  	5,452512  	-0,047945  
292,557000  	21,824956  	32,775136  	24,188325  	956,927186  	70,304403  	65,570043  	0,005691  	0,011509  	0,003968  	0,004189  	0,004514  	-0,000000  	-0,000000  	26,352819  	23,785033  	24,759998  	25,219372  	29,714175  	27,867725  	29,171279  	29,335162  	33,947331  	32,373494  	35,244866  	60,057796  	26,434603  	25,337500  	28,333777  	64,914983  	0,160028  	0,081088  	-3712,763044  	22514,032962  	-0,022173  	-0,050000  	0,433492  	0,219653  	-4,354563  	16169,619178  	37354,499873  	5,417812  	-0,047952  
293,555000  	21,833214  	32,777353  	24,187496  	1256,670793  	70,303874  	65,565284  	0,005688  	0,011440  	0,003964  	0,004176  	0,004490  	-0,000001  	-0,000000  	26,350372  	23,790393  	24,765129  	25,215562  	29,725271  	27,866892  	29,165520  	29,333508  	33,942556  	32,379597  	35,242422  	60,058789  	26,443978  	25,328061  	28,331768  	64,913007  	0,149563  	0,075785  	-3468,038412  	25568,778391  	-0,018540  	-0,050016  	0,414138  	0,209847  	-4,163867  	16019,666064  	37304,888632  	5,410617  	-0,047965  
294,557000  	21,799937  	32,774951  	24,185345  	1256,670793  	70,306054  	65,561987  	0,005702  	0,011449  	0,003965  	0,004204  	0,004470  	-0,000001  	-0,000000  	26,360781  	23,786640  	24,756909  	25,207014  	29,723813  	27,869281  	29,168734  	29,334972  	33,929522  	32,374734  	35,247710  	60,054342  	26,443063  	25,313752  	28,328592  	64,906148  	0,171615  	0,086959  	-3990,626579  	25566,109621  	-0,018538  	-0,050010  	0,398776  	0,202063  	-4,014039  	16039,855162  	37599,477445  	5,453343  	-0,047960  
295,555000  	21,764665  	32,773103  	24,185161  	1256,670793  	70,305961  	65,565937  	0,005691  	0,011459  	0,003964  	0,004199  	0,004466  	-0,000001  	-0,000001  	26,361917  	23,783040  	24,757937  	25,202904  	29,712115  	27,865004  	29,171236  	29,329609  	33,937741  	32,375315  	35,250986  	60,058539  	26,449951  	25,297607  	28,333205  	64,909137  	0,167522  	0,084885  	-3907,317444  	25565,181540  	-0,018538  	-0,050008  	0,395247  	0,200274  	-3,975127  	16060,947669  	37351,350626  	5,417355  	-0,047958  
296,559000  	21,766691  	32,777723  	24,183625  	1256,670793  	70,309512  	65,558596  	0,005697  	0,011472  	0,003966  	0,004163  	0,004456  	-0,000000  	-0,000000  	26,355154  	23,780030  	24,759152  	25,205963  	29,710311  	27,861785  	29,171843  	29,324864  	33,939384  	32,374102  	35,244486  	60,059478  	26,457844  	25,278796  	28,336301  	64,913158  	0,138756  	0,070309  	-3237,129301  	25561,717869  	-0,018535  	-0,050000  	0,387290  	0,196243  	-3,904049  	16089,191748  	37495,792350  	5,438305  	-0,047952  
297,557000  	21,788241  	32,788102  	24,184915  	57,696365  	70,311910  	65,557974  	0,005701  	0,011425  	0,003966  	0,004228  	0,004463  	-0,000001  	-0,000000  	26,363704  	23,784997  	24,762203  	25,212859  	29,716737  	27,871785  	29,176758  	29,332533  	33,939362  	32,378478  	35,248308  	60,060191  	26,463273  	25,270369  	28,335127  	64,916746  	0,191760  	0,097166  	-4469,157908  	1817,673648  	-0,053923  	-0,050011  	0,393149  	0,199211  	-3,965630  	15987,926493  	37567,773136  	5,448745  	-0,047961  
298,555000  	21,799415  	32,791366  	24,184977  	657,183579  	70,312035  	65,552873  	0,005702  	0,011498  	0,003963  	0,004152  	0,004482  	-0,000001  	-0,000000  	26,366023  	23,782778  	24,763763  	25,212573  	29,719245  	27,868212  	29,178300  	29,330834  	33,939189  	32,379661  	35,250757  	60,056473  	26,460767  	25,260701  	28,327179  	64,915921  	0,129570  	0,065654  	-3017,575549  	18491,368658  	-0,027591  	-0,050010  	0,407719  	0,206594  	-4,117110  	16145,609871  	37602,774975  	5,453821  	-0,047960  
299,556000  	21,794626  	32,787486  	24,184700  	-242,047242  	70,316334  	65,559778  	0,005707  	0,011437  	0,003967  	0,004184  	0,004483  	-0,000000  	-0,000000  	26,352071  	23,770742  	24,758123  	25,202868  	29,713733  	27,860878  	29,166122  	29,323408  	33,935867  	32,367070  	35,242618  	60,043314  	26,453196  	25,254949  	28,321866  	64,903976  	0,155518  	0,078802  	-3622,183495  	-27059,793670  	-0,103121  	-0,050004  	0,408699  	0,207091  	-4,124753  	16013,160389  	37700,472262  	5,467991  	-0,047955  
300,561000  	21,787750  	32,783113  	24,185438  	956,927186  	70,319137  	65,570354  	0,005698  	0,011482  	0,003968  	0,004157  	0,004449  	0,000000  	-0,000000  	26,344480  	23,767233  	24,759452  	25,198883  	29,710536  	27,856830  	29,157447  	29,323518  	33,933012  	32,367510  	35,235905  	60,039089  	26,453614  	25,253154  	28,325154  	64,895134  	0,133954  	0,067876  	-3120,663740  	22514,027072  	-0,022173  	-0,050000  	0,382138  	0,193632  	-3,850390  	16109,484133  	37505,953264  	5,439779  	-0,047951  
301,556000  	21,792139  	32,778216  	24,185407  	1256,670793  	70,314496  	65,569763  	0,005690  	0,011465  	0,003964  	0,004180  	0,004466  	-0,000001  	-0,000000  	26,347564  	23,773734  	24,761324  	25,206778  	29,711848  	27,859266  	29,157491  	29,330427  	33,934520  	32,373492  	35,242015  	60,047292  	26,459222  	25,256065  	28,331515  	64,903332  	0,152355  	0,077200  	-3546,339339  	25565,312085  	-0,018538  	-0,050008  	0,395563  	0,200434  	-3,982258  	16074,756310  	37337,750960  	5,415383  	-0,047958  
