06/19/2020 13:10:10
Tempo T_f_e T_f_s AR AR T_q_e T_q_s Corrente_P_f Corrente_P_q Corrente_P_RESERVA Corrente_eletromag_f Corrente_eletromag_q AR AR T_1 T_2 T_3 T_4 T_5 T_6 T_7 T_8 T_9 T_10 T_11 T_12 T_13 T_14 T_15 T_16 Velocidade_f_(m/s) Vazao_f_(L/s) q_f_(W) AR AR AR Velocidade_q_(m/s) Vazao_q_(L/s) q_q_(W) DeltaP_q_(Pa) DeltaP_f_(Pa) DeltaP_f_(Psi) AR
0,008000  	22,880386  	31,844744  	24,173887  	956,927186  	70,190299  	65,351009  	0,006581  	0,011428  	0,003964  	0,004243  	0,004456  	0,000000  	-0,000000  	26,834909  	24,606441  	25,519585  	25,689943  	29,583692  	27,881390  	29,137551  	29,056022  	32,971310  	31,626414  	34,318001  	59,736327  	26,311506  	25,162021  	28,568386  	64,718655  	0,203716  	0,103224  	-3868,932502  	22514,150243  	-0,022172  	-0,049999  	0,387363  	0,196280  	-3,977317  	15993,065382  	56539,532771  	8,200366  	-0,047951  
2,548000  	22,853916  	31,842712  	24,173826  	-242,047242  	70,185814  	65,355363  	0,006573  	0,011469  	0,003965  	0,004249  	0,004449  	-0,000001  	-0,000000  	26,832466  	24,602442  	25,531715  	25,681933  	29,577697  	27,888886  	29,133348  	29,053994  	32,973685  	31,621750  	34,324367  	59,741068  	26,291602  	25,176855  	28,568386  	64,715859  	0,208143  	0,105468  	-3963,797674  	-27060,932087  	-0,103130  	-0,050006  	0,381926  	0,193525  	-3,914331  	16082,440590  	56369,600499  	8,175719  	-0,047957  
3,551000  	22,873722  	31,849547  	24,172536  	657,183579  	70,186998  	65,356732  	0,006580  	0,011399  	0,003967  	0,004244  	0,004454  	-0,000001  	-0,000000  	26,837460  	24,603773  	25,533269  	25,684133  	29,587155  	27,888151  	29,139314  	29,052207  	32,984303  	31,630402  	34,320106  	59,741985  	26,299989  	25,206005  	28,569969  	64,724088  	0,203983  	0,103360  	-3878,960595  	18492,698502  	-0,027593  	-0,050013  	0,385606  	0,195389  	-3,951896  	15932,203790  	56515,341465  	8,196857  	-0,047962  
4,548000  	22,908484  	31,856505  	24,171368  	1256,670793  	70,188617  	65,355861  	0,006583  	0,011440  	0,003965  	0,004267  	0,004472  	-0,000001  	-0,000000  	26,839310  	24,599222  	25,527597  	25,689747  	29,589534  	27,892098  	29,133974  	29,065726  	32,984128  	31,636131  	34,315024  	59,742581  	26,300729  	25,197873  	28,570045  	64,725149  	0,222746  	0,112867  	-4222,638836  	25565,924748  	-0,018538  	-0,050009  	0,400306  	0,202838  	-4,104662  	16019,969558  	56579,745697  	8,206198  	-0,047959  
5,552000  	22,930533  	31,859738  	24,170907  	1256,670793  	70,188150  	65,353715  	0,006585  	0,011482  	0,003967  	0,004224  	0,004451  	0,000001  	-0,000000  	26,839219  	24,598106  	25,528385  	25,697866  	29,589961  	27,885410  	29,131733  	29,070896  	32,979582  	31,629323  	34,332812  	59,751129  	26,305548  	25,211137  	28,578330  	64,723679  	0,188349  	0,095438  	-3563,050085  	25557,175465  	-0,018532  	-0,049989  	0,383560  	0,194353  	-3,934318  	16109,808851  	56626,765518  	8,213018  	-0,047942  
6,551000  	22,887602  	31,857275  	24,169863  	1256,670793  	70,183291  	65,354212  	0,006569  	0,011433  	0,003965  	0,004204  	0,004438  	0,000000  	-0,000000  	26,833724  	24,600870  	25,530799  	25,688662  	29,582922  	27,879148  	29,126213  	29,059663  	32,970404  	31,618080  	34,321497  	59,737828  	26,297980  	25,192713  	28,567762  	64,716747  	0,172111  	0,087210  	-3270,637126  	25559,756994  	-0,018534  	-0,049995  	0,373212  	0,189109  	-3,823935  	16004,380275  	56278,025180  	8,162437  	-0,047947  
7,551000  	22,829933  	31,860785  	24,169402  	357,439972  	70,180051  	65,358598  	0,006581  	0,011449  	0,003962  	0,004235  	0,004468  	0,000000  	-0,000000  	26,837893  	24,604317  	25,538370  	25,691824  	29,580312  	27,882576  	29,128846  	29,061620  	32,972006  	31,625764  	34,319500  	59,747549  	26,294604  	25,185626  	28,571161  	64,722723  	0,196793  	0,099716  	-3765,182297  	12537,079278  	-0,036497  	-0,049999  	0,397255  	0,201292  	-4,063851  	16039,323162  	56530,897054  	8,199113  	-0,047951  
8,549000  	22,818694  	31,870268  	24,169279  	956,927186  	70,182979  	65,362703  	0,006585  	0,011453  	0,003965  	0,004210  	0,004481  	0,000000  	-0,000000  	26,827338  	24,600497  	25,535443  	25,689672  	29,581200  	27,886662  	29,127744  	29,063170  	32,978440  	31,623679  	34,324511  	59,745520  	26,295728  	25,181603  	28,575041  	64,717739  	0,177139  	0,089758  	-3396,940934  	22512,306635  	-0,022171  	-0,049994  	0,407353  	0,206409  	-4,166144  	16047,673857  	56616,802315  	8,211573  	-0,047946  
9,553000  	22,839790  	31,880121  	24,168235  	1256,670793  	70,189552  	65,359158  	0,006570  	0,011474  	0,003965  	0,004268  	0,004510  	-0,000001  	-0,000000  	26,839355  	24,608451  	25,541973  	25,696496  	29,588274  	27,896017  	29,133128  	29,069953  	32,988495  	31,631354  	34,337300  	59,753928  	26,308707  	25,179328  	28,579679  	64,722341  	0,223408  	0,113202  	-4278,890341  	25565,710045  	-0,018538  	-0,050008  	0,429824  	0,217795  	-4,405185  	16093,683324  	56289,626556  	8,164120  	-0,047958  
10,549000  	22,843352  	31,875317  	24,167498  	1256,670793  	70,191919  	65,357851  	0,006577  	0,011415  	0,003965  	0,004234  	0,004481  	-0,000001  	-0,000000  	26,845664  	24,609235  	25,539277  	25,695940  	29,591615  	27,900700  	29,136997  	29,069693  	32,986039  	31,630581  	34,332215  	59,750946  	26,304615  	25,174863  	28,579421  	64,726535  	0,196273  	0,099453  	-3755,704306  	25566,357307  	-0,018538  	-0,050009  	0,407431  	0,206448  	-4,178861  	15966,361412  	56448,126918  	8,187109  	-0,047959  
11,552000  	22,836443  	31,862848  	24,166392  	357,439972  	70,190704  	65,359158  	0,006583  	0,011463  	0,003967  	0,004228  	0,004469  	-0,000000  	-0,000000  	26,842324  	24,607133  	25,538239  	25,699604  	29,594467  	27,897446  	29,141273  	29,061931  	32,982645  	31,631666  	34,325232  	59,746838  	26,303494  	25,170974  	28,570552  	64,721304  	0,191402  	0,096985  	-3660,245412  	12538,482253  	-0,036501  	-0,050005  	0,397487  	0,201410  	-4,074742  	16069,747591  	56578,432334  	8,206008  	-0,047955  
12,550000  	22,840803  	31,853796  	24,164180  	956,927186  	70,193882  	65,367431  	0,006574  	0,011447  	0,003966  	0,004252  	0,004473  	-0,000000  	-0,000000  	26,835918  	24,605735  	25,537980  	25,694292  	29,586878  	27,888930  	29,133870  	29,055202  	32,981930  	31,631812  	34,326869  	59,743111  	26,301826  	25,161371  	28,570451  	64,718320  	0,210845  	0,106837  	-4026,054251  	22515,376220  	-0,022173  	-0,050001  	0,401168  	0,203275  	-4,108143  	16035,174698  	56394,801541  	8,179374  	-0,047953  
13,552000  	22,839698  	31,850963  	24,162398  	57,696365  	70,194287  	65,369111  	0,006575  	0,011421  	0,003968  	0,004234  	0,004479  	0,000000  	-0,000000  	26,837526  	24,609506  	25,540078  	25,695164  	29,589060  	27,884979  	29,127727  	29,058957  	32,978712  	31,635760  	34,332670  	59,747505  	26,302456  	25,150683  	28,569819  	64,717363  	0,196197  	0,099414  	-3745,636859  	1818,516682  	-0,053912  	-0,049997  	0,406019  	0,205733  	-4,156719  	15979,375591  	56413,739394  	8,182121  	-0,047949  
14,558000  	22,830731  	31,851209  	24,161722  	657,183579  	70,189988  	65,362268  	0,006581  	0,011445  	0,003966  	0,004207  	0,004433  	0,000001  	-0,000000  	26,841314  	24,608761  	25,539142  	25,696330  	29,594852  	27,886334  	29,130734  	29,066737  	32,980859  	31,637800  	34,328090  	59,747642  	26,300717  	25,144292  	28,567421  	64,716317  	0,174596  	0,088469  	-3336,668280  	18484,080734  	-0,027579  	-0,049985  	0,369026  	0,186988  	-3,779983  	16030,213378  	56531,278353  	8,199169  	-0,047939  
15,555000  	22,834692  	31,850655  	24,159879  	657,183579  	70,186437  	65,362610  	0,006584  	0,011448  	0,003965  	0,004235  	0,004470  	-0,000000  	-0,000000  	26,844684  	24,604552  	25,537350  	25,689523  	29,591165  	27,887263  	29,133831  	29,066357  	32,983584  	31,636366  	34,323096  	59,743430  	26,292561  	25,141801  	28,569637  	64,711243  	0,196928  	0,099785  	-3761,561509  	18489,282501  	-0,027587  	-0,050001  	0,398821  	0,202086  	-4,081890  	16037,537568  	56603,979370  	8,209713  	-0,047952  
16,549000  	22,826770  	31,847823  	24,159326  	1256,670793  	70,185440  	65,360060  	0,006574  	0,011427  	0,003966  	0,004259  	0,004467  	0,000001  	-0,000000  	26,847854  	24,606030  	25,537327  	25,691454  	29,591216  	27,888202  	29,137233  	29,063595  	32,979862  	31,641074  	34,323964  	59,745773  	26,289915  	25,139577  	28,572680  	64,708365  	0,216129  	0,109514  	-4130,657741  	25558,247397  	-0,018532  	-0,049991  	0,395967  	0,200639  	-4,053977  	15991,152447  	56386,977850  	8,178240  	-0,047944  
17,552000  	22,860794  	31,846683  	24,158620  	1256,670793  	70,184038  	65,354461  	0,006585  	0,011432  	0,003964  	0,004219  	0,004448  	-0,000000  	-0,000001  	26,843650  	24,606109  	25,534774  	25,700132  	29,594322  	27,891952  	29,133755  	29,065462  	32,981173  	31,639939  	34,320208  	59,743432  	26,288757  	25,133574  	28,577124  	64,712993  	0,184090  	0,093280  	-3504,598484  	25563,633385  	-0,018536  	-0,050003  	0,381096  	0,193104  	-3,905118  	16003,472622  	56625,317994  	8,212808  	-0,047954  
18,550000  	22,898811  	31,843851  	24,158313  	1256,670793  	70,183353  	65,350604  	0,006584  	0,011418  	0,003966  	0,004251  	0,004466  	-0,000001  	-0,000000  	26,842280  	24,608059  	25,540567  	25,707768  	29,597742  	27,893455  	29,127609  	29,066972  	32,983263  	31,633816  	34,323614  	59,746561  	26,288061  	25,129261  	28,577091  	64,713248  	0,210129  	0,106474  	-3982,120905  	25565,839123  	-0,018538  	-0,050007  	0,395141  	0,200221  	-4,051695  	15971,483322  	56610,736836  	8,210693  	-0,047958  
19,552000  	22,900561  	31,842465  	24,157299  	357,439972  	70,183478  	65,350666  	0,006571  	0,011435  	0,003967  	0,004278  	0,004468  	0,000001  	-0,000000  	26,838661  	24,607321  	25,537850  	25,698468  	29,594382  	27,885386  	29,137085  	29,065090  	32,980107  	31,633150  	34,322425  	59,747728  	26,290622  	25,126825  	28,574378  	64,713893  	0,231747  	0,117428  	-4390,264280  	12536,278426  	-0,036494  	-0,049993  	0,397047  	0,201187  	-4,071289  	16009,021829  	56328,406081  	8,169745  	-0,047945  
20,550000  	22,906089  	31,840556  	24,156439  	-242,047242  	70,184599  	65,356949  	0,006581  	0,011444  	0,003964  	0,004211  	0,004487  	0,000001  	-0,000000  	26,839028  	24,604145  	25,531083  	25,692975  	29,591665  	27,886360  	29,139161  	29,061655  	32,986903  	31,628733  	34,324509  	59,739214  	26,288962  	25,123614  	28,571067  	64,701361  	0,177836  	0,090111  	-3366,158347  	-27051,807656  	-0,103102  	-0,049988  	0,412056  	0,208792  	-4,220688  	16027,983508  	56536,136385  	8,199873  	-0,047941  
21,550000  	22,886436  	31,848531  	24,155333  	1256,670793  	70,181359  	65,359531  	0,006586  	0,011419  	0,003965  	0,004208  	0,004475  	-0,000000  	-0,000000  	26,848302  	24,611048  	25,534009  	25,693900  	29,596638  	27,893159  	29,136302  	29,070904  	32,984443  	31,629020  	34,327146  	59,747056  	26,281465  	25,112067  	28,570960  	64,707675  	0,175347  	0,088850  	-3329,315624  	25563,788677  	-0,018536  	-0,050003  	0,402616  	0,204008  	-4,119015  	15974,373947  	56654,769814  	8,217080  	-0,047954  
22,550000  	22,847866  	31,858630  	24,154411  	1256,670793  	70,183166  	65,353497  	0,006577  	0,011451  	0,003965  	0,004220  	0,004456  	0,000000  	-0,000000  	26,844589  	24,607659  	25,528191  	25,698483  	29,588122  	27,894382  	29,129582  	29,064553  	32,975625  	31,629066  	34,321529  	59,739098  	26,284429  	25,101493  	28,567886  	64,708873  	0,185040  	0,093761  	-3532,434593  	25560,971353  	-0,018534  	-0,049996  	0,387112  	0,196153  	-3,966844  	16044,089934  	56442,866403  	8,186346  	-0,047948  
23,550000  	22,835061  	31,866758  	24,153305  	1256,670793  	70,180300  	65,348334  	0,006574  	0,011447  	0,003965  	0,004232  	0,004474  	0,000000  	-0,000000  	26,850958  	24,607894  	25,533319  	25,697663  	29,594058  	27,896327  	29,145421  	29,065005  	32,988904  	31,633285  	34,327380  	59,747833  	26,299393  	25,101943  	28,571286  	64,719797  	0,194948  	0,098781  	-3730,232633  	25561,119539  	-0,018534  	-0,049997  	0,401478  	0,203432  	-4,116003  	16034,302417  	56379,436602  	8,177146  	-0,047949  
24,553000  	22,816084  	31,871684  	24,152630  	57,696365  	70,179553  	65,355425  	0,006578  	0,011413  	0,003965  	0,004277  	0,004439  	0,000001  	-0,000000  	26,840751  	24,604588  	25,523738  	25,690499  	29,581243  	27,877444  	29,124282  	29,049279  	32,972540  	31,631643  	34,314369  	59,739351  	26,289932  	25,074500  	28,554324  	64,693906  	0,231145  	0,117123  	-4434,556767  	1818,823992  	-0,053905  	-0,049990  	0,374133  	0,189576  	-3,829437  	15961,407874  	56470,665928  	8,190378  	-0,047943  
25,549000  	22,810403  	31,868144  	24,150449  	1256,670793  	70,181858  	65,349080  	0,006579  	0,011435  	0,003966  	0,004260  	0,004448  	-0,000000  	-0,000000  	26,838879  	24,611942  	25,541153  	25,698240  	29,588487  	27,887334  	29,140262  	29,062528  	32,982526  	31,634949  	34,328697  	59,741584  	26,299780  	25,089969  	28,571066  	64,706999  	0,217280  	0,110097  	-4169,542121  	25562,893209  	-0,018536  	-0,050000  	0,381183  	0,193148  	-3,908598  	16008,190580  	56493,783947  	8,193731  	-0,047952  
26,552000  	22,844672  	31,859954  	24,149097  	1256,670793  	70,182855  	65,349516  	0,006574  	0,011449  	0,003967  	0,004207  	0,004498  	-0,000000  	-0,000000  	26,832714  	24,598011  	25,538976  	25,692964  	29,577057  	27,878966  	29,126169  	29,048005  	32,971793  	31,625522  	34,314858  	59,731444  	26,287605  	25,074901  	28,567524  	64,705266  	0,174055  	0,088195  	-3324,401130  	25564,977479  	-0,018537  	-0,050005  	0,420930  	0,213288  	-4,316656  	16038,344764  	56396,234943  	8,179582  	-0,047956  
27,549000  	22,866690  	31,853118  	24,146885  	1256,670793  	70,185658  	65,351693  	0,006582  	0,011429  	0,003965  	0,004261  	0,004450  	0,000001  	-0,000000  	26,840181  	24,602033  	25,532483  	25,696154  	29,579776  	27,882285  	29,124430  	29,069107  	32,982058  	31,632362  	34,315315  	59,737505  	26,306956  	25,072595  	28,571661  	64,710868  	0,217738  	0,110329  	-4145,414388  	25559,326658  	-0,018533  	-0,049992  	0,382881  	0,194009  	-3,926976  	15996,432118  	56548,613337  	8,201683  	-0,047945  
28,551000  	22,860487  	31,845052  	24,145656  	57,696365  	70,184911  	65,352875  	0,006584  	0,011446  	0,003966  	0,004188  	0,004500  	0,000001  	-0,000000  	26,845020  	24,604667  	25,530544  	25,703730  	29,589530  	27,882262  	29,146022  	29,065630  	32,976396  	31,636815  	34,317123  	59,744237  	26,311874  	25,059363  	28,569948  	64,715652  	0,158919  	0,080526  	-3024,968832  	1819,351115  	-0,053910  	-0,049994  	0,421974  	0,213818  	-4,326203  	16033,904125  	56608,223087  	8,210329  	-0,047946  
29,550000  	22,856649  	31,839079  	24,144182  	57,696365  	70,183540  	65,354585  	0,006571  	0,011429  	0,003966  	0,004253  	0,004469  	0,000001  	-0,000000  	26,844678  	24,599986  	25,532917  	25,693140  	29,587521  	27,892510  	29,134330  	29,071525  	32,976280  	31,628264  	34,316653  	59,743569  	26,299449  	25,059747  	28,571867  	64,716760  	0,211409  	0,107123  	-4023,141633  	1819,243125  	-0,053904  	-0,049988  	0,397778  	0,201557  	-4,075534  	15997,155835  	56324,939084  	8,169242  	-0,047941  
30,553000  	22,880355  	31,841850  	24,142216  	1256,670793  	70,182668  	65,352097  	0,006577  	0,011422  	0,003966  	0,004219  	0,004482  	0,000000  	-0,000000  	26,834760  	24,605111  	25,532308  	25,700091  	29,589119  	27,892650  	29,138147  	29,065973  	32,984136  	31,625274  	34,325562  	59,741613  	26,304335  	25,053438  	28,564457  	64,711419  	0,183836  	0,093151  	-3490,252412  	25560,436541  	-0,018534  	-0,049994  	0,408252  	0,206864  	-4,184248  	15981,488025  	56445,486069  	8,186726  	-0,047947  
31,552000  	22,891594  	31,848038  	24,140834  	357,439972  	70,182886  	65,354119  	0,006586  	0,011451  	0,003968  	0,004147  	0,004462  	0,000001  	-0,000000  	26,839296  	24,597999  	25,520639  	25,692324  	29,589814  	27,886057  	29,125192  	29,058258  	32,968730  	31,628498  	34,322251  	59,735022  	26,286456  	25,040244  	28,561955  	64,709438  	0,126053  	0,063872  	-2391,857521  	12537,284224  	-0,036495  	-0,049993  	0,392005  	0,198632  	-4,016231  	16042,851196  	56644,114624  	8,215534  	-0,047946  
32,555000  	22,904615  	31,852102  	24,139543  	956,927186  	70,188057  	65,352253  	0,006573  	0,011483  	0,003965  	0,004259  	0,004448  	0,000001  	-0,000000  	26,842492  	24,602826  	25,534398  	25,694796  	29,588895  	27,887079  	29,133124  	29,067523  	32,977778  	31,635687  	34,327616  	59,743522  	26,294332  	25,040121  	28,572352  	64,712079  	0,216600  	0,109753  	-4105,870632  	22512,943683  	-0,022171  	-0,049993  	0,381294  	0,193205  	-3,912186  	16111,687828  	56373,745361  	8,176320  	-0,047945  
33,549000  	22,921904  	31,856259  	24,136625  	57,696365  	70,186250  	65,358193  	0,006575  	0,011424  	0,003966  	0,004219  	0,004500  	0,000000  	-0,000000  	26,845220  	24,601185  	25,532478  	25,695532  	29,587993  	27,884605  	29,142500  	29,063229  	32,975652  	31,627956  	34,321242  	59,746009  	26,290250  	25,031800  	28,575782  	64,713199  	0,184264  	0,093368  	-3487,774234  	1819,942419  	-0,053913  	-0,049996  	0,422309  	0,213987  	-4,326067  	15986,418218  	56417,594750  	8,182680  	-0,047948  
34,552000  	22,927124  	31,861801  	24,134475  	1256,670793  	70,181017  	65,356825  	0,006585  	0,011443  	0,003965  	0,004224  	0,004444  	0,000001  	-0,000000  	26,840563  	24,599287  	25,531249  	25,695741  	29,584619  	27,876474  	29,137301  	29,066471  	32,972343  	31,626624  	34,320090  	59,742831  	26,283118  	25,019400  	28,572582  	64,716749  	0,188007  	0,095265  	-3558,766959  	25556,782655  	-0,018531  	-0,049986  	0,378088  	0,191580  	-3,869979  	16025,289553  	56617,014148  	8,211604  	-0,047939  
35,550000  	22,932652  	31,864387  	24,132816  	357,439972  	70,183758  	65,355083  	0,006582  	0,011472  	0,003964  	0,004232  	0,004438  	0,000001  	-0,000000  	26,841167  	24,608227  	25,537284  	25,696316  	29,584311  	27,884347  	29,136976  	29,060133  	32,977283  	31,630047  	34,320791  	59,740691  	26,285446  	25,013179  	28,575797  	64,715357  	0,194372  	0,098490  	-3678,033695  	12535,545063  	-0,036489  	-0,049984  	0,373319  	0,189164  	-3,824714  	16089,301402  	56557,764514  	8,203010  	-0,047938  
36,552000  	22,926326  	31,872516  	24,130174  	956,927186  	70,185689  	65,356763  	0,006571  	0,011430  	0,003968  	0,004198  	0,004523  	0,000001  	-0,000000  	26,841069  	24,608128  	25,532100  	25,687150  	29,580396  	27,888150  	29,129599  	29,056216  	32,978216  	31,633475  	34,317761  	59,739225  	26,282836  	25,008277  	28,571280  	64,707010  	0,167343  	0,084794  	-3171,699820  	22511,792810  	-0,022169  	-0,049989  	0,440714  	0,223313  	-4,515425  	15998,362738  	56319,403187  	8,168439  	-0,047942  
37,552000  	22,921505  	31,883538  	24,129038  	1256,670793  	70,180923  	65,357167  	0,006579  	0,011452  	0,003965  	0,004245  	0,004463  	0,000002  	-0,000000  	26,833809  	24,602570  	25,520455  	25,684773  	29,581252  	27,883741  	29,129744  	29,059554  	32,972586  	31,628058  	34,315918  	59,737334  	26,277385  	24,998059  	28,558751  	64,709801  	0,205218  	0,103985  	-3896,434764  	25550,566104  	-0,018526  	-0,049972  	0,393085  	0,199179  	-4,023112  	16045,005370  	56486,934687  	8,192737  	-0,047927  
38,551000  	22,910142  	31,889019  	24,126826  	657,183579  	70,179428  	65,360899  	0,006585  	0,011444  	0,003964  	0,004206  	0,004472  	0,000001  	-0,000000  	26,833561  	24,598685  	25,520067  	25,685695  	29,583217  	27,879536  	29,134680  	29,055730  	32,976669  	31,626756  	34,320164  	59,736924  	26,272079  	24,991566  	28,571387  	64,711632  	0,173741  	0,088036  	-3304,988697  	18488,103352  	-0,027584  	-0,049993  	0,400398  	0,202884  	-4,093521  	16027,521546  	56612,819858  	8,210995  	-0,047945  
39,550000  	22,877714  	31,893545  	24,126641  	657,183579  	70,181079  	65,361864  	0,006572  	0,011429  	0,003963  	0,004239  	0,004431  	-0,000000  	-0,000000  	26,831362  	24,597690  	25,523127  	25,685813  	29,583225  	27,875177  	29,128056  	29,046409  	32,976567  	31,623307  	34,314918  	59,728226  	26,267060  	24,988248  	28,566481  	64,704797  	0,200652  	0,101672  	-3832,627189  	18491,462468  	-0,027589  	-0,050003  	0,367729  	0,186331  	-3,760068  	15995,673735  	56335,424808  	8,170763  	-0,047954  
40,553000  	22,844488  	31,896377  	24,126150  	1256,670793  	70,182637  	65,361490  	0,006580  	0,011438  	0,003965  	0,004258  	0,004502  	0,000000  	-0,000000  	26,830230  	24,599214  	25,527990  	25,693774  	29,583991  	27,880450  	29,128801  	29,055227  	32,973265  	31,628582  	34,312417  	59,728681  	26,268964  	24,987165  	28,560656  	64,707294  	0,215983  	0,109440  	-4141,965211  	25560,697415  	-0,018534  	-0,049994  	0,424017  	0,214852  	-4,337350  	16015,618057  	56523,221645  	8,198000  	-0,047946  
41,549000  	22,847713  	31,896254  	24,124553  	1256,670793  	70,184786  	65,363481  	0,006584  	0,011472  	0,003967  	0,004199  	0,004461  	0,000001  	-0,000000  	26,835035  	24,600826  	25,533745  	25,696291  	29,584708  	27,885545  	29,135608  	29,066413  	32,974419  	31,633305  	34,317301  	59,737408  	26,274050  	24,985282  	28,573143  	64,713415  	0,167980  	0,085117  	-3220,201522  	25557,117527  	-0,018531  	-0,049986  	0,391133  	0,198190  	-4,001110  	16087,916223  	56607,368694  	8,210205  	-0,047939  
42,550000  	22,882720  	31,893237  	24,125781  	1256,670793  	70,182107  	65,358629  	0,006573  	0,011426  	0,003965  	0,004230  	0,004463  	0,000000  	-0,000000  	26,837832  	24,603832  	25,535636  	25,690456  	29,586041  	27,886242  	29,135458  	29,066276  	32,975253  	31,626695  	34,319017  	59,738805  	26,272536  	24,983194  	28,572165  	64,714810  	0,192675  	0,097630  	-3678,095016  	25561,458173  	-0,018534  	-0,049995  	0,392808  	0,199039  	-4,020049  	15990,184661  	56361,692075  	8,174572  	-0,047948  
43,549000  	22,896999  	31,883261  	24,124768  	357,439972  	70,182450  	65,349951  	0,006579  	0,011444  	0,003964  	0,004190  	0,004489  	0,000000  	-0,000000  	26,846969  	24,608364  	25,537224  	25,697243  	29,598867  	27,896280  	29,140274  	29,074917  	32,981253  	31,636581  	34,327542  	59,744751  	26,272141  	24,987476  	28,575826  	64,722735  	0,160363  	0,081257  	-3053,013226  	12539,518925  	-0,036500  	-0,050000  	0,413561  	0,209554  	-4,240347  	16028,210598  	56489,554352  	8,193117  	-0,047951  
44,552000  	22,916345  	31,873224  	24,123969  	-242,047242  	70,183758  	65,354181  	0,006580  	0,011473  	0,003967  	0,004224  	0,004507  	0,000001  	-0,000000  	26,850513  	24,608224  	25,533859  	25,703688  	29,609551  	27,895478  	29,137047  	29,075460  	32,984504  	31,644677  	34,328402  	59,745092  	26,268068  	24,985096  	28,577868  	64,721283  	0,188347  	0,095437  	-3574,055623  	-27053,094063  	-0,103120  	-0,049992  	0,427499  	0,216617  	-4,380609  	16090,112843  	56513,604436  	8,196605  	-0,047945  
45,552000  	22,938394  	31,869529  	24,124522  	-242,047242  	70,184132  	65,357074  	0,006579  	0,011450  	0,003966  	0,004220  	0,004474  	0,000001  	-0,000000  	26,836103  	24,601758  	25,531492  	25,696454  	29,591549  	27,888600  	29,129643  	29,064039  	32,979224  	31,637079  	34,318221  	59,737997  	26,247738  	24,978027  	28,566648  	64,708563  	0,184659  	0,093568  	-3493,998426  	-27052,101047  	-0,103116  	-0,049990  	0,401564  	0,203475  	-4,112707  	16041,318160  	56485,847278  	8,192580  	-0,047943  
46,553000  	22,933542  	31,872177  	24,123477  	-242,047242  	70,185316  	65,360184  	0,006571  	0,011463  	0,003965  	0,004206  	0,004453  	0,000001  	-0,000000  	26,836063  	24,598063  	25,534528  	25,696059  	29,592864  	27,892756  	29,141073  	29,065465  	32,975205  	31,636852  	34,326074  	59,739673  	26,246306  	24,984455  	28,565661  	64,714377  	0,173178  	0,087750  	-3279,505020  	-27049,376695  	-0,103106  	-0,049985  	0,385279  	0,195224  	-3,944346  	16069,741932  	56313,203547  	8,167540  	-0,047938  
47,550000  	22,912169  	31,877811  	24,122648  	657,183579  	70,181702  	65,365472  	0,006575  	0,011440  	0,003965  	0,004259  	0,004428  	0,000000  	-0,000000  	26,827547  	24,608524  	25,535866  	25,690178  	29,587647  	27,883098  	29,134616  	29,069629  	32,976671  	31,629123  	34,323055  	59,735093  	26,237071  	24,977257  	28,567306  	64,705547  	0,216247  	0,109574  	-4107,497891  	18489,242562  	-0,027586  	-0,049996  	0,365500  	0,185202  	-3,734961  	16020,771095  	56415,208101  	8,182334  	-0,047948  
48,551000  	22,882996  	31,885201  	24,122771  	1256,670793  	70,177528  	65,357882  	0,006581  	0,011439  	0,003966  	0,004215  	0,004454  	0,000001  	-0,000000  	26,837030  	24,598534  	25,525920  	25,683995  	29,578732  	27,879800  	29,122389  	29,056408  	32,980421  	31,616924  	34,311754  	59,724429  	26,230844  	24,969842  	28,561718  	64,695260  	0,181051  	0,091740  	-3453,010241  	25559,552762  	-0,018533  	-0,049991  	0,386102  	0,195641  	-3,948283  	16017,962534  	56530,508694  	8,199057  	-0,047944  
49,550000  	22,845194  	31,894746  	24,120283  	1256,670793  	70,176095  	65,355239  	0,006572  	0,011469  	0,003964  	0,004251  	0,004446  	0,000001  	-0,000000  	26,849606  	24,597568  	25,534364  	25,692328  	29,594337  	27,887201  	29,136592  	29,069456  	32,984905  	31,631921  	34,328046  	59,740505  	26,244303  	24,984479  	28,568610  	64,713944  	0,210266  	0,106543  	-4031,289622  	25558,175158  	-0,018532  	-0,049988  	0,379126  	0,192106  	-3,877920  	16083,225148  	56336,568705  	8,170928  	-0,047941  
50,553000  	22,841632  	31,898071  	24,121573  	657,183579  	70,175161  	65,353621  	0,006581  	0,011439  	0,003964  	0,004234  	0,004479  	0,000001  	-0,000000  	26,849386  	24,608663  	25,532943  	25,701455  	29,592994  	27,894729  	29,141243  	29,072599  	32,986699  	31,633607  	34,331207  	59,741363  	26,233867  	24,992317  	28,570205  	64,719640  	0,196292  	0,099462  	-3766,232961  	18488,352670  	-0,027584  	-0,049993  	0,405255  	0,205346  	-4,145766  	16017,668236  	56536,192874  	8,199882  	-0,047945  
51,550000  	22,843935  	31,897609  	24,121573  	657,183579  	70,174226  	65,355985  	0,006583  	0,011427  	0,003966  	0,004230  	0,004412  	0,000001  	-0,000000  	26,857361  	24,616166  	25,545120  	25,713777  	29,601506  	27,905723  	29,147206  	29,072760  	32,992006  	31,644505  	34,332813  	59,742348  	26,246821  	25,003589  	28,572345  	64,712762  	0,192766  	0,097676  	-3697,453698  	18487,127241  	-0,027582  	-0,049989  	0,352471  	0,178600  	-3,603322  	15991,879702  	56578,361723  	8,205998  	-0,047942  
52,554000  	22,881706  	31,889789  	24,121266  	1256,670793  	70,176531  	65,348707  	0,006575  	0,011493  	0,003966  	0,004247  	0,004459  	-0,000000  	-0,000000  	26,850915  	24,613250  	25,534856  	25,707056  	29,595690  	27,900830  	29,143642  	29,079515  	32,990824  	31,640681  	34,327409  	59,742645  	26,243808  	25,010758  	28,569338  	64,712413  	0,206931  	0,104854  	-3949,169174  	25563,734994  	-0,018536  	-0,050000  	0,389940  	0,197585  	-3,994289  	16134,288610  	56409,813426  	8,181552  	-0,047952  
53,553000  	22,898965  	31,877196  	24,121204  	1256,670793  	70,178307  	65,348240  	0,006575  	0,011435  	0,003964  	0,004256  	0,004523  	-0,000000  	-0,000000  	26,845158  	24,622710  	25,544594  	25,708724  	29,595975  	27,898529  	29,133073  	29,071987  	32,987673  	31,637985  	34,331072  	59,738160  	26,259940  	25,022526  	28,569344  	64,706816  	0,213911  	0,108390  	-4068,838502  	25564,176911  	-0,018536  	-0,050001  	0,440290  	0,223098  	-4,512137  	16009,554536  	56398,685143  	8,179938  	-0,047952  
54,553000  	22,840435  	31,867220  	24,121020  	1256,670793  	70,181110  	65,350480  	0,006588  	0,011483  	0,003964  	0,004239  	0,004444  	0,000001  	-0,000000  	26,852517  	24,620560  	25,549063  	25,707881  	29,592269  	27,901906  	29,148356  	29,083941  	32,993869  	31,644849  	34,334407  	59,738848  	26,257328  	25,038068  	28,560559  	64,715032  	0,200099  	0,101392  	-3826,715185  	25557,297609  	-0,018531  	-0,049986  	0,378155  	0,191614  	-3,875828  	16111,551998  	56681,609029  	8,220972  	-0,047939  
55,550000  	22,800822  	31,862232  	24,121296  	1256,670793  	70,178213  	65,350324  	0,006584  	0,011405  	0,003966  	0,004222  	0,004508  	0,000000  	-0,000000  	26,854707  	24,612805  	25,541940  	25,707112  	29,604694  	27,904987  	29,133962  	29,083073  	32,991082  	31,633650  	34,330929  	59,732228  	26,258662  	25,039099  	28,564382  	64,708532  	0,186197  	0,094347  	-3574,517622  	25563,400778  	-0,018536  	-0,049999  	0,428546  	0,217147  	-4,389804  	15943,399833  	56607,672321  	8,210249  	-0,047951  
56,553000  	22,801743  	31,866666  	24,122402  	1256,670793  	70,176594  	65,351693  	0,006571  	0,011460  	0,003963  	0,004247  	0,004462  	0,000001  	-0,000000  	26,853261  	24,619866  	25,543699  	25,702952  	29,606558  	27,906468  	29,140349  	29,081904  	32,990778  	31,641084  	34,329418  	59,747069  	26,263259  	25,065326  	28,572444  	64,707947  	0,206808  	0,104791  	-3971,747107  	25558,875817  	-0,018532  	-0,049990  	0,391937  	0,198597  	-4,012318  	16063,205837  	56320,723611  	8,168630  	-0,047942  
57,549000  	22,848634  	31,868882  	24,122279  	956,927186  	70,177590  	65,351662  	0,006582  	0,011434  	0,003965  	0,004221  	0,004472  	-0,000000  	-0,000000  	26,858326  	24,615749  	25,535339  	25,710166  	29,592028  	27,893365  	29,137408  	29,074260  	32,986376  	31,646689  	34,334715  	59,736808  	26,265694  	25,080218  	28,568363  	64,711041  	0,185501  	0,093995  	-3544,966780  	22516,386721  	-0,022174  	-0,050000  	0,399833  	0,202598  	-4,094017  	16006,529496  	56556,366417  	8,202807  	-0,047951  
58,553000  	22,878359  	31,857921  	24,121972  	-242,047242  	70,176656  	65,346436  	0,006583  	0,011443  	0,003964  	0,004260  	0,004470  	0,000002  	-0,000000  	26,846991  	24,617902  	25,532018  	25,695044  	29,591439  	27,894149  	29,138486  	29,065841  	32,985533  	31,636529  	34,326012  	59,727221  	26,258066  	25,064427  	28,567704  	64,706383  	0,217647  	0,110283  	-4140,525450  	-27046,819079  	-0,103097  	-0,049979  	0,398785  	0,202067  	-4,086921  	16025,529377  	56590,873980  	8,207812  	-0,047934  
59,549000  	22,896876  	31,845359  	24,122249  	-242,047242  	70,173198  	65,347494  	0,006573  	0,011441  	0,003965  	0,004210  	0,004460  	0,000001  	-0,000000  	26,850740  	24,612032  	25,537719  	25,696659  	29,600526  	27,892889  	29,141225  	29,071936  	32,986561  	31,640905  	34,329351  	59,733813  	26,266795  	25,067168  	28,573416  	64,704260  	0,177007  	0,089691  	-3355,731300  	-27051,687086  	-0,103115  	-0,049990  	0,390724  	0,197983  	-4,000564  	16023,056146  	56359,150081  	8,174204  	-0,047942  
60,551000  	22,898412  	31,839202  	24,122617  	956,927186  	70,169336  	65,349360  	0,006581  	0,011437  	0,003965  	0,004182  	0,004464  	0,000000  	-0,000000  	26,851406  	24,609931  	25,547825  	25,707649  	29,606901  	27,892395  	29,148562  	29,074454  	32,985773  	31,640556  	34,330758  	59,741066  	26,274238  	25,074676  	28,572126  	64,709726  	0,154317  	0,078193  	-2923,046160  	22514,336294  	-0,022172  	-0,049995  	0,393622  	0,199451  	-4,025448  	16014,091388  	56528,503343  	8,198766  	-0,047947  
61,552000  	22,860763  	31,842835  	24,121941  	1256,670793  	70,168931  	65,350076  	0,006579  	0,011440  	0,003964  	0,004252  	0,004428  	0,000001  	-0,000000  	26,854562  	24,622618  	25,547704  	25,711363  	29,604888  	27,905577  	29,147051  	29,080086  	32,996228  	31,641563  	34,334482  	59,749419  	26,276600  	25,071375  	28,569370  	64,712713  	0,210442  	0,106632  	-4004,567106  	25556,620006  	-0,018531  	-0,049985  	0,364999  	0,184948  	-3,731866  	16020,268101  	56500,195420  	8,194661  	-0,047938  
62,553000  	22,808315  	31,852749  	24,122003  	1256,670793  	70,170800  	65,347587  	0,006572  	0,011399  	0,003966  	0,004197  	0,004480  	0,000000  	-0,000000  	26,848570  	24,618164  	25,543087  	25,702026  	29,593454  	27,902241  	29,136513  	29,070706  	32,990106  	31,641374  	34,331090  	59,741492  	26,273035  	25,069651  	28,569270  	64,707524  	0,165968  	0,084097  	-3180,200749  	25562,065578  	-0,018535  	-0,049997  	0,406598  	0,206026  	-4,160942  	15932,060178  	56338,100962  	8,171151  	-0,047948  
63,550000  	22,783994  	31,860693  	24,122556  	1256,670793  	70,171983  	65,346468  	0,006572  	0,011464  	0,003964  	0,004243  	0,004422  	0,000000  	-0,000000  	26,845748  	24,612595  	25,540168  	25,700519  	29,587432  	27,897876  	29,135269  	29,070333  	32,992344  	31,638719  	34,330423  	59,735233  	26,273523  	25,073904  	28,562943  	64,707434  	0,203681  	0,103206  	-3916,763469  	25561,162180  	-0,018534  	-0,049995  	0,360132  	0,182482  	-3,687194  	16070,805223  	56349,109206  	8,172747  	-0,047947  
64,550000  	22,784977  	31,865927  	24,125443  	57,696365  	70,171049  	65,343171  	0,006583  	0,011442  	0,003964  	0,004225  	0,004507  	0,000000  	-0,000000  	26,848285  	24,611206  	25,547144  	25,702552  	29,589182  	27,897080  	29,142525  	29,071404  	32,991030  	31,635992  	34,329502  	59,741225  	26,280355  	25,080965  	28,558873  	64,708702  	0,188908  	0,095721  	-3634,380637  	1820,552071  	-0,053913  	-0,049995  	0,427779  	0,216759  	-4,381930  	16023,443119  	56584,942662  	8,206952  	-0,047947  
65,550000  	22,802388  	31,859523  	24,127256  	1256,670793  	70,171547  	65,341927  	0,006576  	0,011440  	0,003964  	0,004263  	0,004444  	0,000001  	-0,000000  	26,848219  	24,606543  	25,546212  	25,698724  	29,592644  	27,895882  	29,140428  	29,065943  	32,986497  	31,634340  	34,323099  	59,736420  	26,278704  	25,084063  	28,560278  	64,700212  	0,219828  	0,111388  	-4218,154588  	25559,420409  	-0,018533  	-0,049991  	0,378182  	0,191627  	-3,875283  	16019,443926  	56429,535059  	8,184412  	-0,047944  
66,551000  	22,826156  	31,845791  	24,130143  	1256,670793  	70,170239  	65,340496  	0,006573  	0,011461  	0,003965  	0,004197  	0,004442  	0,000000  	-0,000000  	26,845339  	24,609195  	25,542112  	25,697612  	29,592859  	27,893557  	29,136672  	29,068474  	32,985502  	31,636315  	34,322760  	59,733178  	26,277588  	25,094681  	28,564903  	64,701386  	0,166623  	0,084429  	-3184,001524  	25563,214895  	-0,018536  	-0,050000  	0,376178  	0,190612  	-3,854852  	16065,174659  	56368,844962  	8,175610  	-0,047951  
67,551000  	22,822747  	31,833413  	24,132539  	1256,670793  	70,171174  	65,339438  	0,006582  	0,011412  	0,003965  	0,004228  	0,004463  	-0,000001  	-0,000000  	26,846207  	24,610813  	25,547273  	25,700892  	29,593821  	27,895446  	29,136895  	29,073288  	32,986589  	31,640154  	34,330257  	59,735807  	26,280922  	25,113286  	28,566133  	64,713959  	0,191196  	0,096880  	-3649,930917  	25571,080027  	-0,018541  	-0,050017  	0,393115  	0,199194  	-4,030074  	15958,731605  	56568,921041  	8,204628  	-0,047966  
68,552000  	22,807393  	31,824238  	24,134075  	57,696365  	70,172482  	65,337323  	0,006586  	0,011464  	0,003964  	0,004260  	0,004460  	0,000001  	-0,000000  	26,846827  	24,607447  	25,546386  	25,699267  	29,593764  	27,898402  	29,135381  	29,067569  	32,986752  	31,637841  	34,325914  	59,730088  	26,278334  	25,128998  	28,561951  	64,712876  	0,216937  	0,109924  	-4144,175326  	1819,929238  	-0,053908  	-0,049991  	0,390753  	0,197997  	-4,008692  	16071,761690  	56646,508335  	8,215881  	-0,047944  
69,550000  	22,815101  	31,824546  	24,136625  	57,696365  	70,173447  	65,342860  	0,006573  	0,011426  	0,003965  	0,004153  	0,004482  	0,000001  	-0,000000  	26,846068  	24,610368  	25,543315  	25,699821  	29,590044  	27,894993  	29,138070  	29,065391  	32,982302  	31,634678  	34,319661  	59,732165  	26,279580  	25,146463  	28,559995  	64,702929  	0,130974  	0,066366  	-2499,956160  	1819,590285  	-0,053902  	-0,049985  	0,407840  	0,206655  	-4,180033  	15990,255405  	56364,558879  	8,174988  	-0,047939  
70,554000  	22,840036  	31,827009  	24,138100  	657,183579  	70,176749  	65,345846  	0,006580  	0,011451  	0,003965  	0,004275  	0,004448  	-0,000000  	-0,000000  	26,852585  	24,608260  	25,549855  	25,706876  	29,594206  	27,892156  	29,142735  	29,071100  	32,985792  	31,641694  	34,329562  	59,740377  	26,283880  	25,165011  	28,559798  	64,705390  	0,229118  	0,116096  	-4362,361992  	18490,030923  	-0,027587  	-0,050000  	0,381344  	0,193230  	-3,908727  	16044,593636  	56522,790919  	8,197938  	-0,047952  
71,553000  	22,869239  	31,825993  	24,139390  	657,183579  	70,178307  	65,343451  	0,006583  	0,011418  	0,003964  	0,004217  	0,004447  	-0,000000  	-0,000000  	26,851040  	24,610598  	25,547172  	25,703299  	29,595585  	27,886573  	29,147526  	29,065531  	32,987890  	31,644858  	34,322129  	59,742615  	26,283404  	25,182531  	28,560104  	64,714849  	0,182240  	0,092342  	-3458,130094  	18490,429593  	-0,027588  	-0,050002  	0,379920  	0,192508  	-3,897313  	15971,584487  	56589,214623  	8,207572  	-0,047953  
72,551000  	22,887725  	31,823715  	24,140250  	57,696365  	70,177123  	65,342642  	0,006574  	0,011447  	0,003965  	0,004212  	0,004440  	-0,000000  	-0,000000  	26,847857  	24,617487  	25,537993  	25,704079  	29,587875  	27,893331  	29,150085  	29,067633  	32,986852  	31,637932  	34,316358  	59,743845  	26,290250  	25,195306  	28,557501  	64,708923  	0,178235  	0,090313  	-3374,295594  	1819,963598  	-0,053919  	-0,050003  	0,374650  	0,189838  	-3,842960  	16034,367502  	56385,212577  	8,177984  	-0,047954  
73,551000  	22,907594  	31,825531  	24,142677  	57,696365  	70,178338  	65,344539  	0,006575  	0,011436  	0,003965  	0,004244  	0,004472  	-0,000000  	-0,000000  	26,850451  	24,610386  	25,543892  	25,702583  	29,583977  	27,895122  	29,139457  	29,072161  	32,983955  	31,634949  	34,321577  	59,741993  	26,292118  	25,210875  	28,564119  	64,711001  	0,204504  	0,103624  	-3863,784155  	1819,740128  	-0,053916  	-0,050000  	0,399823  	0,202593  	-4,100586  	16011,778747  	56412,870879  	8,181995  	-0,047952  
74,552000  	22,911401  	31,832428  	24,142738  	1256,670793  	70,177030  	65,352004  	0,006578  	0,011433  	0,003967  	0,004212  	0,004441  	0,000001  	-0,000000  	26,835542  	24,603125  	25,533377  	25,695389  	29,578866  	27,888251  	29,129286  	29,066864  	32,977946  	31,633737  	34,313970  	59,736176  	26,284305  	25,212020  	28,552681  	64,707990  	0,178376  	0,090384  	-3371,291425  	25555,988660  	-0,018531  	-0,049985  	0,375491  	0,190264  	-3,844054  	16005,329668  	56470,002185  	8,190281  	-0,047938  
75,552000  	22,904123  	31,843143  	24,143291  	1256,670793  	70,174070  	65,352253  	0,006584  	0,011443  	0,003965  	0,004251  	0,004410  	0,000000  	-0,000000  	26,846595  	24,620043  	25,540375  	25,698845  	29,596614  	27,890128  	29,140535  	29,065236  	32,993576  	31,638081  	34,320621  	59,745050  	26,301015  	25,226200  	28,570100  	64,710019  	0,209841  	0,106328  	-3973,985144  	25561,116760  	-0,018534  	-0,049996  	0,350977  	0,177842  	-3,590704  	16026,709398  	56599,961607  	8,209130  	-0,047948  
76,555000  	22,874091  	31,853857  	24,143230  	57,696365  	70,173510  	65,349827  	0,006570  	0,011437  	0,003967  	0,004244  	0,004494  	0,000001  	-0,000000  	26,852413  	24,608558  	25,531681  	25,692309  	29,594107  	27,882562  	29,137738  	29,069162  	32,976975  	31,634608  	34,308955  	59,742072  	26,303838  	25,219267  	28,563116  	64,707620  	0,204463  	0,103603  	-3889,797329  	1819,407056  	-0,053907  	-0,049991  	0,417892  	0,211749  	-4,276939  	16013,482277  	56289,337052  	8,164078  	-0,047944  
77,550000  	22,860149  	31,865496  	24,143291  	956,927186  	70,172482  	65,345503  	0,006583  	0,011455  	0,003966  	0,004244  	0,004470  	0,000001  	-0,000000  	26,845017  	24,612241  	25,537172  	25,694738  	29,591153  	27,891193  	29,142811  	29,065775  	32,985404  	31,627744  	34,315980  	59,743806  	26,303517  	25,207646  	28,566583  	64,705192  	0,204275  	0,103508  	-3897,297850  	22512,502453  	-0,022170  	-0,049992  	0,398412  	0,201878  	-4,080350  	16052,420820  	56584,469569  	8,206883  	-0,047945  
78,553000  	22,866107  	31,873747  	24,144028  	-242,047242  	70,173229  	65,343513  	0,006585  	0,011431  	0,003965  	0,004216  	0,004473  	-0,000000  	-0,000000  	26,831573  	24,600099  	25,526153  	25,686598  	29,575767  	27,876216  	29,123883  	29,050161  	32,965012  	31,619650  	34,306251  	59,724342  	26,289070  	25,207131  	28,556801  	64,699745  	0,181777  	0,092108  	-3468,950609  	-27057,740701  	-0,103130  	-0,050001  	0,401190  	0,203286  	-4,111137  	16000,006136  	56626,115897  	8,212924  	-0,047952  
79,555000  	22,886466  	31,873655  	24,145042  	657,183579  	70,178463  	65,342300  	0,006567  	0,011441  	0,003967  	0,004306  	0,004438  	0,000001  	-0,000000  	26,837810  	24,607502  	25,531959  	25,692173  	29,586833  	27,898319  	29,123902  	29,059624  	32,979019  	31,635050  	34,310910  	59,741262  	26,303209  	25,209986  	28,563325  	64,709913  	0,254758  	0,129088  	-4850,628281  	18486,642869  	-0,027583  	-0,049991  	0,372960  	0,188981  	-3,826950  	16022,549614  	56245,833656  	8,157768  	-0,047944  
80,550000  	22,911893  	31,868913  	24,145349  	1256,670793  	70,181640  	65,345783  	0,006582  	0,011431  	0,003966  	0,004229  	0,004482  	-0,000001  	-0,000000  	26,843952  	24,603910  	25,536876  	25,695097  	29,593495  	27,895843  	29,132898  	29,063200  	32,974671  	31,627395  	34,318954  	59,743556  	26,301141  	25,197067  	28,568985  	64,717581  	0,192384  	0,097482  	-3650,719967  	25569,159334  	-0,018540  	-0,050014  	0,408274  	0,206875  	-4,189044  	16000,647082  	56558,682456  	8,203143  	-0,047963  
81,551000  	22,922487  	31,864356  	24,145871  	1256,670793  	70,177746  	65,344539  	0,006586  	0,011438  	0,003966  	0,004238  	0,004456  	-0,000000  	-0,000000  	26,838716  	24,599531  	25,521679  	25,692332  	29,583501  	27,881576  	29,129484  	29,065968  	32,977941  	31,618301  	34,308636  	59,739801  	26,297738  	25,179206  	28,561470  	64,701275  	0,199863  	0,101272  	-3786,221816  	25564,292146  	-0,018537  	-0,050003  	0,387044  	0,196118  	-3,969042  	16015,254430  	56636,022611  	8,214361  	-0,047954  
82,555000  	22,917328  	31,863433  	24,147100  	657,183579  	70,171454  	65,349205  	0,006572  	0,011412  	0,003963  	0,004226  	0,004438  	-0,000000  	-0,000000  	26,844646  	24,600508  	25,542255  	25,697968  	29,585037  	27,889175  	29,135751  	29,071053  	32,977842  	31,628435  	34,314055  	59,735227  	26,308709  	25,186738  	28,562928  	64,709006  	0,189621  	0,096082  	-3593,906232  	18491,575845  	-0,027590  	-0,050006  	0,373408  	0,189208  	-3,820526  	15959,918700  	56348,657296  	8,172682  	-0,047957  
83,551000  	22,908023  	31,869160  	24,148298  	-242,047242  	70,167093  	65,350107  	0,006577  	0,011412  	0,003966  	0,004275  	0,004464  	0,000001  	-0,000000  	26,831480  	24,592436  	25,523925  	25,687911  	29,576864  	27,876160  	29,125149  	29,061469  	32,967387  	31,621625  	34,309381  	59,729211  	26,303503  	25,168437  	28,560933  	64,707464  	0,229240  	0,116158  	-4352,115604  	-27051,356549  	-0,103104  	-0,049988  	0,394097  	0,199692  	-4,027810  	15959,064813  	56447,251342  	8,186982  	-0,047941  
84,556000  	22,899487  	31,876487  	24,150203  	956,927186  	70,168650  	65,345441  	0,006581  	0,011448  	0,003964  	0,004234  	0,004463  	0,000001  	-0,000000  	26,837198  	24,606842  	25,534161  	25,691101  	29,587832  	27,891037  	29,129862  	29,068620  	32,977222  	31,628758  	34,311438  	59,739490  	26,308671  	25,163057  	28,568039  	64,703169  	0,196326  	0,099480  	-3733,835227  	22510,549972  	-0,022168  	-0,049988  	0,392715  	0,198992  	-4,018867  	16037,033159  	56539,313877  	8,200334  	-0,047941  
85,557000  	22,901912  	31,883169  	24,150633  	956,927186  	70,175721  	65,342922  	0,006581  	0,011426  	0,003965  	0,004222  	0,004441  	0,000000  	-0,000000  	26,838965  	24,609453  	25,534553  	25,687307  	29,585889  	27,887585  	29,132306  	29,062659  	32,977016  	31,628121  	34,318249  	59,728282  	26,302707  	25,156635  	28,574418  	64,703033  	0,186715  	0,094610  	-3552,742572  	22515,213417  	-0,022173  	-0,050000  	0,375779  	0,190410  	-3,853196  	15988,954412  	56533,622636  	8,199509  	-0,047951  
86,556000  	22,922303  	31,885878  	24,151247  	357,439972  	70,176157  	65,346903  	0,006573  	0,011446  	0,003965  	0,004262  	0,004415  	0,000001  	-0,000000  	26,835289  	24,602779  	25,526029  	25,687137  	29,584728  	27,885845  	29,132112  	29,063483  	32,970694  	31,629327  	34,314508  	59,735761  	26,298937  	25,153027  	28,566519  	64,695816  	0,218802  	0,110869  	-4155,078398  	12536,213085  	-0,036493  	-0,049991  	0,355336  	0,180052  	-3,640911  	16031,971382  	56373,060435  	8,176221  	-0,047944  
87,550000  	22,931884  	31,886710  	24,151432  	1256,670793  	70,172139  	65,349080  	0,006582  	0,011447  	0,003965  	0,004244  	0,004506  	-0,000000  	-0,000000  	26,849673  	24,607529  	25,536163  	25,700442  	29,586823  	27,889063  	29,141125  	29,067362  	32,983770  	31,636268  	34,323716  	59,751133  	26,300180  	25,158220  	28,572955  	64,705765  	0,204153  	0,103446  	-3873,101595  	25563,003592  	-0,018536  	-0,050001  	0,427150  	0,216440  	-4,371129  	16034,431172  	56556,069851  	8,202764  	-0,047952  
88,556000  	22,917390  	31,885047  	24,152660  	57,696365  	70,168588  	65,349018  	0,006584  	0,011447  	0,003965  	0,004245  	0,004467  	0,000001  	-0,000000  	26,845943  	24,610068  	25,535242  	25,698489  	29,587743  	27,887397  	29,137403  	29,070488  	32,978900  	31,625670  	34,318556  	59,741540  	26,303974  	25,153014  	28,568722  	64,702500  	0,205038  	0,103894  	-3895,468683  	1818,836762  	-0,053906  	-0,049990  	0,395895  	0,200603  	-4,048351  	16035,539033  	56608,745608  	8,210404  	-0,047943  
89,553000  	22,912660  	31,885232  	24,153275  	57,696365  	70,172606  	65,350449  	0,006574  	0,011436  	0,003966  	0,004198  	0,004424  	0,000001  	-0,000000  	26,842354  	24,608410  	25,528822  	25,694061  	29,585316  	27,886987  	29,137075  	29,065688  	32,975629  	31,621433  	34,317746  	59,735493  	26,303877  	25,144975  	28,560681  	64,702406  	0,167217  	0,084730  	-3178,661869  	1818,902597  	-0,053908  	-0,049993  	0,362288  	0,183574  	-3,706683  	16010,611461  	56378,638699  	8,177030  	-0,047946  
90,550000  	22,894542  	31,889357  	24,154258  	1256,670793  	70,174849  	65,352875  	0,006579  	0,011458  	0,003967  	0,004260  	0,004480  	0,000002  	-0,000000  	26,847503  	24,604654  	25,527971  	25,697322  	29,585496  	27,891339  	29,139750  	29,066016  	32,979747  	31,621870  	34,320013  	59,738347  	26,296523  	25,143775  	28,561783  	64,702709  	0,217597  	0,110258  	-4146,592142  	25551,356443  	-0,018527  	-0,049975  	0,406198  	0,205824  	-4,155786  	16057,933948  	56492,760089  	8,193582  	-0,047930  
91,550000  	22,898227  	31,894345  	24,153797  	1256,670793  	70,174008  	65,349671  	0,006585  	0,011455  	0,003966  	0,004213  	0,004471  	0,000000  	-0,000000  	26,846363  	24,611255  	25,533124  	25,699607  	29,591080  	27,885995  	29,138272  	29,069700  	32,980075  	31,626287  	34,320100  	59,734454  	26,288344  	25,137413  	28,563774  	64,698536  	0,179513  	0,090961  	-3421,353897  	25559,898068  	-0,018534  	-0,049994  	0,399475  	0,202417  	-4,089005  	16052,942915  	56624,597762  	8,212704  	-0,047946  
92,550000  	22,921750  	31,896501  	24,155824  	57,696365  	70,170893  	65,352159  	0,006577  	0,011452  	0,003966  	0,004239  	0,004447  	-0,000000  	-0,000000  	26,845544  	24,611652  	25,534789  	25,699944  	29,595164  	27,883962  	29,139771  	29,070036  	32,981508  	31,635094  	34,323563  	59,729235  	26,289622  	25,132383  	28,566704  	64,699027  	0,200093  	0,101388  	-3804,514347  	1818,992677  	-0,053915  	-0,050000  	0,380145  	0,192622  	-3,886627  	16046,587927  	56446,601722  	8,186887  	-0,047952  
93,550000  	22,911801  	31,895392  	24,155763  	57,696365  	70,169180  	65,353248  	0,006578  	0,011417  	0,003967  	0,004241  	0,004458  	0,000001  	-0,000000  	26,848601  	24,608597  	25,532056  	25,701582  	29,591486  	27,892639  	29,141931  	29,069151  	32,979821  	31,635183  	34,325017  	59,732018  	26,293510  	25,127309  	28,566272  	64,702155  	0,201737  	0,102222  	-3839,559539  	1818,753482  	-0,053908  	-0,049993  	0,389291  	0,197257  	-3,977819  	15970,445499  	56475,756976  	8,191116  	-0,047945  
94,552000  	22,907993  	31,889173  	24,156316  	1256,670793  	70,172108  	65,354306  	0,006583  	0,011428  	0,003966  	0,004251  	0,004475  	0,000000  	-0,000000  	26,845231  	24,607877  	25,530528  	25,696643  	29,586234  	27,891609  	29,138659  	29,065091  	32,976911  	31,630143  	34,319642  	59,734212  	26,289108  	25,116814  	28,561070  	64,698034  	0,209635  	0,106224  	-3988,809630  	25559,836961  	-0,018534  	-0,049994  	0,402756  	0,204079  	-4,117007  	15993,669541  	56582,506585  	8,206599  	-0,047946  
95,550000  	22,905874  	31,887695  	24,156777  	1256,670793  	70,168993  	65,349578  	0,006582  	0,011472  	0,003964  	0,004285  	0,004416  	0,000001  	-0,000000  	26,841669  	24,601706  	25,529075  	25,689714  	29,590933  	27,885870  	29,132541  	29,060500  	32,977447  	31,629194  	34,319230  	59,728689  	26,286592  	25,116453  	28,557566  	64,692306  	0,237247  	0,120215  	-4514,520448  	25557,502692  	-0,018532  	-0,049989  	0,356101  	0,180439  	-3,641311  	16089,048844  	56550,357427  	8,201936  	-0,047942  
96,553000  	22,886896  	31,891574  	24,157022  	1256,670793  	70,168744  	65,345970  	0,006575  	0,011459  	0,003966  	0,004178  	0,004510  	-0,000000  	-0,000000  	26,846178  	24,610137  	25,529284  	25,697003  	29,595109  	27,886914  	29,130864  	29,062619  	32,975090  	31,629988  	34,324079  	59,724542  	26,289119  	25,117359  	28,552216  	64,693903  	0,150690  	0,076356  	-2874,746994  	25565,263240  	-0,018538  	-0,050006  	0,429905  	0,217836  	-4,399060  	16061,604179  	56401,036487  	8,180279  	-0,047957  
97,550000  	22,897920  	31,892837  	24,158190  	-242,047242  	70,171703  	65,342642  	0,006581  	0,011454  	0,003966  	0,004278  	0,004426  	0,000001  	-0,000000  	26,847688  	24,610663  	25,529899  	25,702320  	29,587197  	27,888920  	29,140606  	29,069877  	32,981707  	31,633515  	34,319458  	59,728427  	26,286056  	25,113195  	28,558355  	64,691946  	0,232155  	0,117634  	-4424,059332  	-27053,766134  	-0,103109  	-0,049992  	0,363398  	0,184137  	-3,723366  	16049,545759  	56544,348437  	8,201064  	-0,047945  
98,550000  	22,915301  	31,891420  	24,157821  	-242,047242  	70,171392  	65,345814  	0,006586  	0,011424  	0,003966  	0,004205  	0,004529  	-0,000000  	-0,000000  	26,845677  	24,615680  	25,536170  	25,699573  	29,591184  	27,897566  	29,146374  	29,074308  	32,978814  	31,635569  	34,327512  	59,738867  	26,289251  	25,116061  	28,567502  	64,696129  	0,172408  	0,087360  	-3278,625148  	-27058,295872  	-0,103126  	-0,050002  	0,445228  	0,225600  	-4,558499  	15984,491842  	56651,571138  	8,216616  	-0,047953  
99,550000  	22,915486  	31,889388  	24,158005  	-242,047242  	70,167965  	65,345690  	0,006568  	0,011443  	0,003965  	0,004228  	0,004446  	0,000001  	-0,000000  	26,847649  	24,610623  	25,531534  	25,698340  	29,585537  	27,891678  	29,142588  	29,071608  	32,978277  	31,636369  	34,317734  	59,736558  	26,290088  	25,108016  	28,561542  	64,689710  	0,191543  	0,097056  	-3641,608265  	-27052,928118  	-0,103106  	-0,049991  	0,379196  	0,192141  	-3,879769  	16026,706568  	56259,941720  	8,159815  	-0,047943  
100,550000  	22,887418  	31,886001  	24,158988  	956,927186  	70,166345  	65,346685  	0,006579  	0,011462  	0,003966  	0,004244  	0,004470  	0,000001  	-0,000000  	26,842218  	24,613266  	25,543115  	25,696605  	29,591121  	27,893246  	29,140074  	29,067599  	32,980655  	31,635047  	34,323667  	59,732794  	26,288989  	25,112045  	28,568354  	64,699505  	0,203952  	0,103344  	-3888,204842  	22511,593675  	-0,022170  	-0,049991  	0,398152  	0,201746  	-4,071508  	16066,262004  	56494,264102  	8,193800  	-0,047944  
101,550000  	22,867642  	31,887079  	24,159019  	1256,670793  	70,165255  	65,348894  	0,006584  	0,011427  	0,003965  	0,004238  	0,004487  	0,000002  	-0,000000  	26,851031  	24,618139  	25,541482  	25,703493  	29,604266  	27,898379  	29,142085  	29,074079  	32,992743  	31,634305  	34,328338  	59,725850  	26,291788  	25,115345  	28,566374  	64,702012  	0,199440  	0,101058  	-3810,992798  	25551,076647  	-0,018527  	-0,049975  	0,412051  	0,208789  	-4,210757  	15992,155606  	56607,156862  	8,210174  	-0,047930  
102,552000  	22,894174  	31,890220  	24,158220  	657,183579  	70,168495  	65,347836  	0,006573  	0,011447  	0,003965  	0,004227  	0,004429  	0,000001  	-0,000000  	26,855696  	24,629864  	25,550191  	25,706742  	29,604583  	27,904456  	29,148376  	29,069763  	32,982765  	31,636545  	34,329039  	59,741013  	26,308270  	25,109945  	28,569488  	64,705621  	0,190946  	0,096754  	-3639,226356  	18485,710989  	-0,027582  	-0,049990  	0,365954  	0,185431  	-3,743025  	16034,634917  	56369,346300  	8,175682  	-0,047943  
103,550000  	22,919232  	31,890497  	24,158220  	-242,047242  	70,170551  	65,344321  	0,006578  	0,011436  	0,003966  	0,004188  	0,004467  	0,000000  	-0,000000  	26,854415  	24,618696  	25,538911  	25,713765  	29,602128  	27,903554  	29,152033  	29,071884  	32,996178  	31,639532  	34,331077  	59,736189  	26,293202  	25,110709  	28,559123  	64,693438  	0,158693  	0,080411  	-3016,171818  	-27057,133189  	-0,103122  	-0,049999  	0,395837  	0,200573  	-4,053351  	16010,825817  	56470,044552  	8,190288  	-0,047951  
104,552000  	22,922303  	31,884339  	24,158773  	956,927186  	70,173666  	65,341460  	0,006583  	0,011453  	0,003967  	0,004290  	0,004461  	-0,000000  	-0,000000  	26,848447  	24,614931  	25,537153  	25,698287  	29,608313  	27,906645  	29,147842  	29,071234  	32,998827  	31,634483  	34,344215  	59,734004  	26,297373  	25,098058  	28,558651  	64,702443  	0,241230  	0,122233  	-4580,186228  	22515,962572  	-0,022174  	-0,050002  	0,391616  	0,198435  	-4,015093  	16047,491335  	56570,862842  	8,204910  	-0,047953  
105,550000  	22,923255  	31,877011  	24,157053  	1256,670793  	70,175223  	65,344353  	0,006581  	0,011440  	0,003965  	0,004195  	0,004459  	-0,000000  	-0,000000  	26,857415  	24,614687  	25,545707  	25,697851  	29,590883  	27,895361  	29,145532  	29,071718  	32,983285  	31,639780  	34,340970  	59,727900  	26,305162  	25,092247  	28,563434  	64,705537  	0,164753  	0,083482  	-3125,250648  	25562,589125  	-0,018536  	-0,050000  	0,389963  	0,197597  	-3,997047  	16019,160947  	56528,065555  	8,198703  	-0,047952  
106,553000  	22,886159  	31,880336  	24,158343  	1256,670793  	70,176157  	65,351631  	0,006569  	0,011445  	0,003964  	0,004260  	0,004476  	-0,000000  	-0,000000  	26,858120  	24,624698  	25,554098  	25,715756  	29,605416  	27,908433  	29,153295  	29,089787  	32,997551  	31,649883  	34,336984  	59,738425  	26,310876  	25,105718  	28,572888  	64,708084  	0,217037  	0,109974  	-4135,638756  	25563,099494  	-0,018536  	-0,050001  	0,403189  	0,204299  	-4,127182  	16031,203096  	56285,644100  	8,163542  	-0,047953  
107,551000  	22,835030  	31,887264  	24,157237  	1256,670793  	70,171983  	65,353279  	0,006584  	0,011446  	0,003965  	0,004226  	0,004496  	-0,000000  	-0,000000  	26,865546  	24,630404  	25,549702  	25,713666  	29,614816  	27,910653  	29,148527  	29,081370  	32,995960  	31,647694  	34,331623  	59,736654  	26,310330  	25,109737  	28,564040  	64,707427  	0,189439  	0,095990  	-3633,076129  	25564,226702  	-0,018537  	-0,050004  	0,418943  	0,212281  	-4,283272  	16032,564222  	56602,327074  	8,209473  	-0,047955  
108,550000  	22,801804  	31,892867  	24,156684  	57,696365  	70,162888  	65,354150  	0,006586  	0,011446  	0,003965  	0,004283  	0,004458  	0,000000  	-0,000000  	26,845438  	24,612507  	25,541443  	25,708413  	29,599275  	27,897963  	29,147598  	29,074168  	32,980323  	31,632404  	34,323705  	59,728143  	26,303550  	25,101695  	28,553302  	64,699649  	0,236166  	0,119667  	-4548,628939  	1818,740794  	-0,053909  	-0,049994  	0,389215  	0,197218  	-3,971101  	16032,073962  	56652,277248  	8,216718  	-0,047946  
109,549000  	22,822778  	31,892590  	24,156715  	956,927186  	70,158932  	65,345472  	0,006571  	0,011414  	0,003965  	0,004198  	0,004450  	-0,000000  	-0,000000  	26,847403  	24,623916  	25,545256  	25,708547  	29,605389  	27,903513  	29,151350  	29,080863  	32,989796  	31,645024  	34,328744  	59,729373  	26,309318  	25,109186  	28,554175  	64,704534  	0,166978  	0,084609  	-3208,525534  	22517,187482  	-0,022175  	-0,050005  	0,382490  	0,193810  	-3,906314  	15963,986515  	56322,587740  	8,168901  	-0,047956  
110,552000  	22,850783  	31,884031  	24,156039  	357,439972  	70,157250  	65,334773  	0,006581  	0,011453  	0,003967  	0,004219  	0,004472  	-0,000002  	-0,000000  	26,848141  	24,616240  	25,542398  	25,703440  	29,599345  	27,900865  	29,140691  	29,076508  	32,992452  	31,629200  	34,330342  	59,723975  	26,297954  	25,103529  	28,543092  	64,693014  	0,184004  	0,093236  	-3521,433904  	12542,482971  	-0,036512  	-0,050020  	0,399849  	0,202606  	-4,091242  	16048,171899  	56527,451240  	8,198614  	-0,047969  
111,549000  	22,881645  	31,868698  	24,155118  	357,439972  	70,159461  	65,328926  	0,006580  	0,011414  	0,003966  	0,004224  	0,004496  	0,000000  	-0,000000  	26,848529  	24,620578  	25,546257  	25,710258  	29,605716  	27,905881  	29,148926  	29,071990  	32,987073  	31,640821  	34,327579  	59,724468  	26,297502  	25,113879  	28,557942  	64,695891  	0,188369  	0,095448  	-3586,529318  	12537,742770  	-0,036498  	-0,049999  	0,419473  	0,212550  	-4,299206  	15963,286851  	56518,638996  	8,197336  	-0,047950  
112,552000  	22,897552  	31,855458  	24,155425  	956,927186  	70,162389  	65,329610  	0,006572  	0,011463  	0,003965  	0,004219  	0,004460  	-0,000000  	-0,000000  	26,853212  	24,624496  	25,548806  	25,710871  	29,606381  	27,909676  	29,149353  	29,079660  	32,993615  	31,645172  	34,335694  	59,728933  	26,302472  	25,119684  	28,558874  	64,704382  	0,184016  	0,093242  	-3492,269572  	22516,601818  	-0,022174  	-0,050004  	0,390916  	0,198080  	-4,008391  	16068,685007  	56333,666595  	8,170508  	-0,047954  
113,550000  	22,880263  	31,848500  	24,154258  	1256,670793  	70,162701  	65,334524  	0,006576  	0,011413  	0,003964  	0,004300  	0,004431  	0,000001  	-0,000000  	26,852526  	24,622239  	25,544348  	25,711051  	29,608435  	27,911245  	29,147272  	29,079269  	32,994187  	31,645644  	34,330207  	59,738388  	26,295164  	25,115763  	28,560051  	64,698278  	0,249455  	0,126401  	-4739,645702  	25555,126527  	-0,018530  	-0,049984  	0,367307  	0,186117  	-3,762722  	15960,649492  	56433,291561  	8,184957  	-0,047937  
114,550000  	22,867611  	31,851702  	24,152906  	657,183579  	70,164258  	65,339252  	0,006586  	0,011410  	0,003966  	0,004250  	0,004508  	0,000000  	-0,000000  	26,858492  	24,620760  	25,549813  	25,710835  	29,606309  	27,906973  	29,148225  	29,081701  	32,992728  	31,645356  	34,334741  	59,733501  	26,293614  	25,129931  	28,564389  	64,702076  	0,209142  	0,105974  	-3980,722620  	18487,423828  	-0,027584  	-0,049994  	0,428823  	0,217288  	-4,390009  	15956,208852  	56641,883318  	8,215211  	-0,047946  
115,549000  	22,843935  	31,858630  	24,152169  	657,183579  	70,167404  	65,340154  	0,006579  	0,011443  	0,003964  	0,004259  	0,004446  	0,000001  	-0,000000  	26,859914  	24,622545  	25,552797  	25,707568  	29,604514  	27,904944  	29,149038  	29,085586  	32,993439  	31,647746  	34,340866  	59,730491  	26,297270  	25,148784  	28,562409  	64,705255  	0,216128  	0,109513  	-4127,710972  	18484,992339  	-0,027580  	-0,049987  	0,379233  	0,192160  	-3,884144  	16027,141647  	56486,270944  	8,192641  	-0,047940  
116,550000  	22,816974  	31,865342  	24,152660  	57,696365  	70,167965  	65,336048  	0,006575  	0,011426  	0,003966  	0,004201  	0,004461  	-0,000000  	-0,000000  	26,864168  	24,626789  	25,554089  	25,713266  	29,601796  	27,906672  	29,148595  	29,083141  	32,992725  	31,651524  	34,344153  	59,737436  	26,306387  	25,166122  	28,558377  	64,706613  	0,169299  	0,085785  	-3245,432988  	1819,332993  	-0,053920  	-0,050005  	0,391706  	0,198480  	-4,015774  	15990,740713  	56402,780577  	8,180532  	-0,047956  
117,550000  	22,798457  	31,866635  	24,152906  	-242,047242  	70,170519  	65,338692  	0,006582  	0,011438  	0,003964  	0,004264  	0,004421  	0,000001  	-0,000000  	26,865643  	24,634571  	25,555124  	25,716164  	29,606529  	27,909885  	29,155407  	29,080920  	32,994367  	31,655570  	34,342313  	59,739948  	26,307869  	25,186930  	28,560582  	64,711487  	0,220192  	0,111573  	-4230,296499  	-27050,475803  	-0,103098  	-0,049986  	0,359676  	0,182250  	-3,687332  	16015,383185  	56557,778636  	8,203012  	-0,047939  
118,551000  	22,819523  	31,860600  	24,152599  	-242,047242  	70,170706  	65,339438  	0,006580  	0,011471  	0,003966  	0,004213  	0,004486  	0,000000  	-0,000000  	26,862799  	24,632829  	25,549253  	25,717928  	29,611043  	27,908810  	29,159737  	29,083781  	32,995350  	31,648742  	34,339038  	59,736949  	26,308772  	25,190712  	28,564241  	64,710321  	0,179455  	0,090931  	-3437,351172  	-27055,389215  	-0,103117  	-0,049996  	0,411138  	0,208327  	-4,214430  	16087,051724  	56518,469530  	8,197311  	-0,047948  
119,550000  	22,848357  	31,853026  	24,152599  	-242,047242  	70,167934  	65,334400  	0,006573  	0,011454  	0,003966  	0,004237  	0,004471  	0,000001  	-0,000000  	26,858048  	24,624995  	25,543911  	25,713822  	29,603442  	27,903227  	29,152267  	29,082353  	32,994696  	31,640955  	34,336752  	59,732594  	26,306772  	25,184274  	28,558135  	64,704504  	0,198308  	0,100484  	-3783,171266  	-27050,423825  	-0,103098  	-0,049986  	0,399180  	0,202267  	-4,093764  	16050,159115  	56361,614403  	8,174561  	-0,047939  
120,553000  	22,859044  	31,843297  	24,151800  	-242,047242  	70,166563  	65,339563  	0,006580  	0,011427  	0,003966  	0,004225  	0,004494  	0,000000  	-0,000000  	26,851147  	24,623174  	25,543512  	25,705015  	29,597975  	27,895817  	29,144700  	29,076332  	32,992781  	31,644611  	34,330493  	59,728478  	26,298475  	25,185783  	28,551106  	64,704053  	0,188648  	0,095589  	-3590,722043  	-27056,604988  	-0,103122  	-0,049998  	0,417712  	0,211658  	-4,278032  	15991,509000  	56511,973324  	8,196369  	-0,047950  
121,550000  	22,873784  	31,837077  	24,152445  	1256,670793  	70,167031  	65,338567  	0,006586  	0,011439  	0,003967  	0,004249  	0,004497  	0,000002  	-0,000000  	26,850615  	24,620370  	25,544271  	25,706355  	29,598345  	27,892552  	29,141771  	29,072814  	32,985321  	31,645256  	34,328543  	59,727991  	26,302509  	25,184839  	28,552125  	64,703190  	0,208357  	0,105576  	-3956,612900  	25553,318972  	-0,018529  	-0,049980  	0,419603  	0,212616  	-4,298703  	16016,996162  	56645,336193  	8,215711  	-0,047934  
122,553000  	22,857815  	31,836831  	24,152998  	657,183579  	70,164912  	65,336577  	0,006567  	0,011455  	0,003966  	0,004223  	0,004491  	0,000000  	-0,000000  	26,855175  	24,620658  	25,549654  	25,704951  	29,597608  	27,902187  	29,141763  	29,075459  	32,985684  	31,644887  	34,336438  	59,732007  	26,306262  	25,186678  	28,556532  	64,701535  	0,187004  	0,094756  	-3557,355212  	18488,400177  	-0,027586  	-0,049997  	0,415266  	0,210418  	-4,254152  	16052,783033  	56245,438234  	8,157711  	-0,047949  
123,550000  	22,851090  	31,840064  	24,153551  	-242,047242  	70,161579  	65,337479  	0,006575  	0,011440  	0,003966  	0,004235  	0,004427  	0,000001  	-0,000000  	26,858714  	24,622100  	25,549503  	25,711789  	29,604568  	27,905521  	29,145534  	29,084702  	32,993455  	31,645754  	34,340335  	59,737081  	26,302946  	25,191190  	28,565802  	64,705372  	0,197240  	0,099943  	-3756,237006  	-27048,656457  	-0,103091  	-0,049982  	0,364365  	0,184627  	-3,729437  	16019,961776  	56405,845091  	8,180976  	-0,047936  
124,551000  	22,852503  	31,845544  	24,153981  	956,927186  	70,160520  	65,336919  	0,006583  	0,011437  	0,003965  	0,004232  	0,004520  	0,000000  	-0,000000  	26,849786  	24,615866  	25,540268  	25,706538  	29,604793  	27,897871  	29,145778  	29,072299  	32,983955  	31,641193  	34,333337  	59,727733  	26,296835  	25,194647  	28,557607  	64,700180  	0,194964  	0,098790  	-3714,566522  	22512,907258  	-0,022171  	-0,049994  	0,437999  	0,221937  	-4,482644  	16014,195383  	56573,157697  	8,205243  	-0,047947  
125,550000  	22,859535  	31,850501  	24,153889  	1256,670793  	70,156845  	65,337759  	0,006581  	0,011449  	0,003966  	0,004216  	0,004447  	0,000001  	-0,000000  	26,858013  	24,623593  	25,545760  	25,701868  	29,597825  	27,903504  	29,148335  	29,072643  	32,984848  	31,637906  	34,335321  	59,734026  	26,305321  	25,199692  	28,563731  	64,709815  	0,181997  	0,092219  	-3466,720872  	25556,519972  	-0,018531  	-0,049987  	0,380614  	0,192860  	-3,891698  	16038,610764  	56546,198443  	8,201333  	-0,047940  
126,550000  	22,849524  	31,851548  	24,153705  	1256,670793  	70,157032  	65,337572  	0,006576  	0,011410  	0,003964  	0,004233  	0,004465  	0,000001  	-0,000000  	26,859714  	24,623784  	25,548110  	25,717237  	29,599174  	27,899499  	29,144628  	29,079177  	32,988317  	31,640536  	34,331268  	59,740068  	26,307466  	25,200991  	28,561347  	64,701361  	0,195354  	0,098987  	-3725,715731  	25555,999934  	-0,018531  	-0,049986  	0,394339  	0,199815  	-4,032350  	15955,937901  	56422,805837  	8,183436  	-0,047939  
127,550000  	22,845655  	31,851548  	24,154258  	1256,670793  	70,158683  	65,333964  	0,006581  	0,011450  	0,003966  	0,004237  	0,004487  	-0,000000  	-0,000000  	26,843181  	24,614194  	25,545014  	25,707724  	29,609346  	27,892146  	29,143350  	29,070604  	32,989281  	31,638118  	34,329136  	59,737840  	26,297302  	25,201581  	28,558239  	64,700536  	0,198534  	0,100599  	-3788,005241  	25565,220020  	-0,018537  	-0,050006  	0,412040  	0,208784  	-4,217948  	16040,634060  	56540,584874  	8,200519  	-0,047956  
128,554000  	22,833679  	31,851487  	24,153459  	1256,670793  	70,159617  	65,332534  	0,006577  	0,011432  	0,003966  	0,004216  	0,004446  	0,000001  	-0,000000  	26,856796  	24,628890  	25,544811  	25,698946  	29,601133  	27,900927  	29,143408  	29,072663  	32,994482  	31,650734  	34,331785  	59,734137  	26,299639  	25,216927  	28,560479  	64,706789  	0,181335  	0,091884  	-3464,417269  	25555,699033  	-0,018531  	-0,049985  	0,379196  	0,192142  	-3,883636  	16002,829553  	56441,666018  	8,186172  	-0,047938  
129,551000  	22,817895  	31,849608  	24,152507  	-242,047242  	70,160147  	65,327153  	0,006575  	0,011436  	0,003968  	0,004198  	0,004486  	0,000000  	-0,000000  	26,860950  	24,613256  	25,553158  	25,708777  	29,587530  	27,892269  	29,141607  	29,065514  	32,984503  	31,637341  	34,323623  	59,728863  	26,294797  	25,220853  	28,563528  	64,712773  	0,167285  	0,084764  	-3200,920167  	-27055,125748  	-0,103116  	-0,049995  	0,411135  	0,208325  	-4,215892  	16011,356401  	56411,112667  	8,181740  	-0,047947  
130,552000  	22,820720  	31,847699  	24,153305  	357,439972  	70,159399  	65,329703  	0,006579  	0,011445  	0,003965  	0,004253  	0,004462  	0,000001  	-0,000000  	26,845083  	24,616405  	25,549498  	25,700028  	29,595348  	27,894083  	29,145404  	29,071130  	32,997351  	31,639423  	34,323968  	59,735450  	26,300010  	25,207474  	28,559902  	64,692459  	0,211524  	0,107181  	-4045,309630  	12535,841068  	-0,036492  	-0,049990  	0,392130  	0,198695  	-4,018275  	16031,440797  	56500,597902  	8,194719  	-0,047943  
131,549000  	22,828735  	31,847053  	24,153490  	357,439972  	70,160988  	65,333467  	0,006581  	0,011477  	0,003965  	0,004225  	0,004456  	0,000001  	-0,000000  	26,849133  	24,615388  	25,526444  	25,680435  	29,588688  	27,891919  	29,129916  	29,057114  	32,975832  	31,634838  	34,309681  	59,725016  	26,290683  	25,206671  	28,547147  	64,703330  	0,189049  	0,095793  	-3612,008951  	12536,043022  	-0,036492  	-0,049991  	0,387069  	0,196131  	-3,964626  	16099,424249  	56528,468038  	8,198761  	-0,047943  
132,552000  	22,832604  	31,842127  	24,154166  	956,927186  	70,156938  	65,337759  	0,006574  	0,011450  	0,003966  	0,004279  	0,004436  	-0,000000  	-0,000000  	26,840489  	24,618908  	25,550023  	25,698257  	29,595642  	27,893220  	29,144450  	29,071791  	32,983642  	31,643319  	34,331518  	59,736757  	26,307819  	25,224931  	28,565350  	64,706016  	0,232643  	0,117882  	-4440,578211  	22517,451108  	-0,022175  	-0,050006  	0,371757  	0,188372  	-3,801214  	16041,217703  	56394,490853  	8,179329  	-0,047956  
133,551000  	22,854898  	31,835876  	24,153674  	57,696365  	70,152858  	65,341242  	0,006577  	0,011454  	0,003966  	0,004159  	0,004487  	0,000000  	-0,000000  	26,847451  	24,614505  	25,537947  	25,701211  	29,598135  	27,906304  	29,142851  	29,072705  	32,985953  	31,644817  	34,338652  	59,739847  	26,310778  	25,236213  	28,555871  	64,712022  	0,135720  	0,068770  	-2582,349093  	1818,986943  	-0,053912  	-0,049996  	0,411752  	0,208638  	-4,203548  	16049,900897  	56459,368179  	8,188739  	-0,047948  
134,551000  	22,864111  	31,832859  	24,154288  	657,183579  	70,150428  	65,330356  	0,006580  	0,011427  	0,003966  	0,004293  	0,004433  	0,000001  	-0,000000  	26,846757  	24,608918  	25,537908  	25,698849  	29,592750  	27,885662  	29,137894  	29,060277  	32,983388  	31,638342  	34,332499  	59,730340  	26,305040  	25,248438  	28,546227  	64,705383  	0,244119  	0,123697  	-4638,528528  	18486,881625  	-0,027583  	-0,049993  	0,368812  	0,186880  	-3,771798  	15991,119905  	56520,460758  	8,197600  	-0,047945  
135,549000  	22,849924  	31,832767  	24,154565  	-242,047242  	70,149369  	65,326842  	0,006574  	0,011435  	0,003967  	0,004199  	0,004477  	0,000000  	-0,000000  	26,840898  	24,615700  	25,541762  	25,700462  	29,585842  	27,894411  	29,144510  	29,064009  	32,976886  	31,642092  	34,318826  	59,728176  	26,307048  	25,261711  	28,553831  	64,703195  	0,168085  	0,085170  	-3198,822427  	-27056,722091  	-0,103122  	-0,049999  	0,403717  	0,204567  	-4,130867  	16008,726117  	56390,035303  	8,178683  	-0,047950  
136,552000  	22,835429  	31,834860  	24,154749  	956,927186  	70,148123  	65,325722  	0,006574  	0,011436  	0,003967  	0,004254  	0,004459  	0,000001  	-0,000000  	26,855036  	24,617611  	25,550718  	25,706134  	29,601340  	27,899702  	29,146008  	29,073633  	32,988306  	31,641644  	34,333060  	59,729652  	26,316267  	25,265441  	28,566194  	64,703163  	0,212054  	0,107449  	-4043,050778  	22511,767734  	-0,022170  	-0,049992  	0,389906  	0,197568  	-3,989440  	16010,674423  	56387,634532  	8,178335  	-0,047944  
137,550000  	22,843659  	31,841326  	24,156777  	1256,670793  	70,145195  	65,321679  	0,006582  	0,011446  	0,003965  	0,004195  	0,004481  	0,000001  	-0,000000  	26,847480  	24,611608  	25,545340  	25,704224  	29,591289  	27,888417  	29,142732  	29,073255  	32,984239  	31,638966  	34,334719  	59,740394  	26,318187  	25,268718  	28,562326  	64,698030  	0,164528  	0,083368  	-3136,304604  	25558,360037  	-0,018532  	-0,049991  	0,406949  	0,206204  	-4,164782  	16033,026184  	56549,757234  	8,201849  	-0,047944  
138,551000  	22,857048  	31,846006  	24,157391  	1256,670793  	70,144634  	65,327464  	0,006579  	0,011408  	0,003965  	0,004240  	0,004470  	0,000001  	-0,000000  	26,852472  	24,615613  	25,547899  	25,704791  	29,595657  	27,896827  	29,144626  	29,074041  	32,983209  	31,636999  	34,329201  	59,733199  	26,315004  	25,275329  	28,564447  	64,700958  	0,201142  	0,101920  	-3830,528814  	25559,502581  	-0,018533  	-0,049993  	0,398579  	0,201963  	-4,073760  	15950,529475  	56487,626674  	8,192838  	-0,047946  
139,551000  	22,853731  	31,844343  	24,158313  	1256,670793  	70,148434  	65,322643  	0,006569  	0,011440  	0,003964  	0,004218  	0,004508  	-0,000001  	-0,000000  	26,845767  	24,615549  	25,536559  	25,702193  	29,588714  	27,896396  	29,140435  	29,068794  	32,978477  	31,631454  	34,329943  	59,732122  	26,317023  	25,268698  	28,565698  	64,696728  	0,183523  	0,092992  	-3495,637982  	25567,892629  	-0,018539  	-0,050012  	0,428911  	0,217333  	-4,391624  	16020,478212  	56282,989129  	8,163157  	-0,047962  
140,551000  	22,854223  	31,840895  	24,159296  	1256,670793  	70,150428  	65,318537  	0,006581  	0,011432  	0,003965  	0,004231  	0,004450  	0,000001  	-0,000000  	26,843443  	24,608273  	25,533949  	25,691912  	29,583322  	27,888847  	29,129293  	29,060237  	32,973614  	31,627245  	34,322298  	59,730292  	26,310795  	25,260028  	28,550876  	64,691244  	0,194120  	0,098362  	-3695,865338  	25555,863559  	-0,018531  	-0,049986  	0,382503  	0,193817  	-3,921399  	16002,516862  	56526,851047  	8,198527  	-0,047939  
141,552000  	22,864602  	31,840680  	24,158896  	1256,670793  	70,151176  	65,321305  	0,006586  	0,011431  	0,003967  	0,004164  	0,004485  	0,000000  	-0,000000  	26,840002  	24,608453  	25,527729  	25,686191  	29,585283  	27,888364  	29,129444  	29,053845  	32,968591  	31,626947  	34,321716  	59,727134  	26,314604  	25,254322  	28,548994  	64,693792  	0,139717  	0,070795  	-2656,940124  	25559,749527  	-0,018534  	-0,049994  	0,410666  	0,208088  	-4,208362  	16001,402634  	56641,840952  	8,215204  	-0,047946  
142,551000  	22,873446  	31,843143  	24,160739  	657,183579  	70,152172  	65,324354  	0,006572  	0,011450  	0,003965  	0,004256  	0,004478  	0,000001  	-0,000000  	26,839935  	24,609493  	25,528046  	25,689293  	29,590137  	27,883677  	29,135259  	29,058591  	32,977056  	31,628473  	34,329981  	59,724815  	26,325678  	25,247900  	28,551769  	64,705604  	0,214211  	0,108542  	-4070,682807  	18486,649024  	-0,027583  	-0,049993  	0,404994  	0,205213  	-4,148473  	16040,866810  	56333,892550  	8,170540  	-0,047945  
143,550000  	22,882106  	31,844898  	24,160279  	-242,047242  	70,150989  	65,319906  	0,006582  	0,011447  	0,003965  	0,004217  	0,004504  	0,000001  	-0,000000  	26,842349  	24,606679  	25,536147  	25,692193  	29,583509  	27,883126  	29,135729  	29,064368  	32,979249  	31,631246  	34,322941  	59,729010  	26,331366  	25,242782  	28,556065  	64,706655  	0,182361  	0,092404  	-3462,753650  	-27052,949761  	-0,103105  	-0,049991  	0,425295  	0,215500  	-4,359369  	16034,549316  	56549,135858  	8,201759  	-0,047943  
144,552000  	22,873262  	31,844713  	24,160586  	956,927186  	70,150677  	65,326748  	0,006582  	0,011446  	0,003964  	0,004237  	0,004406  	0,000000  	-0,000000  	26,836918  	24,606220  	25,538046  	25,690551  	29,581543  	27,882669  	29,133397  	29,061959  	32,979926  	31,624002  	34,316351  	59,732883  	26,326605  	25,236135  	28,558487  	64,701486  	0,198953  	0,100811  	-3781,464872  	22512,618158  	-0,022171  	-0,049994  	0,347774  	0,176220  	-3,559484  	16033,735753  	56548,952269  	8,201732  	-0,047946  
145,551000  	22,854345  	31,845914  	24,161077  	57,696365  	70,153979  	65,324478  	0,006575  	0,011435  	0,003966  	0,004229  	0,004501  	-0,000002  	-0,000000  	26,832454  	24,607100  	25,530974  	25,685960  	29,584814  	27,881292  	29,129577  	29,057806  	32,980770  	31,614275  	34,319535  	59,730380  	26,329205  	25,228942  	28,556980  	64,697562  	0,192287  	0,097433  	-3662,972854  	1819,349225  	-0,053934  	-0,050021  	0,422846  	0,214259  	-4,332848  	16008,769271  	56403,952718  	8,180702  	-0,047969  
146,552000  	22,855451  	31,850532  	24,161692  	1256,670793  	70,154602  	65,324665  	0,006574  	0,011462  	0,003965  	0,004276  	0,004482  	0,000001  	-0,000000  	26,839065  	24,609682  	25,530611  	25,688381  	29,582504  	27,887565  	29,134207  	29,061175  	32,980610  	31,621286  	34,321930  	59,730217  	26,344721  	25,223867  	28,559278  	64,698887  	0,230174  	0,116631  	-4386,408255  	25558,374725  	-0,018533  	-0,049991  	0,408021  	0,206747  	-4,181321  	16067,356423  	56389,131483  	8,178552  	-0,047944  
147,550000  	22,835460  	31,853857  	24,162060  	1256,670793  	70,151331  	65,329859  	0,006582  	0,011413  	0,003966  	0,004173  	0,004495  	-0,000001  	-0,000000  	26,845240  	24,611855  	25,537743  	25,692111  	29,586220  	27,888517  	29,143264  	29,067126  	32,985056  	31,628405  	34,325339  	59,731140  	26,351086  	25,215296  	28,558540  	64,701018  	0,146499  	0,074232  	-2799,065730  	25567,961976  	-0,018540  	-0,050012  	0,418096  	0,211852  	-4,277055  	15960,723774  	56556,479395  	8,202824  	-0,047962  
148,552000  	22,796461  	31,855027  	24,162798  	1256,670793  	70,148590  	65,332658  	0,006576  	0,011443  	0,003967  	0,004235  	0,004452  	0,000001  	-0,000000  	26,839909  	24,604520  	25,534710  	25,685537  	29,583198  	27,884296  	29,136621  	29,063073  	32,976549  	31,622528  	34,322421  	59,729855  	26,350505  	25,203940  	28,555459  	64,689984  	0,196834  	0,099737  	-3777,545826  	25558,161028  	-0,018532  	-0,049991  	0,384532  	0,194845  	-3,929182  	16026,510605  	56429,210249  	8,184365  	-0,047944  
149,555000  	22,798672  	31,852903  	24,163781  	57,696365  	70,148715  	65,326624  	0,006573  	0,011420  	0,003963  	0,004196  	0,004497  	-0,000000  	-0,000000  	26,837340  	24,601253  	25,534816  	25,691433  	29,581880  	27,885741  	29,136355  	29,062986  	32,985015  	31,624036  	34,322281  	59,731298  	26,351175  	25,195414  	28,554776  	64,698989  	0,165350  	0,083784  	-3171,798395  	1818,545907  	-0,053915  	-0,050001  	0,419634  	0,212632  	-4,293339  	15977,129450  	56364,297618  	8,174950  	-0,047952  
150,551000  	22,811201  	31,850070  	24,164211  	1256,670793  	70,148715  	65,321461  	0,006582  	0,011444  	0,003965  	0,004242  	0,004419  	0,000001  	-0,000000  	26,845201  	24,607746  	25,524270  	25,693391  	29,590941  	27,893153  	29,137086  	29,068798  	32,981191  	31,627139  	34,317901  	59,727267  	26,357985  	25,194483  	28,554068  	64,699859  	0,202864  	0,102793  	-3884,803062  	25553,965165  	-0,018529  	-0,049982  	0,358367  	0,181587  	-3,670435  	16028,660534  	56564,183048  	8,203941  	-0,047936  
151,549000  	22,817189  	31,842496  	24,164764  	1256,670793  	70,147313  	65,315800  	0,006582  	0,011446  	0,003965  	0,004242  	0,004476  	-0,000000  	-0,000000  	26,832194  	24,600028  	25,530946  	25,693972  	29,582471  	27,886498  	29,124732  	29,057511  	32,974900  	31,622444  	34,314261  	59,726234  	26,355838  	25,193901  	28,555751  	64,691908  	0,202608  	0,102663  	-3874,065351  	25563,057839  	-0,018536  	-0,050002  	0,403085  	0,204246  	-4,132071  	16032,792020  	56557,453826  	8,202965  	-0,047953  
152,553000  	22,801282  	31,832520  	24,163965  	57,696365  	70,149057  	65,325131  	0,006572  	0,011448  	0,003966  	0,004263  	0,004452  	0,000001  	-0,000000  	26,830147  	24,601189  	25,533297  	25,683783  	29,577867  	27,888980  	29,128829  	29,061177  	32,969212  	31,622287  	34,319598  	59,730181  	26,362616  	25,189359  	28,558579  	64,684483  	0,219960  	0,111455  	-4208,625666  	1817,942400  	-0,053897  	-0,049982  	0,384287  	0,194721  	-3,933198  	16037,580015  	56343,601554  	8,171949  	-0,047936  
153,550000  	22,816483  	31,826209  	24,164026  	1256,670793  	70,149774  	65,325007  	0,006582  	0,011417  	0,003965  	0,004174  	0,004536  	0,000000  	-0,000000  	26,837419  	24,618721  	25,535377  	25,695488  	29,590329  	27,897349  	29,141985  	29,068489  	32,983914  	31,631452  	34,330179  	59,740112  	26,366366  	25,192560  	28,568556  	64,699048  	0,147546  	0,074763  	-2816,358752  	25561,947373  	-0,018535  	-0,049999  	0,450598  	0,228322  	-4,612698  	15969,432436  	56561,033800  	8,203484  	-0,047951  
154,553000  	22,840005  	31,823746  	24,163719  	1256,670793  	70,148839  	65,319533  	0,006584  	0,011437  	0,003966  	0,004267  	0,004438  	0,000002  	-0,000000  	26,840046  	24,608654  	25,530704  	25,684270  	29,590139  	27,877246  	29,129552  	29,058667  	32,972351  	31,613914  	34,321140  	59,721935  	26,352154  	25,176469  	28,559376  	64,691103  	0,223127  	0,113060  	-4246,755689  	25552,648298  	-0,018528  	-0,049979  	0,373531  	0,189271  	-3,827364  	16013,179490  	56607,439305  	8,210215  	-0,047933  
155,550000  	22,847375  	31,820975  	24,163351  	1256,670793  	70,146379  	65,318537  	0,006575  	0,011415  	0,003965  	0,004222  	0,004471  	0,000000  	-0,000000  	26,819570  	24,591559  	25,512682  	25,677675  	29,577009  	27,876629  	29,121326  	29,044243  	32,960820  	31,612537  	34,315371  	59,711620  	26,348360  	25,165125  	28,543783  	64,691330  	0,186156  	0,094327  	-3539,089584  	25559,612550  	-0,018533  	-0,049994  	0,399672  	0,202517  	-4,093978  	15966,227705  	56406,544139  	8,181078  	-0,047946  
156,553000  	22,842277  	31,818881  	24,163658  	57,696365  	70,150303  	65,317107  	0,006577  	0,011428  	0,003965  	0,004277  	0,004379  	0,000001  	-0,000000  	26,833394  	24,606077  	25,517939  	25,692446  	29,581364  	27,878956  	29,118577  	29,053233  	32,972194  	31,619964  	34,313781  	59,712429  	26,349411  	25,163299  	28,555866  	64,687405  	0,230722  	0,116909  	-4387,825212  	1818,191352  	-0,053904  	-0,049989  	0,326240  	0,165308  	-3,345494  	15993,170791  	56444,963548  	8,186650  	-0,047942  
157,550000  	22,834048  	31,818912  	24,163381  	1256,670793  	70,148434  	65,317231  	0,006582  	0,011447  	0,003967  	0,004209  	0,004480  	-0,000001  	-0,000000  	26,834471  	24,609002  	25,526886  	25,691249  	29,587291  	27,883712  	29,121949  	29,057784  	32,971463  	31,634132  	34,325294  	59,731814  	26,350184  	25,169838  	28,558936  	64,703394  	0,175606  	0,088981  	-3342,721595  	25566,694887  	-0,018539  	-0,050010  	0,406625  	0,206040  	-4,168099  	16036,039905  	56561,965864  	8,203620  	-0,047960  
158,552000  	22,840066  	31,823592  	24,164426  	1256,670793  	70,142890  	65,316111  	0,006576  	0,011479  	0,003965  	0,004263  	0,004460  	-0,000001  	-0,000000  	26,835964  	24,604517  	25,529818  	25,682895  	29,576101  	27,879683  	29,130718  	29,061589  	32,971078  	31,621423  	34,314685  	59,728725  	26,343476  	25,176849  	28,555994  	64,685252  	0,219663  	0,111305  	-4180,722101  	25566,576767  	-0,018539  	-0,050009  	0,390458  	0,197848  	-3,998709  	16104,993973  	56436,264281  	8,185388  	-0,047960  
159,550000  	22,836658  	31,828395  	24,165624  	1256,670793  	70,149431  	65,322021  	0,006572  	0,011429  	0,003965  	0,004196  	0,004529  	0,000000  	-0,000000  	26,837234  	24,606389  	25,527463  	25,685584  	29,572745  	27,888763  	29,127426  	29,059279  	32,977237  	31,625390  	34,326660  	59,731288  	26,355919  	25,181391  	28,566876  	64,693780  	0,165723  	0,083973  	-3156,998950  	25560,456060  	-0,018534  	-0,049996  	0,445567  	0,225772  	-4,563692  	15996,677602  	56340,967766  	8,171567  	-0,047948  
160,553000  	22,835859  	31,831474  	24,165747  	57,696365  	70,150490  	65,318537  	0,006580  	0,011446  	0,003964  	0,004259  	0,004431  	0,000001  	-0,000000  	26,833648  	24,608961  	25,529973  	25,682285  	29,577431  	27,881426  	29,123425  	29,050658  	32,970206  	31,618203  	34,320893  	59,728157  	26,347289  	25,174245  	28,560746  	64,689848  	0,216778  	0,109843  	-4131,371772  	1817,922123  	-0,053899  	-0,049985  	0,367882  	0,186408  	-3,771546  	16032,758770  	56508,252128  	8,195829  	-0,047938  
161,549000  	22,867366  	31,832551  	24,165962  	1256,670793  	70,148154  	65,317884  	0,006582  	0,011457  	0,003965  	0,004235  	0,004496  	-0,000001  	-0,000000  	26,830164  	24,603781  	25,527983  	25,683697  	29,583855  	27,867484  	29,124388  	29,061249  	32,965291  	31,618480  	34,321438  	59,732167  	26,341258  	25,176649  	28,560880  	64,696298  	0,197148  	0,099896  	-3744,536609  	25567,899049  	-0,018540  	-0,050012  	0,419090  	0,212356  	-4,295043  	16055,938950  	56566,223704  	8,204237  	-0,047962  
162,552000  	22,884869  	31,832982  	24,166023  	1256,670793  	70,149587  	65,318817  	0,006570  	0,011445  	0,003966  	0,004280  	0,004432  	0,000001  	-0,000000  	26,816218  	24,595049  	25,519184  	25,676633  	29,563771  	27,863085  	29,114627  	29,037148  	32,961022  	31,601993  	34,308866  	59,716089  	26,325754  	25,158619  	28,540994  	64,686308  	0,233170  	0,118149  	-4420,293117  	25559,250700  	-0,018533  	-0,049994  	0,368029  	0,186483  	-3,772129  	16031,362978  	56298,657695  	8,165430  	-0,047946  
163,550000  	22,873170  	31,833167  	24,166945  	1256,670793  	70,149867  	65,321026  	0,006578  	0,011437  	0,003966  	0,004221  	0,004474  	-0,000000  	-0,000000  	26,828756  	24,601853  	25,526430  	25,680080  	29,574931  	27,878987  	29,127265  	29,052091  	32,967320  	31,618412  	34,315351  	59,719331  	26,339051  	25,159347  	28,554456  	64,688549  	0,185950  	0,094222  	-3529,815403  	25564,647474  	-0,018537  	-0,050005  	0,401410  	0,203397  	-4,112630  	16013,904622  	56479,449928  	8,191652  	-0,047956  
164,552000  	22,867519  	31,833844  	24,166883  	57,696365  	70,151923  	65,325069  	0,006582  	0,011443  	0,003966  	0,004266  	0,004454  	0,000000  	-0,000000  	26,830452  	24,602445  	25,526461  	25,677676  	29,578049  	27,877037  	29,126752  	29,049364  	32,971801  	31,623999  	34,317243  	59,722643  	26,350024  	25,157216  	28,564579  	64,689005  	0,222136  	0,112558  	-4219,685609  	1818,324348  	-0,053913  	-0,049999  	0,385710  	0,195442  	-3,950156  	16025,802452  	56553,577285  	8,202403  	-0,047951  
165,550000  	22,860487  	31,841542  	24,166515  	1256,670793  	70,150335  	65,320497  	0,006577  	0,011413  	0,003966  	0,004175  	0,004462  	0,000001  	-0,000000  	26,829875  	24,603103  	25,517480  	25,674044  	29,579262  	27,871695  	29,120405  	29,056121  	32,970474  	31,625192  	34,316661  	59,726552  	26,346130  	25,151204  	28,557520  	64,681730  	0,148786  	0,075391  	-2830,975188  	25557,506987  	-0,018532  	-0,049990  	0,392028  	0,198643  	-4,017337  	15961,971709  	56443,226519  	8,186398  	-0,047943  
166,551000  	22,853424  	31,849732  	24,165224  	1256,670793  	70,150023  	65,321554  	0,006575  	0,011431  	0,003965  	0,004281  	0,004432  	0,000001  	-0,000000  	26,826355  	24,602309  	25,522931  	25,684436  	29,579768  	27,874141  	29,119687  	29,053539  	32,967096  	31,622690  	34,318088  	59,725655  	26,349190  	25,151758  	28,549466  	64,687431  	0,234037  	0,118588  	-4460,632924  	25557,554445  	-0,018532  	-0,049990  	0,368024  	0,186480  	-3,770286  	15999,445838  	56405,082493  	8,180866  	-0,047943  
167,549000  	22,838961  	31,853057  	24,164671  	357,439972  	70,151113  	65,322270  	0,006583  	0,011469  	0,003967  	0,004174  	0,004457  	0,000000  	-0,000000  	26,826109  	24,599099  	25,521513  	25,684125  	29,572981  	27,874116  	29,123163  	29,048706  	32,963518  	31,618887  	34,317474  	59,724137  	26,351751  	25,156370  	28,551718  	64,685915  	0,147775  	0,074879  	-2822,089001  	12537,351848  	-0,036497  	-0,049999  	0,388048  	0,196627  	-3,975739  	16082,175297  	56582,591318  	8,206611  	-0,047951  
168,554000  	22,831591  	31,852379  	24,163627  	-242,047242  	70,146628  	65,322767  	0,006574  	0,011448  	0,003963  	0,004297  	0,004417  	-0,000000  	-0,000000  	26,828070  	24,596007  	25,519302  	25,680144  	29,574380  	27,876241  	29,126958  	29,051742  	32,965315  	31,621511  	34,317279  	59,723334  	26,347628  	25,167740  	28,559981  	64,687086  	0,247481  	0,125400  	-4729,703603  	-27058,876651  	-0,103126  	-0,050003  	0,356497  	0,180640  	-3,648711  	16037,248930  	56381,328975  	8,177420  	-0,047954  
169,550000  	22,860303  	31,848192  	24,163443  	1256,670793  	70,144759  	65,323452  	0,006572  	0,011435  	0,003966  	0,004220  	0,004465  	-0,000001  	-0,000000  	26,830892  	24,597108  	25,520736  	25,683496  	29,580310  	27,879492  	29,126483  	29,059559  	32,966812  	31,623395  	34,319052  	59,723656  	26,337822  	25,171309  	28,558012  	64,687327  	0,184719  	0,093598  	-3517,353177  	25566,114472  	-0,018538  	-0,050008  	0,394894  	0,200096  	-4,039567  	16009,039515  	56343,926364  	8,171996  	-0,047959  
170,554000  	22,881737  	31,847022  	24,162214  	657,183579  	70,142516  	65,329174  	0,006583  	0,011426  	0,003965  	0,004270  	0,004469  	-0,000000  	-0,000000  	26,831468  	24,599901  	25,526789  	25,686228  	29,580387  	27,881614  	29,124743  	29,055114  	32,969526  	31,626773  	34,323124  	59,726361  	26,330204  	25,173203  	28,561113  	64,688414  	0,225732  	0,114380  	-4287,507865  	18490,713067  	-0,027589  	-0,050005  	0,397909  	0,201624  	-4,063684  	15988,951582  	56580,946083  	8,206372  	-0,047956  
171,550000  	22,889568  	31,842958  	24,161845  	657,183579  	70,145101  	65,322301  	0,006578  	0,011459  	0,003966  	0,004211  	0,004475  	-0,000000  	-0,000000  	26,833624  	24,602228  	25,530607  	25,687676  	29,574756  	27,881872  	29,127776  	29,047550  	32,975616  	31,627553  	34,320996  	59,730809  	26,332326  	25,177227  	28,563167  	64,691679  	0,177677  	0,090030  	-3370,267670  	18489,140590  	-0,027587  	-0,050001  	0,402449  	0,203924  	-4,118123  	16060,085999  	56477,077401  	8,191308  	-0,047952  
172,553000  	22,861562  	31,840556  	24,161477  	1256,670793  	70,150148  	65,318133  	0,006568  	0,011484  	0,003965  	0,004279  	0,004425  	0,000001  	-0,000000  	26,837860  	24,603999  	25,525068  	25,688832  	29,574456  	27,879829  	29,130478  	29,059694  	32,979273  	31,619900  	34,316350  	59,732011  	26,334630  	25,178574  	28,557943  	64,689833  	0,233071  	0,118099  	-4433,665093  	25559,263374  	-0,018533  	-0,049993  	0,363202  	0,184037  	-3,723616  	16115,770500  	56263,782955  	8,160372  	-0,047946  
173,550000  	22,847897  	31,847361  	24,161507  	57,696365  	70,149120  	65,319688  	0,006581  	0,011415  	0,003964  	0,004175  	0,004474  	-0,000000  	-0,000000  	26,830341  	24,597599  	25,520383  	25,685503  	29,577147  	27,877865  	29,127799  	29,061532  	32,971818  	31,616370  	34,314672  	59,728102  	26,323099  	25,180701  	28,557885  	64,688054  	0,148025  	0,075005  	-2822,278079  	1818,719140  	-0,053916  	-0,050002  	0,401294  	0,203338  	-4,111942  	15966,004859  	56545,167523  	8,201183  	-0,047953  
174,552000  	22,833341  	31,853765  	24,162060  	1256,670793  	70,147625  	65,321741  	0,006583  	0,011454  	0,003967  	0,004247  	0,004399  	0,000002  	-0,000000  	26,820198  	24,587435  	25,516390  	25,677086  	29,566923  	27,872443  	29,122457  	29,042185  	32,957524  	31,615481  	34,308254  	59,723021  	26,308375  	25,171349  	28,547532  	64,682982  	0,206892  	0,104834  	-3953,836031  	25553,697945  	-0,018529  	-0,049981  	0,342084  	0,173337  	-3,502669  	16049,934854  	56588,310803  	8,207441  	-0,047935  
175,552000  	22,822102  	31,855982  	24,163166  	357,439972  	70,143731  	65,326095  	0,006568  	0,011462  	0,003967  	0,004201  	0,004479  	-0,000000  	-0,000000  	26,821516  	24,585396  	25,516110  	25,668673  	29,566221  	27,869610  	29,116898  	29,046125  	32,962346  	31,610636  	34,311976  	59,718505  	26,307675  	25,162143  	28,548948  	64,684426  	0,169734  	0,086005  	-3248,564323  	12538,863131  	-0,036502  	-0,050006  	0,405440  	0,205439  	-4,144285  	16067,045854  	56266,374376  	8,160748  	-0,047956  
176,554000  	22,841202  	31,854504  	24,164211  	956,927186  	70,143295  	65,319937  	0,006577  	0,011442  	0,003965  	0,004266  	0,004412  	0,000001  	-0,000000  	26,819984  	24,580816  	25,519268  	25,674652  	29,573336  	27,874595  	29,120609  	29,047784  	32,965263  	31,606570  	34,312807  	59,725678  	26,305083  	25,157888  	28,547300  	64,687606  	0,222272  	0,112627  	-4244,413530  	22510,011700  	-0,022168  	-0,049988  	0,352533  	0,178631  	-3,607765  	16025,158676  	56458,845658  	8,188663  	-0,047941  
177,551000  	22,845962  	31,849547  	24,164702  	956,927186  	70,141706  	65,320186  	0,006583  	0,011404  	0,003966  	0,004221  	0,004491  	-0,000000  	-0,000000  	26,829661  	24,591814  	25,527127  	25,683193  	29,579907  	27,876192  	29,122066  	29,050396  	32,966437  	31,613192  	34,324419  	59,731314  	26,311568  	25,157010  	28,548723  	64,685730  	0,185734  	0,094113  	-3542,862876  	22514,872276  	-0,022173  	-0,050000  	0,415198  	0,210384  	-4,247450  	15941,991307  	56586,256025  	8,207143  	-0,047952  
178,552000  	22,853271  	31,844374  	24,166115  	-242,047242  	70,140709  	65,319626  	0,006574  	0,011447  	0,003964  	0,004254  	0,004491  	0,000001  	-0,000000  	26,823275  	24,590842  	25,526044  	25,670861  	29,575631  	27,875187  	29,122937  	29,048214  	32,971113  	31,611601  	34,316069  	59,732850  	26,322322  	25,153089  	28,550369  	64,684897  	0,212198  	0,107522  	-4042,047721  	-27054,135489  	-0,103107  	-0,049993  	0,415450  	0,210512  	-4,249642  	16034,431172  	56378,921142  	8,177071  	-0,047945  
179,550000  	22,866444  	31,840125  	24,166023  	657,183579  	70,139152  	65,315987  	0,006582  	0,011463  	0,003965  	0,004206  	0,004428  	-0,000001  	-0,000000  	26,824628  	24,590453  	25,526477  	25,675968  	29,574243  	27,878801  	29,121226  	29,053526  	32,972284  	31,616350  	34,321272  	59,721176  	26,320266  	25,149592  	28,548842  	64,682494  	0,173917  	0,088125  	-3306,429666  	18492,101149  	-0,027592  	-0,050010  	0,364906  	0,184901  	-3,734238  	16070,070894  	56547,829556  	8,201569  	-0,047960  
180,552000  	22,874920  	31,838647  	24,166392  	1256,670793  	70,140834  	65,318164  	0,006582  	0,011447  	0,003966  	0,004264  	0,004464  	-0,000000  	-0,000000  	26,816782  	24,587778  	25,518367  	25,673723  	29,563940  	27,864081  	29,109298  	29,046159  	32,959212  	31,609882  	34,316372  	59,722380  	26,311716  	25,127749  	28,547795  	64,684915  	0,220487  	0,111722  	-4187,149629  	25563,926007  	-0,018537  	-0,050004  	0,393932  	0,199608  	-4,030853  	16035,343778  	56564,783241  	8,204028  	-0,047955  
181,549000  	22,876394  	31,840556  	24,166330  	1256,670793  	70,144167  	65,319253  	0,006576  	0,011467  	0,003966  	0,004215  	0,004466  	0,000001  	-0,000000  	26,833243  	24,598310  	25,530873  	25,686560  	29,590124  	27,871655  	29,125015  	29,062246  	32,965249  	31,617622  	34,326525  	59,722122  	26,324324  	25,141570  	28,569535  	64,695879  	0,180952  	0,091690  	-3436,537753  	25557,473654  	-0,018532  	-0,049990  	0,395069  	0,200184  	-4,044369  	16077,745270  	56420,673387  	8,183127  	-0,047943  
182,551000  	22,875227  	31,843266  	24,167866  	1256,670793  	70,140367  	65,317324  	0,006575  	0,011428  	0,003965  	0,004201  	0,004500  	-0,000000  	-0,000000  	26,822811  	24,582319  	25,514884  	25,683629  	29,568904  	27,871833  	29,112841  	29,046970  	32,957942  	31,605465  	34,319579  	59,717673  	26,308258  	25,123715  	28,549972  	64,678746  	0,169381  	0,085826  	-3218,163142  	25562,648333  	-0,018536  	-0,050001  	0,422540  	0,214104  	-4,323918  	15994,778109  	56408,041091  	8,181295  	-0,047952  
183,550000  	22,863343  	31,845206  	24,168051  	357,439972  	70,141924  	65,319128  	0,006583  	0,011458  	0,003966  	0,004255  	0,004458  	0,000001  	-0,000000  	26,827005  	24,600828  	25,522891  	25,687255  	29,580555  	27,883154  	29,124838  	29,054951  	32,951928  	31,623283  	34,324880  	59,720632  	26,322583  	25,126294  	28,555761  	64,683044  	0,213462  	0,108163  	-4061,950056  	12533,760943  	-0,036487  	-0,049984  	0,388614  	0,196914  	-3,976545  	16058,071193  	56586,227781  	8,207138  	-0,047938  
184,554000  	22,853639  	31,850563  	24,168972  	956,927186  	70,143855  	65,313405  	0,006580  	0,011430  	0,003966  	0,004232  	0,004478  	-0,000000  	-0,000000  	26,836282  	24,599492  	25,531127  	25,680664  	29,580823  	27,876081  	29,121743  	29,053675  	32,967799  	31,615848  	34,325805  	59,728436  	26,312900  	25,130991  	28,555588  	64,686748  	0,194195  	0,098400  	-3701,524669  	22517,138848  	-0,022175  	-0,050006  	0,404574  	0,205000  	-4,146424  	15997,594452  	56511,952140  	8,196366  	-0,047957  
185,551000  	22,840680  	31,854473  	24,170508  	-242,047242  	70,139588  	65,316329  	0,006566  	0,011417  	0,003966  	0,004256  	0,004477  	0,000000  	-0,000000  	26,831361  	24,599424  	25,532456  	25,678617  	29,583929  	27,882335  	29,127099  	29,061368  	32,964805  	31,622845  	34,326979  	59,729257  	26,308978  	25,132120  	28,558837  	64,683892  	0,214231  	0,108553  	-4091,089225  	-27056,260035  	-0,103114  	-0,049997  	0,403996  	0,204708  	-4,134343  	15969,969387  	56221,155135  	8,154189  	-0,047949  
186,552000  	22,851244  	31,854412  	24,171307  	357,439972  	70,143077  	65,315583  	0,006580  	0,011430  	0,003965  	0,004184  	0,004487  	0,000001  	-0,000000  	26,829963  	24,590363  	25,528407  	25,687515  	29,567145  	27,873871  	29,128258  	29,046801  	32,959577  	31,616546  	34,321347  	59,722290  	26,297626  	25,129464  	28,553965  	64,678999  	0,155555  	0,078821  	-2967,063594  	12534,336170  	-0,036489  	-0,049987  	0,411678  	0,208600  	-4,216651  	15998,403063  	56523,793594  	8,198083  	-0,047940  
187,550000  	22,860917  	31,853211  	24,172044  	357,439972  	70,147095  	65,318693  	0,006583  	0,011419  	0,003965  	0,004279  	0,004472  	-0,000000  	-0,000000  	26,838957  	24,601369  	25,531434  	25,687304  	29,577270  	27,880400  	29,122593  	29,050423  	32,965357  	31,616089  	34,322833  	59,726766  	26,301114  	25,133703  	28,554577  	64,688684  	0,232574  	0,117847  	-4430,762268  	12537,508933  	-0,036499  	-0,050001  	0,399757  	0,202560  	-4,095322  	15974,472282  	56586,545530  	8,207185  	-0,047953  
188,554000  	22,856679  	31,849762  	24,173703  	956,927186  	70,146410  	65,323545  	0,006573  	0,011429  	0,003965  	0,004236  	0,004446  	-0,000001  	-0,000000  	26,832748  	24,594999  	25,531344  	25,682199  	29,579238  	27,875595  	29,125330  	29,045591  	32,967832  	31,613212  	34,321707  	59,718370  	26,299206  	25,143711  	28,554732  	64,685896  	0,197465  	0,100057  	-3762,245412  	22519,497248  	-0,022178  	-0,050012  	0,379354  	0,192222  	-3,881854  	15996,316097  	56360,519933  	8,174402  	-0,047962  
189,550000  	22,802388  	31,846345  	24,174379  	57,696365  	70,143419  	65,320186  	0,006575  	0,011445  	0,003965  	0,004235  	0,004443  	0,000001  	-0,000000  	26,827705  	24,597302  	25,526818  	25,679812  	29,570981  	27,874643  	29,123414  	29,047477  	32,962970  	31,616175  	34,329057  	59,715592  	26,294208  	25,153975  	28,551832  	64,680371  	0,196726  	0,099683  	-3769,380290  	1817,473862  	-0,053900  	-0,049986  	0,377390  	0,191226  	-3,862045  	16030,766601  	56405,259020  	8,180891  	-0,047940  
190,551000  	22,798949  	31,843758  	24,176160  	1256,670793  	70,146161  	65,315396  	0,006579  	0,011403  	0,003968  	0,004183  	0,004535  	0,000001  	-0,000000  	26,825885  	24,594038  	25,525108  	25,681423  	29,572034  	27,874978  	29,119171  	29,048365  	32,960998  	31,614531  	34,325063  	59,714796  	26,298477  	25,184539  	28,546603  	64,672853  	0,154633  	0,078354  	-2963,136836  	25557,033190  	-0,018532  	-0,049989  	0,449948  	0,227992  	-4,611757  	15940,351447  	56484,894031  	8,192441  	-0,047942  
191,551000  	22,820966  	31,845236  	24,177543  	1256,670793  	70,146005  	65,316205  	0,006574  	0,011429  	0,003964  	0,004246  	0,004406  	0,000000  	-0,000000  	26,830101  	24,598974  	25,527090  	25,684307  	29,580080  	27,883956  	29,125851  	29,057592  	32,974797  	31,610550  	34,327941  	59,721806  	26,302013  	25,215927  	28,559556  	64,680765  	0,205840  	0,104301  	-3935,410762  	25559,356293  	-0,018533  	-0,049995  	0,348078  	0,176373  	-3,566923  	15995,199039  	56378,462171  	8,177005  	-0,047947  
192,551000  	22,851121  	31,843020  	24,177420  	1256,670793  	70,141208  	65,314090  	0,006574  	0,011444  	0,003967  	0,004241  	0,004523  	0,000000  	-0,000000  	26,838163  	24,604543  	25,534162  	25,691674  	29,585730  	27,881852  	29,131396  	29,064935  	32,977425  	31,620223  	34,331348  	59,724935  	26,306478  	25,247700  	28,564821  	64,685897  	0,202195  	0,102454  	-3851,850925  	25559,588648  	-0,018534  	-0,049995  	0,440453  	0,223181  	-4,511031  	16028,726327  	56388,347702  	8,178438  	-0,047947  
193,551000  	22,863067  	31,831443  	24,177727  	956,927186  	70,137719  	65,312846  	0,006581  	0,011449  	0,003965  	0,004265  	0,004417  	0,000001  	-0,000000  	26,840300  	24,601644  	25,530043  	25,693945  	29,583087  	27,880564  	29,130385  	29,061574  	32,972538  	31,628148  	34,331909  	59,728477  	26,305662  	25,259806  	28,560392  	64,687873  	0,221468  	0,112219  	-4207,961557  	22509,987774  	-0,022168  	-0,049989  	0,356806  	0,180796  	-3,652640  	16039,664859  	56528,037311  	8,198699  	-0,047942  
194,551000  	22,884747  	31,826517  	24,177850  	357,439972  	70,139588  	65,314525  	0,006581  	0,011458  	0,003965  	0,004174  	0,004460  	-0,000001  	-0,000000  	26,835373  	24,594031  	25,529882  	25,686445  	29,579050  	27,880003  	29,127876  	29,050715  	32,973916  	31,622835  	34,330405  	59,728042  	26,304183  	25,259950  	28,556489  	64,691329  	0,147773  	0,074878  	-2799,406786  	12538,943408  	-0,036504  	-0,050009  	0,390662  	0,197951  	-3,999375  	16059,401899  	56531,977401  	8,199270  	-0,047959  
195,549000  	22,896539  	31,828641  	24,177205  	1256,670793  	70,143918  	65,316080  	0,006571  	0,011436  	0,003967  	0,004261  	0,004484  	0,000000  	-0,000000  	26,836244  	24,592836  	25,531500  	25,686467  	29,578319  	27,880699  	29,126411  	29,046923  	32,969928  	31,617594  	34,325209  	59,720219  	26,306798  	25,262586  	28,551623  	64,694437  	0,217756  	0,110339  	-4120,702816  	25561,398246  	-0,018535  	-0,049999  	0,409732  	0,207614  	-4,197020  	16010,905051  	56324,903779  	8,169237  	-0,047951  
196,553000  	22,892424  	31,834245  	24,177512  	1256,670793  	70,145164  	65,317511  	0,006581  	0,011459  	0,003967  	0,004225  	0,004460  	-0,000000  	-0,000000  	26,841411  	24,600672  	25,534170  	25,691792  	29,581199  	27,886082  	29,128920  	29,051791  	32,971810  	31,624320  	34,329272  	59,723562  	26,313325  	25,263363  	28,556812  	64,697451  	0,189296  	0,095918  	-3586,025913  	25564,087538  	-0,018537  	-0,050005  	0,390941  	0,198093  	-4,004386  	16060,310967  	56541,495755  	8,200651  	-0,047956  
197,550000  	22,872033  	31,841295  	24,177481  	1256,670793  	70,148279  	65,315925  	0,006578  	0,011433  	0,003964  	0,004239  	0,004452  	0,000001  	-0,000000  	26,837028  	24,599196  	25,529803  	25,682262  	29,577409  	27,885153  	29,123912  	29,051289  	32,971228  	31,618932  	34,331406  	59,721652  	26,310158  	25,250895  	28,560300  	64,685461  	0,200466  	0,101578  	-3809,298464  	25558,379290  	-0,018533  	-0,049992  	0,384163  	0,194658  	-3,938795  	16005,477524  	56463,329452  	8,189314  	-0,047945  
198,552000  	22,890520  	31,850840  	24,176130  	657,183579  	70,145724  	65,320466  	0,006573  	0,011437  	0,003965  	0,004246  	0,004489  	0,000002  	-0,000000  	26,827454  	24,591910  	25,515621  	25,671826  	29,570282  	27,878773  	29,114488  	29,045868  	32,959361  	31,610187  	34,319950  	59,711213  	26,301951  	25,239212  	28,547310  	64,669070  	0,206263  	0,104515  	-3915,543732  	18480,365841  	-0,027575  	-0,049976  	0,413169  	0,209356  	-4,229971  	16014,494633  	56361,953335  	8,174610  	-0,047931  
199,550000  	22,876332  	31,856382  	24,175853  	657,183579  	70,148403  	65,322456  	0,006576  	0,011453  	0,003965  	0,004245  	0,004451  	0,000000  	-0,000000  	26,822745  	24,592812  	25,515852  	25,677589  	29,570649  	27,872826  	29,117675  	29,043284  	32,959782  	31,620043  	34,314395  	59,715914  	26,300915  	25,234273  	28,538139  	64,674382  	0,204982  	0,103866  	-3899,795900  	18487,630421  	-0,027585  	-0,049998  	0,383639  	0,194393  	-3,928209  	16047,852133  	56438,121349  	8,185657  	-0,047950  
200,552000  	22,851950  	31,859769  	24,175423  	57,696365  	70,147656  	65,321648  	0,006581  	0,011437  	0,003966  	0,004243  	0,004461  	0,000000  	-0,000000  	26,822374  	24,592735  	25,523775  	25,681306  	29,574500  	27,866051  	29,122524  	29,045961  	32,963108  	31,617065  	34,317132  	59,718243  	26,300208  	25,220431  	28,541921  	64,682873  	0,203204  	0,102965  	-3877,926962  	1817,849397  	-0,053913  	-0,050000  	0,391499  	0,198376  	-4,008739  	16013,595469  	56546,918674  	8,201437  	-0,047951  
201,551000  	22,840435  	31,860569  	24,174379  	1256,670793  	70,142547  	65,319159  	0,006568  	0,011428  	0,003963  	0,004234  	0,004512  	-0,000001  	-0,000000  	26,826653  	24,595952  	25,523032  	25,680463  	29,580825  	27,869230  	29,122529  	29,051600  	32,963653  	31,615043  	34,320239  	59,719596  	26,309043  	25,213731  	28,550341  	64,679653  	0,196477  	0,099556  	-3754,684713  	25567,268441  	-0,018539  	-0,050012  	0,431556  	0,218673  	-4,416498  	15993,381610  	56264,107765  	8,160419  	-0,047961  
202,552000  	22,845471  	31,863156  	24,173641  	1256,670793  	70,140865  	65,320652  	0,006583  	0,011463  	0,003964  	0,004186  	0,004450  	0,000001  	-0,000000  	26,827852  	24,587574  	25,515268  	25,679891  	29,563444  	27,871422  	29,115840  	29,042482  	32,959569  	31,612769  	34,314600  	59,708671  	26,302089  	25,192546  	28,547706  	64,663101  	0,157571  	0,079843  	-3010,373803  	25557,193499  	-0,018532  	-0,049990  	0,382336  	0,193733  	-3,910212  	16070,233607  	56569,662456  	8,204736  	-0,047942  
203,550000  	22,859658  	31,860754  	24,173549  	1256,670793  	70,145008  	65,322456  	0,006581  	0,011428  	0,003968  	0,004262  	0,004457  	0,000000  	-0,000000  	26,837016  	24,604029  	25,528743  	25,682687  	29,572743  	27,887266  	29,131013  	29,058716  	32,976009  	31,620024  	34,330841  	59,726844  	26,319237  	25,196050  	28,559548  	64,681716  	0,218527  	0,110729  	-4167,234834  	25560,358115  	-0,018534  	-0,049996  	0,388058  	0,196632  	-3,970655  	15993,994258  	56527,811356  	8,198666  	-0,047948  
204,551000  	22,862974  	31,857183  	24,172751  	1256,670793  	70,145818  	65,324571  	0,006573  	0,011429  	0,003966  	0,004243  	0,004445  	0,000002  	-0,000000  	26,831959  	24,601989  	25,529634  	25,684205  	29,578996  	27,893624  	29,127401  	29,056957  	32,983304  	31,626559  	34,337761  	59,723402  	26,316662  	25,188123  	28,563674  	64,684268  	0,203902  	0,103319  	-3885,363920  	25552,980677  	-0,018529  	-0,049980  	0,379062  	0,192073  	-3,877560  	15996,062831  	56367,616332  	8,175432  	-0,047935  
205,549000  	22,857938  	31,851517  	24,169863  	-242,047242  	70,144603  	65,321585  	0,006576  	0,011465  	0,003964  	0,004188  	0,004480  	-0,000001  	-0,000000  	26,827811  	24,596781  	25,523604  	25,679559  	29,574946  	27,876010  	29,127233  	29,052822  	32,969706  	31,616767  	34,314174  	59,715141  	26,317335  	25,174599  	28,556069  	64,685110  	0,159322  	0,080730  	-3035,688750  	-27062,167085  	-0,103136  	-0,050009  	0,406038  	0,205743  	-4,155034  	16072,776168  	56422,459844  	8,183386  	-0,047959  
206,551000  	22,860518  	31,848993  	24,171522  	357,439972  	70,149587  	65,321212  	0,006581  	0,011432  	0,003965  	0,004280  	0,004425  	-0,000000  	-0,000000  	26,847465  	24,612248  	25,529756  	25,698914  	29,587192  	27,901790  	29,133830  	29,067465  	32,982958  	31,638287  	34,332036  	59,737616  	26,328716  	25,181196  	28,566690  	64,696019  	0,233591  	0,118362  	-4448,262810  	12538,452247  	-0,036501  	-0,050006  	0,362734  	0,183800  	-3,716020  	16002,665426  	56543,670572  	8,200966  	-0,047956  
207,549000  	22,860057  	31,850286  	24,172075  	1256,670793  	70,150864  	65,322985  	0,006579  	0,011460  	0,003966  	0,004198  	0,004495  	-0,000000  	-0,000000  	26,837309  	24,593303  	25,518198  	25,673370  	29,577974  	27,876379  	29,111776  	29,044446  	32,965445  	31,619928  	34,324658  	59,723251  	26,322618  	25,173181  	28,549588  	64,687954  	0,167151  	0,084697  	-3183,663361  	25563,393486  	-0,018536  	-0,050003  	0,417996  	0,211802  	-4,281715  	16063,095475  	56503,782455  	8,195181  	-0,047954  
208,552000  	22,843291  	31,849855  	24,171276  	57,696365  	70,147188  	65,323731  	0,006573  	0,011446  	0,003964  	0,004252  	0,004406  	0,000002  	-0,000000  	26,838695  	24,598236  	25,532745  	25,683047  	29,576592  	27,882180  	29,126393  	29,056961  	32,976595  	31,616348  	34,323607  	59,714893  	26,333281  	25,173672  	28,554712  	64,691657  	0,210812  	0,106820  	-4022,558522  	1817,438008  	-0,053894  	-0,049980  	0,347848  	0,176257  	-3,559892  	16033,055897  	56360,745888  	8,174435  	-0,047934  
209,549000  	22,832113  	31,849362  	24,171399  	57,696365  	70,143201  	65,319439  	0,006578  	0,011470  	0,003967  	0,004204  	0,004467  	-0,000001  	-0,000000  	26,835775  	24,601310  	25,532658  	25,692641  	29,582707  	27,888006  	29,129224  	29,058712  	32,981545  	31,629098  	34,321048  	59,724503  	26,329550  	25,175703  	28,558345  	64,682426  	0,171681  	0,086992  	-3279,785220  	1818,482666  	-0,053925  	-0,050012  	0,396345  	0,200831  	-4,056472  	16084,011828  	56475,622815  	8,191097  	-0,047962  
210,553000  	22,816329  	31,852256  	24,170723  	1256,670793  	70,139277  	65,319688  	0,006583  	0,011453  	0,003963  	0,004280  	0,004438  	0,000000  	-0,000000  	26,830672  	24,594867  	25,519748  	25,691683  	29,575358  	27,878270  	29,123029  	29,054668  	32,973340  	31,624844  	34,323486  	59,726681  	26,332228  	25,167314  	28,551528  	64,680729  	0,233094  	0,118110  	-4462,238459  	25561,149869  	-0,018535  	-0,049998  	0,372856  	0,188929  	-3,812762  	16048,677723  	56570,530971  	8,204862  	-0,047950  
211,551000  	22,821120  	31,850409  	24,171460  	1256,670793  	70,136722  	65,319657  	0,006571  	0,011441  	0,003965  	0,004266  	0,004469  	-0,000001  	-0,000000  	26,831152  	24,598689  	25,531042  	25,686720  	29,576062  	27,878979  	29,126844  	29,059528  	32,977376  	31,629471  	34,322973  	59,721004  	26,339561  	25,162525  	28,549145  	64,685621  	0,221856  	0,112416  	-4243,979063  	25570,360027  	-0,018541  	-0,050018  	0,397507  	0,201420  	-4,062713  	16022,807832  	56322,580679  	8,168900  	-0,047967  
212,551000  	22,828919  	31,845421  	24,172382  	57,696365  	70,131178  	65,321896  	0,006575  	0,011454  	0,003965  	0,004224  	0,004486  	0,000002  	-0,000000  	26,840150  	24,601909  	25,528912  	25,690233  	29,573206  	27,883754  	29,129040  	29,059041  	32,978649  	31,621706  	34,330119  	59,718288  	26,343795  	25,180766  	28,552358  	64,688377  	0,188382  	0,095454  	-3598,527884  	1817,321622  	-0,053892  	-0,049978  	0,410901  	0,208206  	-4,192816  	16049,923535  	56412,404847  	8,181928  	-0,047933  
213,549000  	22,861961  	31,841049  	24,172013  	1256,670793  	70,129683  	65,315520  	0,006583  	0,011443  	0,003965  	0,004221  	0,004472  	-0,000000  	-0,000000  	26,833432  	24,591052  	25,515417  	25,680612  	29,566156  	27,873565  	29,119056  	29,053228  	32,967529  	31,614339  	34,319406  	59,706880  	26,337341  	25,175384  	28,548979  	64,677420  	0,186066  	0,094281  	-3539,542337  	25562,343473  	-0,018536  	-0,050001  	0,400231  	0,202800  	-4,088084  	16027,137403  	56589,588861  	8,207626  	-0,047952  
214,553000  	22,875227  	31,834830  	24,172013  	1256,670793  	70,133358  	65,316453  	0,006574  	0,011460  	0,003963  	0,004220  	0,004521  	0,000000  	-0,000000  	26,839871  	24,599277  	25,533331  	25,686353  	29,576579  	27,884046  	29,122834  	29,056856  	32,968615  	31,622615  	34,332171  	59,718947  	26,347254  	25,186046  	28,562771  	64,689788  	0,185174  	0,093829  	-3514,928687  	25561,272748  	-0,018535  	-0,049998  	0,438565  	0,222224  	-4,482193  	16062,949034  	56387,443882  	8,178307  	-0,047950  
215,552000  	22,866199  	31,833352  	24,171460  	1256,670793  	70,137844  	65,313623  	0,006575  	0,011427  	0,003965  	0,004271  	0,004454  	0,000002  	-0,000000  	26,839328  	24,593370  	25,527563  	25,688967  	29,582812  	27,885528  	29,139028  	29,058027  	32,975506  	31,624628  	34,328790  	59,711909  	26,348832  	25,178392  	28,552943  	64,676721  	0,226328  	0,114682  	-4299,721647  	25552,532074  	-0,018528  	-0,049979  	0,386032  	0,195605  	-3,951286  	15992,379866  	56398,911098  	8,179970  	-0,047934  
216,554000  	22,845563  	31,833413  	24,172198  	57,696365  	70,138965  	65,312006  	0,006581  	0,011435  	0,003966  	0,004196  	0,004482  	-0,000000  	-0,000000  	26,833331  	24,592123  	25,520322  	25,681893  	29,580890  	27,878653  	29,124110  	29,044138  	32,961447  	31,620564  	34,316461  	59,713220  	26,342602  	25,175310  	28,548326  	64,676900  	0,165689  	0,083956  	-3154,989972  	1818,075946  	-0,053914  	-0,050001  	0,408331  	0,206905  	-4,181910  	16010,153743  	56531,765568  	8,199239  	-0,047952  
217,550000  	22,830363  	31,841234  	24,173519  	1256,670793  	70,138872  	65,310979  	0,006574  	0,011427  	0,003966  	0,004267  	0,004492  	-0,000000  	-0,000000  	26,828334  	24,597702  	25,522036  	25,683661  	29,579951  	27,879468  	29,128214  	29,047702  	32,965566  	31,617059  	34,328126  	59,717507  	26,351647  	25,182519  	28,552285  	64,678446  	0,223324  	0,113160  	-4263,351842  	25562,932964  	-0,018536  	-0,050002  	0,415718  	0,210648  	-4,258385  	15992,447074  	56383,553220  	8,177743  	-0,047953  
218,555000  	22,841847  	31,846653  	24,174440  	1256,670793  	70,135507  	65,311290  	0,006572  	0,011440  	0,003965  	0,004183  	0,004484  	-0,000000  	-0,000000  	26,823935  	24,591300  	25,511384  	25,678986  	29,579850  	27,877870  	29,120883  	29,058336  	32,968762  	31,612264  	34,322382  	59,715028  	26,349987  	25,182850  	28,551512  	64,677262  	0,155159  	0,078620  	-2960,058225  	25563,253114  	-0,018536  	-0,050003  	0,409296  	0,207393  	-4,189403  	16019,057660  	56353,578878  	8,173396  	-0,047954  
219,549000  	22,848757  	31,847392  	24,174809  	1256,670793  	70,133047  	65,307651  	0,006578  	0,011422  	0,003966  	0,004271  	0,004432  	0,000001  	-0,000000  	26,829084  	24,597373  	25,519108  	25,680153  	29,575776  	27,879204  	29,122409  	29,059361  	32,967997  	31,615349  	34,325784  	59,721386  	26,352890  	25,185369  	28,551843  	64,680301  	0,226008  	0,114520  	-4308,718869  	25555,135874  	-0,018530  	-0,049985  	0,368272  	0,186606  	-3,770422  	15980,077378  	56479,534661  	8,191664  	-0,047939  
220,552000  	22,858460  	31,845298  	24,175607  	1256,670793  	70,132673  	65,311757  	0,006582  	0,011469  	0,003967  	0,004192  	0,004492  	0,000001  	-0,000000  	26,832373  	24,603826  	25,525528  	25,677113  	29,577965  	27,886318  	29,122603  	29,052175  	32,973311  	31,624832  	34,325177  	59,719856  	26,355024  	25,197763  	28,547058  	64,676928  	0,162291  	0,082234  	-3089,930224  	25558,400753  	-0,018533  	-0,049992  	0,416192  	0,210888  	-4,257081  	16083,000887  	56566,421414  	8,204266  	-0,047945  
221,553000  	22,864725  	31,840341  	24,176222  	57,696365  	70,132081  	65,312566  	0,006569  	0,011433  	0,003966  	0,004257  	0,004424  	0,000000  	-0,000000  	26,833217  	24,604736  	25,524497  	25,679521  	29,580318  	27,879920  	29,118933  	29,050146  	32,969173  	31,622487  	34,322236  	59,716313  	26,354162  	25,203459  	28,548386  	64,671096  	0,215233  	0,109060  	-4092,796627  	1817,779920  	-0,053912  	-0,049999  	0,362064  	0,183461  	-3,702347  	16004,085977  	56285,001540  	8,163449  	-0,047950  
222,552000  	22,851643  	31,838986  	24,176775  	657,183579  	70,132330  	65,311508  	0,006579  	0,011421  	0,003965  	0,004253  	0,004494  	-0,000001  	-0,000000  	26,839218  	24,601446  	25,524494  	25,684607  	29,579323  	27,876860  	29,124149  	29,056098  	32,963016  	31,623364  	34,329147  	59,721266  	26,357476  	25,210871  	28,557541  	64,676148  	0,211613  	0,107226  	-4029,228523  	18491,264304  	-0,027591  	-0,050009  	0,417334  	0,211466  	-4,268680  	15978,861985  	56504,446198  	8,195277  	-0,047959  
223,550000  	22,842615  	31,841295  	24,178249  	657,183579  	70,132860  	65,312783  	0,006583  	0,011442  	0,003963  	0,004256  	0,004393  	0,000000  	-0,000000  	26,840630  	24,597388  	25,526086  	25,686144  	29,583426  	27,884914  	29,130548  	29,059377  	32,969203  	31,629439  	34,329617  	59,723461  	26,363248  	25,219602  	28,555412  	64,683412  	0,214439  	0,108658  	-4088,190507  	18488,117371  	-0,027586  	-0,050000  	0,337137  	0,170830  	-3,447850  	16023,593805  	56575,904463  	8,205641  	-0,047951  
224,551000  	22,839606  	31,844559  	24,179908  	1256,670793  	70,132860  	65,309424  	0,006572  	0,011413  	0,003970  	0,004229  	0,004537  	0,000001  	-0,000000  	26,836765  	24,602394  	25,529047  	25,686725  	29,585218  	27,886004  	29,133474  	29,059295  	32,974158  	31,625782  	34,326877  	59,718058  	26,371452  	25,219586  	28,549493  	64,683613  	0,192501  	0,097542  	-3672,509467  	25557,241102  	-0,018532  	-0,049990  	0,451688  	0,228874  	-4,622570  	15961,235965  	56351,093374  	8,173035  	-0,047943  
225,550000  	22,818049  	31,845359  	24,181506  	956,927186  	70,131707  	65,305381  	0,006577  	0,011449  	0,003964  	0,004177  	0,004489  	0,000001  	-0,000000  	26,832837  	24,602777  	25,525259  	25,682192  	29,576815  	27,881472  	29,131154  	29,058773  	32,970535  	31,621741  	34,325392  	59,714957  	26,370951  	25,218310  	28,547393  	64,679926  	0,150372  	0,076194  	-2875,898468  	22508,617226  	-0,022167  	-0,049986  	0,413355  	0,209450  	-4,232801  	16039,398152  	56450,153452  	8,187403  	-0,047940  
226,551000  	22,799379  	31,841850  	24,181321  	-242,047242  	70,129278  	65,303826  	0,006582  	0,011425  	0,003967  	0,004194  	0,004455  	0,000001  	-0,000000  	26,829915  	24,594237  	25,522786  	25,683628  	29,572073  	27,877154  	29,125003  	29,056014  	32,969471  	31,617668  	34,320395  	59,719605  	26,363484  	25,214008  	28,548328  	64,675458  	0,163474  	0,082834  	-3131,745469  	-27054,309895  	-0,103102  	-0,049992  	0,386579  	0,195883  	-3,957896  	15986,597909  	56558,696578  	8,203145  	-0,047945  
227,550000  	22,774690  	31,839817  	24,180953  	657,183579  	70,132548  	65,304541  	0,006574  	0,011443  	0,003968  	0,004265  	0,004493  	-0,000001  	-0,000000  	26,831356  	24,590596  	25,522085  	25,679156  	29,574764  	27,876404  	29,122002  	29,049681  	32,969232  	31,613414  	34,321735  	59,715533  	26,369644  	25,214234  	28,557712  	64,671394  	0,221728  	0,112351  	-4258,377787  	18490,789939  	-0,027590  	-0,050008  	0,417105  	0,211350  	-4,272692  	16026,702323  	56390,543702  	8,178757  	-0,047958  
228,552000  	22,747913  	31,837046  	24,181260  	1256,670793  	70,135040  	65,308709  	0,006573  	0,011448  	0,003964  	0,004227  	0,004421  	0,000000  	-0,000000  	26,815051  	24,582397  	25,513081  	25,675464  	29,568936  	27,860280  	29,113066  	29,033758  	32,955621  	31,606222  	34,308578  	59,708973  	26,360590  	25,208104  	28,534828  	64,659735  	0,190911  	0,096736  	-3676,249564  	25560,433739  	-0,018534  	-0,049997  	0,359308  	0,182064  	-3,679354  	16036,468617  	56361,303715  	8,174516  	-0,047949  
229,551000  	22,747637  	31,831135  	24,183472  	57,696365  	70,132642  	65,303297  	0,006584  	0,011417  	0,003964  	0,004239  	0,004428  	-0,000002  	-0,000000  	26,833925  	24,594610  	25,518725  	25,686639  	29,569791  	27,872033  	29,120072  	29,050707  	32,965969  	31,616436  	34,314789  	59,711623  	26,357752  	25,218833  	28,543776  	64,674006  	0,200304  	0,101495  	-3854,723494  	1818,170376  	-0,053935  	-0,050024  	0,365190  	0,185045  	-3,741926  	15969,816579  	56593,197080  	8,208149  	-0,047972  
230,552000  	22,776010  	31,821036  	24,184946  	1256,670793  	70,130337  	65,305847  	0,006580  	0,011441  	0,003965  	0,004258  	0,004424  	0,000002  	-0,000000  	26,833709  	24,603402  	25,531650  	25,680310  	29,578551  	27,876639  	29,120040  	29,046677  	32,974444  	31,621328  	34,318517  	59,708925  	26,360956  	25,225323  	28,539763  	64,676477  	0,215716  	0,109305  	-4133,721992  	25551,838369  	-0,018528  	-0,049979  	0,362333  	0,183597  	-3,708922  	16021,907961  	56522,028321  	8,197827  	-0,047933  
231,550000  	22,794066  	31,808474  	24,185776  	1256,670793  	70,130679  	65,300902  	0,006575  	0,011468  	0,003967  	0,004188  	0,004474  	-0,000001  	-0,000000  	26,840789  	24,600224  	25,536902  	25,690181  	29,585574  	27,882166  	29,127766  	29,066498  	32,974358  	31,626357  	34,330744  	59,722196  	26,367415  	25,236548  	28,551368  	64,680609  	0,158976  	0,080554  	-3036,121123  	25566,088181  	-0,018538  	-0,050010  	0,401366  	0,203375  	-4,112969  	16081,344048  	56405,117799  	8,180871  	-0,047960  
232,554000  	22,819738  	31,796775  	24,187066  	1256,670793  	70,134542  	65,297419  	0,006580  	0,011395  	0,003966  	0,004271  	0,004445  	0,000002  	-0,000000  	26,834705  	24,599536  	25,526349  	25,687744  	29,578571  	27,878830  	29,127192  	29,056551  	32,967286  	31,612033  	34,316255  	59,720164  	26,358676  	25,228945  	28,547080  	64,681735  	0,226038  	0,114535  	-4298,961651  	25552,870298  	-0,018529  	-0,049981  	0,378544  	0,191811  	-3,884997  	15923,795793  	56505,265285  	8,195396  	-0,047935  
233,549000  	22,841817  	31,789632  	24,189155  	1256,670793  	70,136193  	65,302551  	0,006580  	0,011452  	0,003968  	0,004221  	0,004420  	-0,000001  	-0,000000  	26,820319  	24,597931  	25,518319  	25,677363  	29,589404  	27,879263  	29,120051  	29,045780  	32,974942  	31,624348  	34,321975  	59,727298  	26,355096  	25,228626  	28,550606  	64,684338  	0,185337  	0,093912  	-3513,404476  	25566,221899  	-0,018539  	-0,050010  	0,359027  	0,181922  	-3,682048  	16045,439034  	56505,837234  	8,195479  	-0,047960  
234,551000  	22,844642  	31,789262  	24,192104  	1256,670793  	70,129153  	65,304230  	0,006569  	0,011444  	0,003965  	0,004280  	0,004504  	0,000001  	-0,000000  	26,823939  	24,593141  	25,520161  	25,678762  	29,576687  	27,872500  	29,119252  	29,047175  	32,967761  	31,612316  	34,315567  	59,717774  	26,353284  	25,213529  	28,556742  	64,675262  	0,233247  	0,118188  	-4420,029679  	25558,234514  	-0,018533  	-0,049993  	0,425063  	0,215383  	-4,351430  	16028,282758  	56277,389682  	8,162345  	-0,047946  
235,550000  	22,849340  	31,792772  	24,194961  	1256,670793  	70,123422  	65,303670  	0,006576  	0,011477  	0,003965  	0,004236  	0,004465  	0,000002  	-0,000000  	26,819408  	24,588370  	25,520828  	25,671361  	29,575284  	27,866594  	29,129435  	29,043244  	32,970026  	31,606332  	34,315461  	59,716324  	26,356633  	25,215268  	28,537555  	64,684570  	0,197632  	0,100142  	-3744,642120  	25550,727495  	-0,018527  	-0,049977  	0,394171  	0,199729  	-4,030853  	16099,721377  	56426,675316  	8,183997  	-0,047932  
236,551000  	22,851121  	31,800900  	24,197111  	1256,670793  	70,121553  	65,305350  	0,006585  	0,011413  	0,003965  	0,004256  	0,004446  	-0,000000  	-0,000000  	26,832857  	24,590992  	25,520647  	25,680917  	29,572900  	27,881133  	29,121900  	29,052329  	32,963253  	31,612974  	34,319103  	59,717529  	26,357870  	25,203222  	28,550486  	64,682331  	0,214287  	0,108581  	-4063,085413  	25564,017075  	-0,018537  	-0,050006  	0,379138  	0,192112  	-3,874269  	15962,386980  	56627,824682  	8,213172  	-0,047957  
237,550000  	22,837886  	31,812969  	24,201227  	956,927186  	70,125664  	65,304106  	0,006566  	0,011425  	0,003966  	0,004264  	0,004472  	-0,000001  	-0,000000  	26,815174  	24,580250  	25,499338  	25,658533  	29,554538  	27,862455  	29,110147  	29,038030  	32,951296  	31,605779  	34,310789  	59,703484  	26,345789  	25,187604  	28,538706  	64,661571  	0,220204  	0,111579  	-4187,094569  	22518,159746  	-0,022177  	-0,050012  	0,399714  	0,202538  	-4,089069  	15988,209471  	56212,173424  	8,152886  	-0,047961  
238,552000  	22,821672  	31,821344  	24,202456  	-242,047242  	70,124294  	65,297139  	0,006582  	0,011463  	0,003965  	0,004188  	0,004444  	-0,000001  	-0,000000  	26,830554  	24,597729  	25,524770  	25,677949  	29,564568  	27,873680  	29,119005  	29,047568  	32,967301  	31,622978  	34,313343  	59,718330  	26,360212  	25,205641  	28,550047  	64,671478  	0,159349  	0,080743  	-3038,259217  	-27061,893768  	-0,103122  	-0,050007  	0,377909  	0,191489  	-3,870494  	16068,559082  	56561,273877  	8,203519  	-0,047958  
239,551000  	22,817250  	31,827163  	24,204852  	657,183579  	70,121397  	65,294962  	0,006581  	0,011439  	0,003966  	0,004282  	0,004467  	0,000001  	-0,000000  	26,822354  	24,588544  	25,508160  	25,677386  	29,561526  	27,875950  	29,117964  	29,045573  	32,963088  	31,608857  	34,310089  	59,719337  	26,353948  	25,198734  	28,541644  	64,676033  	0,234990  	0,119071  	-4485,585777  	18483,409596  	-0,027580  	-0,049989  	0,395985  	0,200648  	-4,055013  	16018,063698  	56527,980822  	8,198690  	-0,047942  
240,551000  	22,805582  	31,829442  	24,207064  	1256,670793  	70,120961  	65,297823  	0,006580  	0,011461  	0,003965  	0,004212  	0,004484  	0,000000  	-0,000000  	26,818036  	24,587133  	25,502110  	25,665141  	29,559762  	27,863797  	29,109869  	29,038881  	32,958399  	31,606656  	34,302740  	59,716719  	26,340499  	25,201837  	28,535800  	64,677256  	0,178177  	0,090284  	-3406,377435  	25558,082514  	-0,018533  	-0,049994  	0,409584  	0,207539  	-4,191407  	16064,490559  	56511,224848  	8,196260  	-0,047946  
241,549000  	22,790473  	31,827933  	24,208416  	956,927186  	70,117721  	65,294775  	0,006571  	0,011428  	0,003964  	0,004235  	0,004423  	-0,000000  	-0,000000  	26,822017  	24,595238  	25,515237  	25,677666  	29,561640  	27,863366  	29,116350  	29,045934  	32,967285  	31,608466  	34,315754  	59,719781  	26,352846  	25,211560  	28,549924  	64,683288  	0,197222  	0,099934  	-3776,172506  	22515,638294  	-0,022175  	-0,050006  	0,360908  	0,182875  	-3,693144  	15993,441035  	56327,036229  	8,169546  	-0,047957  
242,551000  	22,823085  	31,824731  	24,209890  	-242,047242  	70,117534  	65,293842  	0,006585  	0,011463  	0,003967  	0,004215  	0,004511  	-0,000001  	-0,000000  	26,828851  	24,597158  	25,517301  	25,678291  	29,570476  	27,870249  	29,114788  	29,047882  	32,955270  	31,610353  	34,321527  	59,715751  	26,342408  	25,205261  	28,546900  	64,673027  	0,180744  	0,091584  	-3446,942481  	-27063,875726  	-0,103127  	-0,050011  	0,430864  	0,218322  	-4,409679  	16069,311097  	56616,887048  	8,211585  	-0,047961  
243,550000  	22,856434  	31,819651  	24,212194  	-242,047242  	70,116880  	65,291198  	0,006581  	0,011452  	0,003965  	0,004271  	0,004457  	0,000002  	-0,000000  	26,823839  	24,586515  	25,507803  	25,668334  	29,567408  	27,871912  	29,113867  	29,037275  	32,945664  	31,606530  	34,308351  	59,716544  	26,334025  	25,188503  	28,538462  	64,668835  	0,226170  	0,114602  	-4294,830331  	-27049,229033  	-0,103070  	-0,049981  	0,388397  	0,196804  	-3,976695  	16045,523220  	56527,528912  	8,198625  	-0,047935  
244,551000  	22,839544  	31,814170  	24,212993  	956,927186  	70,120930  	65,295242  	0,006575  	0,011440  	0,003965  	0,004233  	0,004414  	0,000001  	-0,000000  	26,825822  	24,586804  	25,508973  	25,671421  	29,566295  	27,864839  	29,114081  	29,031309  	32,955836  	31,607767  	34,309452  	59,717769  	26,336462  	25,185998  	28,539937  	64,672568  	0,195796  	0,099211  	-3722,789666  	22508,784751  	-0,022168  	-0,049989  	0,353976  	0,179362  	-3,624268  	16019,952580  	56414,918596  	8,182292  	-0,047942  
245,550000  	22,833525  	31,808351  	24,214590  	956,927186  	70,127502  	65,294060  	0,006582  	0,011457  	0,003965  	0,004198  	0,004439  	-0,000000  	-0,000000  	26,828823  	24,593050  	25,510788  	25,670774  	29,572127  	27,862151  	29,114566  	29,039074  	32,958545  	31,612212  	34,310995  	59,718987  	26,344347  	25,181383  	28,553709  	64,681851  	0,166969  	0,084604  	-3174,749029  	22513,955413  	-0,022173  	-0,050002  	0,374235  	0,189627  	-3,837849  	16055,765626  	56559,579215  	8,203273  	-0,047953  
246,552000  	22,858092  	31,811923  	24,215696  	357,439972  	70,129620  	65,300218  	0,006583  	0,011451  	0,003965  	0,004325  	0,004460  	0,000000  	-0,000000  	26,822251  	24,590360  	25,510254  	25,664966  	29,568086  	27,865081  	29,114424  	29,040894  	32,957758  	31,608252  	34,312200  	59,715987  	26,347920  	25,173983  	28,551261  	64,676991  	0,270180  	0,136902  	-5125,187751  	12534,109832  	-0,036493  	-0,049996  	0,390520  	0,197879  	-4,001514  	16044,350982  	56579,646842  	8,206184  	-0,047948  
247,550000  	22,894113  	31,819312  	24,216526  	1256,670793  	70,131956  	65,305941  	0,006572  	0,011424  	0,003967  	0,004164  	0,004481  	0,000001  	-0,000000  	26,812818  	24,588347  	25,509493  	25,665469  	29,558959  	27,862182  	29,113467  	29,035807  	32,953670  	31,603333  	34,314780  	59,713652  	26,350519  	25,165801  	28,543896  	64,672707  	0,139231  	0,070550  	-2632,701654  	25557,577253  	-0,018533  	-0,049993  	0,406954  	0,206206  	-4,166982  	15984,372991  	56342,076357  	8,171727  	-0,047946  
248,551000  	22,908177  	31,819558  	24,218553  	57,696365  	70,131209  	65,312037  	0,006577  	0,011468  	0,003965  	0,004282  	0,004455  	0,000001  	-0,000000  	26,808492  	24,589439  	25,508745  	25,666380  	29,555457  	27,857418  	29,111687  	29,038701  	32,950619  	31,606330  	34,312676  	59,714711  	26,351274  	25,153605  	28,545311  	64,669999  	0,234745  	0,118947  	-4431,880268  	1815,168108  	-0,053902  	-0,049993  	0,386688  	0,195938  	-3,953865  	16079,870438  	56446,700577  	8,186902  	-0,047945  
249,549000  	22,900408  	31,821991  	24,220058  	1256,670793  	70,127845  	65,306065  	0,006583  	0,011463  	0,003967  	0,004244  	0,004469  	0,000001  	-0,000000  	26,817104  	24,589605  	25,515016  	25,664666  	29,561834  	27,864789  	29,112450  	29,044833  	32,955968  	31,616746  	34,317100  	59,720886  	26,354994  	25,150531  	28,550293  	64,670983  	0,204027  	0,103382  	-3856,341408  	25553,808964  	-0,018530  	-0,049985  	0,397946  	0,201642  	-4,071173  	16070,385708  	56575,551408  	8,205590  	-0,047939  
250,550000  	22,887695  	31,830735  	24,221656  	1256,670793  	70,124730  	65,300529  	0,006574  	0,011426  	0,003966  	0,004202  	0,004468  	0,000000  	-0,000000  	26,819033  	24,584763  	25,515100  	25,663237  	29,566271  	27,866587  	29,110312  	29,036662  	32,957058  	31,612831  	34,313396  	59,722153  	26,360311  	25,147459  	28,551111  	64,675420  	0,170236  	0,086260  	-3225,398254  	25557,738439  	-0,018533  	-0,049994  	0,397095  	0,201211  	-4,064507  	15989,010300  	56393,036268  	8,179118  	-0,047946  
251,551000  	22,875073  	31,842558  	24,222577  	1256,670793  	70,122082  	65,300591  	0,006577  	0,011452  	0,003965  	0,004227  	0,004475  	0,000001  	-0,000000  	26,808457  	24,579122  	25,504189  	25,664278  	29,561438  	27,855883  	29,105384  	29,027331  	32,953256  	31,595574  	34,300737  	59,713738  	26,357067  	25,134110  	28,545170  	64,668042  	0,190556  	0,096556  	-3620,267219  	25556,592972  	-0,018532  	-0,049992  	0,402125  	0,203760  	-4,113679  	16046,237741  	56447,512603  	8,187020  	-0,047944  
252,551000  	22,878267  	31,852657  	24,223806  	1256,670793  	70,124200  	65,300218  	0,006578  	0,011466  	0,003965  	0,004224  	0,004471  	-0,000000  	-0,000000  	26,813796  	24,586096  	25,508661  	25,670962  	29,563026  	27,861217  	29,109020  	29,036127  	32,953008  	31,604201  	34,309933  	59,713716  	26,356012  	25,134308  	28,548384  	64,667446  	0,188093  	0,095308  	-3576,228136  	25562,522208  	-0,018536  	-0,050005  	0,399306  	0,202331  	-4,086948  	16076,490260  	56471,033105  	8,190431  	-0,047956  
253,551000  	22,861378  	31,859430  	24,226448  	1256,670793  	70,125166  	65,297854  	0,006574  	0,011453  	0,003967  	0,004258  	0,004466  	0,000000  	-0,000000  	26,811369  	24,587051  	25,517444  	25,670707  	29,560099  	27,865712  	29,109604  	29,037481  	32,954175  	31,613750  	34,306703  	59,712393  	26,353531  	25,135219  	28,552740  	64,666771  	0,215865  	0,109381  	-4115,087352  	25558,479597  	-0,018534  	-0,049996  	0,395433  	0,200369  	-4,050103  	16048,926036  	56380,142712  	8,177248  	-0,047948  
254,550000  	22,822072  	31,858568  	24,227738  	657,183579  	70,127035  	65,310046  	0,006576  	0,011484  	0,003965  	0,004165  	0,004504  	-0,000001  	-0,000000  	26,812397  	24,580994  	25,516025  	25,666302  	29,561497  	27,863427  	29,111623  	29,036454  	32,961667  	31,603538  	34,307723  	59,716090  	26,349362  	25,129164  	28,550125  	64,665728  	0,140438  	0,071161  	-2688,641242  	18488,263478  	-0,027588  	-0,050006  	0,425268  	0,215487  	-4,346370  	16114,922272  	56423,596680  	8,183551  	-0,047957  
255,551000  	22,777576  	31,858014  	24,228936  	657,183579  	70,127751  	65,305599  	0,006580  	0,011458  	0,003965  	0,004269  	0,004462  	-0,000000  	-0,000000  	26,811401  	24,576192  	25,498527  	25,673314  	29,572820  	27,859284  	29,102421  	29,034758  	32,955985  	31,598646  	34,305070  	59,716986  	26,341971  	25,123517  	28,543981  	64,661164  	0,224613  	0,113813  	-4321,070013  	18487,390764  	-0,027587  	-0,050004  	0,392258  	0,198760  	-4,013289  	16057,706150  	56517,763420  	8,197209  	-0,047955  
256,553000  	22,765478  	31,857644  	24,230165  	57,696365  	70,130866  	65,304603  	0,006580  	0,011441  	0,003964  	0,004249  	0,004465  	-0,000001  	-0,000000  	26,811371  	24,575978  	25,511354  	25,668916  	29,563110  	27,860211  	29,099487  	29,040925  	32,950005  	31,600911  	34,296420  	59,706410  	26,330823  	25,115567  	28,539698  	64,659607  	0,208170  	0,105481  	-4009,916690  	1814,992146  	-0,053916  	-0,050008  	0,394489  	0,199890  	-4,039555  	16021,678041  	56519,175639  	8,197413  	-0,047958  
257,550000  	22,781845  	31,851548  	24,232592  	956,927186  	70,129465  	65,308273  	0,006571  	0,011465  	0,003967  	0,004198  	0,004457  	-0,000000  	-0,000000  	26,819060  	24,579612  	25,517701  	25,666852  	29,562514  	27,872475  	29,111571  	29,038510  	32,952324  	31,603672  	34,310435  	59,707402  	26,327445  	25,115035  	28,550010  	64,659252  	0,167444  	0,084845  	-3217,460191  	22513,761412  	-0,022173  	-0,050004  	0,388529  	0,196871  	-3,974353  	16073,379620  	56331,456473  	8,170187  	-0,047954  
258,553000  	22,786819  	31,839848  	24,233882  	-242,047242  	70,127471  	65,309455  	0,006577  	0,011462  	0,003965  	0,004260  	0,004413  	0,000002  	-0,000000  	26,814137  	24,585903  	25,521548  	25,675604  	29,568331  	27,863490  	29,115555  	29,048870  	32,956803  	31,604655  	34,314368  	59,711389  	26,323999  	25,144924  	28,546920  	64,672984  	0,217013  	0,109962  	-4162,258569  	-27049,940625  	-0,103064  	-0,049981  	0,352992  	0,178864  	-3,608456  	16066,351142  	56442,908770  	8,186352  	-0,047935  
259,550000  	22,782397  	31,825070  	24,234804  	657,183579  	70,125259  	65,306874  	0,006587  	0,011434  	0,003967  	0,004187  	0,004475  	-0,000001  	-0,000000  	26,821469  	24,575178  	25,517104  	25,669067  	29,568158  	27,861337  	29,113469  	29,042557  	32,955376  	31,606911  	34,312656  	59,706565  	26,308903  	25,142783  	28,538836  	64,670983  	0,158520  	0,080323  	-3036,893656  	18488,814193  	-0,027590  	-0,050009  	0,402207  	0,203801  	-4,111867  	16007,787336  	56663,419653  	8,218334  	-0,047959  
260,551000  	22,801743  	31,812138  	24,235603  	1256,670793  	70,123141  	65,305816  	0,006573  	0,011447  	0,003964  	0,004273  	0,004415  	0,000000  	-0,000000  	26,832282  	24,585349  	25,518498  	25,666036  	29,570208  	27,873244  	29,121832  	29,039314  	32,957640  	31,606538  	34,320699  	59,713385  	26,306392  	25,156209  	28,551558  	64,666175  	0,227878  	0,115467  	-4350,062728  	25557,108318  	-0,018533  	-0,049994  	0,355170  	0,179967  	-3,630201  	16034,695757  	56372,608525  	8,176156  	-0,047946  
261,551000  	22,843659  	31,807612  	24,237108  	57,696365  	70,124076  	65,306345  	0,006580  	0,011456  	0,003966  	0,004227  	0,004464  	-0,000000  	-0,000000  	26,814470  	24,578345  	25,507165  	25,657931  	29,557310  	27,870172  	29,108654  	29,036520  	32,964700  	31,605354  	34,300980  	59,714676  	26,292743  	25,150387  	28,538397  	64,660517  	0,190157  	0,096354  	-3611,275978  	1814,448509  	-0,053911  	-0,050003  	0,394061  	0,199674  	-4,028047  	16053,791851  	56514,105774  	8,196678  	-0,047954  
262,550000  	22,861285  	31,804164  	24,237599  	657,183579  	70,127502  	65,301182  	0,006584  	0,011441  	0,003965  	0,004294  	0,004421  	0,000000  	-0,000000  	26,828384  	24,595611  	25,512350  	25,678163  	29,574602  	27,877889  	29,123862  	29,047203  	32,958421  	31,611171  	34,315846  	59,717635  	26,307059  	25,160512  	28,553345  	64,667128  	0,244549  	0,123915  	-4633,309183  	18484,728840  	-0,027584  	-0,049997  	0,359532  	0,182178  	-3,681646  	16021,818822  	56600,533556  	8,209213  	-0,047949  
263,550000  	22,832727  	31,803055  	24,236401  	-242,047242  	70,125633  	65,300373  	0,006578  	0,011470  	0,003966  	0,004268  	0,004453  	0,000000  	-0,000000  	26,810969  	24,586152  	25,507246  	25,663295  	29,562204  	27,860021  	29,104003  	29,041711  	32,943398  	31,597055  	34,308807  	59,701153  	26,288070  	25,147904  	28,539711  	64,657630  	0,223659  	0,113330  	-4250,530816  	-27058,585029  	-0,103096  	-0,049999  	0,384657  	0,194909  	-3,938060  	16084,655604  	56470,884822  	8,190409  	-0,047950  
264,550000  	22,808222  	31,806627  	24,236340  	-242,047242  	70,122207  	65,296703  	0,006579  	0,011411  	0,003965  	0,004205  	0,004479  	-0,000000  	-0,000000  	26,829184  	24,587016  	25,527426  	25,674253  	29,571321  	27,865851  	29,113465  	29,041953  	32,953951  	31,615928  	34,324666  	59,708624  	26,298962  	25,151060  	28,550029  	64,666074  	0,172344  	0,087328  	-3285,563040  	-27060,216527  	-0,103103  	-0,050002  	0,405520  	0,205480  	-4,151855  	15957,192203  	56483,721889  	8,192271  	-0,047953  
265,551000  	22,795694  	31,817064  	24,237292  	956,927186  	70,120587  	65,293966  	0,006582  	0,011465  	0,003967  	0,004262  	0,004427  	0,000001  	-0,000000  	26,818190  	24,587878  	25,518853  	25,673453  	29,566777  	27,859947  	29,109250  	29,038427  	32,955987  	31,612547  	34,306359  	59,702664  	26,288284  	25,149503  	28,543098  	64,660555  	0,218750  	0,110842  	-4180,899535  	22505,647426  	-0,022165  	-0,049984  	0,364769  	0,184831  	-3,735494  	16073,893933  	56552,009723  	8,202176  	-0,047938  
266,552000  	22,808529  	31,821621  	24,238029  	357,439972  	70,122331  	65,295024  	0,006579  	0,011439  	0,003968  	0,004201  	0,004465  	0,000000  	-0,000000  	26,818967  	24,584190  	25,514639  	25,677391  	29,562138  	27,860540  	29,111901  	29,036433  	32,955868  	31,608981  	34,311523  	59,717935  	26,289175  	25,145709  	28,553367  	64,662963  	0,169166  	0,085718  	-3230,255746  	12533,311710  	-0,036494  	-0,049997  	0,394276  	0,199783  	-4,038248  	16018,315549  	56503,980166  	8,195209  	-0,047949  
267,550000  	22,820321  	31,820882  	24,238582  	357,439972  	70,121272  	65,298383  	0,006569  	0,011474  	0,003964  	0,004261  	0,004434  	0,000001  	-0,000000  	26,815470  	24,584848  	25,513582  	25,666735  	29,571015  	27,862448  	29,107456  	29,035214  	32,961192  	31,601915  	34,309866  	59,709708  	26,291634  	25,132663  	28,539985  	64,661231  	0,217842  	0,110382  	-4153,942731  	12530,882030  	-0,036487  	-0,049987  	0,369841  	0,187401  	-3,784508  	16092,385160  	56268,415032  	8,161044  	-0,047940  
268,552000  	22,826893  	31,815094  	24,239565  	956,927186  	70,118407  	65,301244  	0,006584  	0,011434  	0,003967  	0,004222  	0,004446  	0,000001  	-0,000000  	26,826954  	24,586775  	25,514248  	25,669836  	29,566994  	27,867792  	29,106673  	29,045198  	32,956139  	31,608464  	34,308506  	59,709719  	26,288715  	25,137490  	28,547610  	64,660920  	0,186184  	0,094341  	-3545,379252  	22506,440861  	-0,022166  	-0,049986  	0,379162  	0,192124  	-3,875286  	16007,383384  	56595,244797  	8,208446  	-0,047939  
269,550000  	22,830178  	31,809983  	24,239412  	1256,670793  	70,118251  	65,294308  	0,006587  	0,011414  	0,003965  	0,004227  	0,004432  	-0,000000  	-0,000000  	26,816958  	24,585952  	25,506198  	25,671321  	29,557606  	27,865508  	29,103316  	29,037404  	32,948466  	31,605503  	34,304652  	59,708270  	26,289338  	25,127616  	28,542347  	64,657546  	0,190910  	0,096736  	-3631,989491  	25562,201312  	-0,018536  	-0,050005  	0,368629  	0,186787  	-3,772933  	15964,041696  	56670,967962  	8,219429  	-0,047956  
270,554000  	22,845471  	31,809182  	24,238982  	657,183579  	70,119621  	65,292567  	0,006571  	0,011448  	0,003966  	0,004283  	0,004495  	0,000000  	-0,000000  	26,812213  	24,583485  	25,509737  	25,667040  	29,555619  	27,864227  	29,114168  	29,038725  	32,950442  	31,607921  	34,310643  	59,711351  	26,291615  	25,126574  	28,546826  	64,664207  	0,235687  	0,119424  	-4475,810029  	18484,488608  	-0,027583  	-0,049996  	0,417956  	0,211781  	-4,280555  	16036,208984  	56314,827598  	8,167775  	-0,047948  
271,553000  	22,868594  	31,810568  	24,238982  	-242,047242  	70,122362  	65,290825  	0,006578  	0,011440  	0,003967  	0,004174  	0,004455  	0,000000  	-0,000000  	26,816895  	24,587789  	25,514356  	25,668118  	29,558594  	27,862058  	29,111395  	29,042998  	32,953846  	31,607095  	34,308098  	59,712058  	26,295077  	25,134551  	28,546888  	64,666821  	0,147852  	0,074918  	-2800,973491  	-27056,595863  	-0,103088  	-0,049995  	0,386523  	0,195854  	-3,962300  	16019,297484  	56482,450893  	8,192087  	-0,047947  
272,550000  	22,909743  	31,813154  	24,238306  	956,927186  	70,129465  	65,293935  	0,006582  	0,011451  	0,003966  	0,004242  	0,004485  	0,000001  	-0,000000  	26,822993  	24,580462  	25,511416  	25,675154  	29,564282  	27,858140  	29,108272  	29,038008  	32,954755  	31,606592  	34,300845  	59,707630  	26,295768  	25,138102  	28,543494  	64,664733  	0,202748  	0,102734  	-3824,369473  	22504,820491  	-0,022165  	-0,049982  	0,410555  	0,208031  	-4,212135  	16044,232839  	56550,724604  	8,201989  	-0,047936  
273,551000  	22,928506  	31,814139  	24,239320  	57,696365  	70,131988  	65,294619  	0,006575  	0,011434  	0,003965  	0,004163  	0,004471  	-0,000000  	-0,000000  	26,819253  	24,582418  	25,506923  	25,675135  	29,562462  	27,859215  	29,109613  	29,035140  	32,956109  	31,609837  	34,298728  	59,704941  	26,292096  	25,136160  	28,546598  	64,666350  	0,138342  	0,070099  	-2604,275088  	1814,334304  	-0,053911  	-0,050003  	0,399289  	0,202323  	-4,098115  	16007,186714  	56417,446468  	8,182659  	-0,047954  
274,551000  	22,897245  	31,821837  	24,238521  	1256,670793  	70,132174  	65,301338  	0,006574  	0,011413  	0,003966  	0,004292  	0,004470  	0,000000  	-0,000000  	26,813642  	24,589865  	25,506561  	25,668687  	29,560227  	27,863989  	29,106992  	29,035550  	32,959045  	31,606835  	34,297787  	59,707897  	26,295571  	25,137093  	28,548301  	64,671129  	0,243608  	0,123438  	-4606,021184  	25558,486732  	-0,018534  	-0,049997  	0,398376  	0,201860  	-4,083222  	15962,293597  	56387,345027  	8,178293  	-0,047949  
275,550000  	22,866752  	31,831812  	24,238429  	357,439972  	70,132050  	65,303701  	0,006582  	0,011435  	0,003965  	0,004188  	0,004442  	0,000001  	-0,000000  	26,813872  	24,581392  	25,509511  	25,661992  	29,559895  	27,862554  	29,105273  	29,033978  	32,953486  	31,605753  	34,295897  	59,707693  	26,301822  	25,138858  	28,547678  	64,667914  	0,159197  	0,080666  	-3023,684212  	12530,610688  	-0,036486  	-0,049985  	0,376357  	0,190703  	-3,855549  	16008,049798  	56562,417774  	8,203685  	-0,047939  
276,553000  	22,857662  	31,845544  	24,238552  	956,927186  	70,133981  	65,305692  	0,006581  	0,011453  	0,003966  	0,004224  	0,004465  	-0,000001  	-0,000000  	26,816215  	24,580785  	25,508441  	25,659760  	29,554309  	27,858987  	29,102997  	29,036275  	32,943852  	31,606669  	34,298023  	59,706745  	26,301421  	25,136612  	28,545494  	64,660802  	0,188479  	0,095504  	-3588,955467  	22517,917441  	-0,022178  	-0,050014  	0,394239  	0,199764  	-4,038697  	16048,635276  	56542,067703  	8,200734  	-0,047964  
277,550000  	22,866936  	31,857059  	24,238459  	956,927186  	70,130212  	65,307123  	0,006569  	0,011456  	0,003966  	0,004262  	0,004471  	0,000001  	-0,000000  	26,821146  	24,591376  	25,507393  	25,666707  	29,557179  	27,861843  	29,105657  	29,040194  	32,948059  	31,603977  	34,304823  	59,713072  	26,305702  	25,140150  	28,545186  	64,668112  	0,218968  	0,110953  	-4170,552806  	22508,855444  	-0,022169  	-0,049992  	0,399026  	0,202189  	-4,083332  	16054,277866  	56285,142762  	8,163470  	-0,047945  
278,551000  	22,853301  	31,858291  	24,239320  	357,439972  	70,129838  	65,309175  	0,006583  	0,011472  	0,003966  	0,004193  	0,004482  	-0,000001  	-0,000000  	26,818708  	24,587308  	25,510352  	25,669370  	29,562038  	27,864044  	29,115649  	29,038952  	32,952462  	31,607066  	34,305130  	59,712367  	26,310655  	25,147987  	28,547996  	64,675153  	0,163199  	0,082694  	-3113,496877  	12537,152585  	-0,036505  	-0,050015  	0,407956  	0,206714  	-4,172614  	16088,686632  	56577,761530  	8,205911  	-0,047964  
279,550000  	22,854683  	31,853580  	24,240702  	357,439972  	70,130337  	65,310109  	0,006581  	0,011420  	0,003966  	0,004258  	0,004434  	0,000001  	-0,000000  	26,811645  	24,579299  	25,507754  	25,661849  	29,554902  	27,861737  	29,114981  	29,037870  	32,948106  	31,600879  	34,300253  	59,708046  	26,307234  	25,147329  	28,540094  	64,666474  	0,215505  	0,109198  	-4108,612087  	12531,811309  	-0,036489  	-0,049991  	0,369826  	0,187394  	-3,782277  	15976,368945  	56541,552244  	8,200659  	-0,047944  
280,550000  	22,851551  	31,852657  	24,242115  	-242,047242  	70,129028  	65,308491  	0,006571  	0,011468  	0,003966  	0,004211  	0,004469  	-0,000001  	-0,000000  	26,814259  	24,581309  	25,515032  	25,663759  	29,562814  	27,856011  	29,111798  	29,034921  	32,953300  	31,598983  	34,305058  	59,710123  	26,316277  	25,145202  	28,543988  	64,665482  	0,177433  	0,089907  	-3383,596613  	-27062,732608  	-0,103110  	-0,050007  	0,397590  	0,201462  	-4,066489  	16079,832236  	56319,318454  	8,168427  	-0,047958  
281,552000  	22,830455  	31,850132  	24,242760  	956,927186  	70,130306  	65,305754  	0,006580  	0,011391  	0,003965  	0,004225  	0,004462  	0,000000  	-0,000000  	26,821640  	24,584330  	25,513368  	25,671279  	29,558345  	27,864222  	29,107950  	29,041737  	32,955246  	31,599969  	34,306629  	59,709178  	26,326034  	25,149628  	28,542882  	64,668205  	0,188528  	0,095528  	-3602,587071  	22511,890495  	-0,022172  	-0,050000  	0,392183  	0,198722  	-4,014517  	15913,893669  	56518,850829  	8,197366  	-0,047951  
282,552000  	22,796185  	31,845944  	24,244296  	357,439972  	70,124325  	65,305816  	0,006579  	0,011421  	0,003965  	0,004243  	0,004428  	0,000001  	-0,000000  	26,822999  	24,586282  	25,515295  	25,670034  	29,557729  	27,860500  	29,108645  	29,038511  	32,959175  	31,600932  	34,300461  	59,703302  	26,322252  	25,165362  	28,541389  	64,671912  	0,203548  	0,103139  	-3902,588739  	12531,634232  	-0,036489  	-0,049991  	0,364928  	0,184912  	-3,730854  	15978,625698  	56491,199587  	8,193356  	-0,047944  
283,556000  	22,801344  	31,845206  	24,244296  	1256,670793  	70,120618  	65,302551  	0,006574  	0,011448  	0,003967  	0,004196  	0,004484  	-0,000001  	-0,000000  	26,813451  	24,575634  	25,507617  	25,669687  	29,563061  	27,857283  	29,109622  	29,037889  	32,948748  	31,595388  	34,298859  	59,707090  	26,320942  	25,152233  	28,536385  	64,670853  	0,165827  	0,084026  	-3177,302908  	25568,097905  	-0,018541  	-0,050018  	0,409255  	0,207373  	-4,183644  	16037,023255  	56394,102493  	8,179273  	-0,047967  
284,553000  	22,813750  	31,842496  	24,244603  	57,696365  	70,123484  	65,300187  	0,006578  	0,011476  	0,003967  	0,004289  	0,004477  	0,000000  	-0,000000  	26,825642  	24,585193  	25,516460  	25,677846  	29,574718  	27,863739  	29,111346  	29,043082  	32,959141  	31,608765  	34,305535  	59,705725  	26,335501  	25,153396  	28,542491  	64,671534  	0,241125  	0,122180  	-4612,310851  	1813,810344  	-0,053904  	-0,049997  	0,403964  	0,204692  	-4,134038  	16096,455805  	56480,586764  	8,191817  	-0,047948  
285,553000  	22,810218  	31,834399  	24,245924  	956,927186  	70,123017  	65,296890  	0,006585  	0,011433  	0,003964  	0,004218  	0,004434  	0,000000  	-0,000000  	26,818679  	24,574044  	25,496533  	25,668020  	29,565543  	27,861089  	29,107569  	29,038801  	32,950288  	31,610252  	34,293039  	59,706970  	26,322524  	25,148808  	28,532804  	64,659771  	0,183593  	0,093028  	-3510,056011  	22509,337580  	-0,022169  	-0,049994  	0,370211  	0,187589  	-3,790841  	16005,772529  	56619,824463  	8,212011  	-0,047946  
286,551000  	22,824774  	31,824238  	24,247276  	-242,047242  	70,117970  	65,293282  	0,006578  	0,011457  	0,003967  	0,004245  	0,004459  	0,000000  	-0,000000  	26,819240  	24,591662  	25,522535  	25,676757  	29,563665  	27,868496  	29,108129  	29,042878  	32,960504  	31,605738  	34,299452  	59,715421  	26,340042  	25,149077  	28,552494  	64,662829  	0,205254  	0,104004  	-3913,432859  	-27057,626763  	-0,103089  	-0,049996  	0,389902  	0,197566  	-3,991278  	16056,746146  	56476,244192  	8,191187  	-0,047948  
287,552000  	22,838316  	31,819989  	24,247921  	657,183579  	70,118718  	65,294060  	0,006574  	0,011468  	0,003966  	0,004234  	0,004450  	0,000001  	-0,000000  	26,829141  	24,601122  	25,523954  	25,678636  	29,585289  	27,874247  	29,118009  	29,045211  	32,964659  	31,615858  	34,302973  	59,711021  	26,349809  	25,155165  	28,552585  	64,676364  	0,195988  	0,099309  	-3729,368437  	18480,805187  	-0,027578  	-0,049986  	0,382517  	0,193824  	-3,915654  	16081,187703  	56376,004911  	8,176648  	-0,047940  
288,550000  	22,837210  	31,817341  	24,249580  	1256,670793  	70,120525  	65,299471  	0,006583  	0,011449  	0,003965  	0,004189  	0,004491  	-0,000000  	-0,000000  	26,824116  	24,586341  	25,499268  	25,664797  	29,560917  	27,866577  	29,107701  	29,030754  	32,942564  	31,597915  	34,295028  	59,703006  	26,342026  	25,136967  	28,534225  	64,661479  	0,159592  	0,080867  	-3036,289197  	25559,597356  	-0,018535  	-0,050000  	0,415146  	0,210358  	-4,246496  	16039,857284  	56571,187652  	8,204957  	-0,047952  
289,553000  	22,822409  	31,814724  	24,250717  	956,927186  	70,119123  	65,303297  	0,006575  	0,011429  	0,003964  	0,004240  	0,004424  	0,000000  	-0,000000  	26,808206  	24,585700  	25,506482  	25,663343  	29,564732  	27,868984  	29,111475  	29,036675  	32,952566  	31,605152  	34,302229  	59,706349  	26,336151  	25,130652  	28,540822  	64,656902  	0,201006  	0,101851  	-3829,381772  	22509,402011  	-0,022169  	-0,049994  	0,361905  	0,183380  	-3,697884  	15995,411273  	56417,411162  	8,182654  	-0,047947  
290,552000  	22,803248  	31,818111  	24,252130  	357,439972  	70,116880  	65,301244  	0,006568  	0,011439  	0,003966  	0,004205  	0,004484  	-0,000001  	-0,000000  	26,818752  	24,592558  	25,518455  	25,670059  	29,571717  	27,862294  	29,109573  	29,041182  	32,955829  	31,607760  	34,303581  	59,709131  	26,348736  	25,133712  	28,553491  	64,669269  	0,172974  	0,087647  	-3303,614689  	12536,139675  	-0,036503  	-0,050013  	0,409227  	0,207358  	-4,181243  	16016,873774  	56263,098029  	8,160272  	-0,047963  
291,554000  	22,790627  	31,820420  	24,253789  	357,439972  	70,118189  	65,301306  	0,006577  	0,011417  	0,003964  	0,004256  	0,004459  	0,000000  	-0,000000  	26,804437  	24,582366  	25,506984  	25,662240  	29,570267  	27,857406  	29,102815  	29,037635  	32,947845  	31,598169  	34,296351  	59,702841  	26,340622  	25,127582  	28,537725  	64,660435  	0,213949  	0,108410  	-4092,967568  	12531,803591  	-0,036491  	-0,049994  	0,390101  	0,197667  	-3,986863  	15969,368058  	56448,910699  	8,187222  	-0,047946  
292,551000  	22,821519  	31,823130  	24,255079  	-242,047242  	70,120930  	65,298632  	0,006587  	0,011464  	0,003964  	0,004214  	0,004418  	0,000000  	-0,000000  	26,816560  	24,589530  	25,504141  	25,676991  	29,568170  	27,862966  	29,111015  	29,040905  	32,950297  	31,606383  	34,300077  	59,704991  	26,343713  	25,130381  	28,545812  	64,658781  	0,179741  	0,091076  	-3427,797653  	-27057,264295  	-0,103084  	-0,049995  	0,357375  	0,181085  	-3,656507  	16072,068722  	56667,889325  	8,218982  	-0,047947  
293,551000  	22,866782  	31,819681  	24,257813  	1256,670793  	70,117721  	65,290047  	0,006572  	0,011431  	0,003968  	0,004212  	0,004513  	0,000000  	-0,000000  	26,815261  	24,592539  	25,505437  	25,664963  	29,564601  	27,862432  	29,104628  	29,033171  	32,953552  	31,598612  	34,293880  	59,706691  	26,349329  	25,122451  	28,543590  	64,659036  	0,178477  	0,090436  	-3385,276285  	25557,088045  	-0,018533  	-0,049995  	0,432176  	0,218987  	-4,426758  	15999,469184  	56335,029386  	8,170705  	-0,047947  
294,550000  	22,892024  	31,816110  	24,259718  	657,183579  	70,117098  	65,287124  	0,006581  	0,011453  	0,003963  	0,004274  	0,004365  	0,000001  	-0,000000  	26,810610  	24,576581  	25,509737  	25,661573  	29,558026  	27,855411  	29,105115  	29,031280  	32,948042  	31,599532  	34,297337  	59,704752  	26,339487  	25,116695  	28,539563  	64,645429  	0,228596  	0,115831  	-4321,940168  	18480,005428  	-0,027577  	-0,049986  	0,315177  	0,159703  	-3,229880  	16048,459122  	56535,331420  	8,199757  	-0,047939  
295,551000  	22,902895  	31,812046  	24,261284  	657,183579  	70,119123  	65,286626  	0,006581  	0,011425  	0,003968  	0,004235  	0,004488  	-0,000001  	-0,000000  	26,815202  	24,584081  	25,510167  	25,665866  	29,555414  	27,861840  	29,110892  	29,035238  	32,951098  	31,603205  	34,299339  	59,706385  	26,337680  	25,118899  	28,544610  	64,654186  	0,196636  	0,099637  	-3711,475263  	18486,847685  	-0,027588  	-0,050006  	0,412431  	0,208982  	-4,228727  	15987,655541  	56541,036784  	8,200584  	-0,047957  
296,550000  	22,924207  	31,814509  	24,262882  	57,696365  	70,121490  	65,289177  	0,006569  	0,011447  	0,003963  	0,004233  	0,004482  	0,000001  	-0,000000  	26,817597  	24,586112  	25,507529  	25,668982  	29,558371  	27,861435  	29,110194  	29,027020  	32,955511  	31,606010  	34,293355  	59,708556  	26,338581  	25,117660  	28,541095  	64,658503  	0,195278  	0,098949  	-3678,027358  	1812,468330  	-0,053893  	-0,049987  	0,407999  	0,206736  	-4,183125  	16034,141119  	56277,714492  	8,162392  	-0,047941  
297,574000  	22,922456  	31,825901  	24,264602  	1256,670793  	70,122020  	65,291758  	0,006572  	0,011473  	0,003966  	0,004283  	0,004440  	0,000000  	-0,000000  	26,817994  	24,584460  	25,515118  	25,667635  	29,556643  	27,861776  	29,114146  	29,032268  	32,954832  	31,606431  	34,294785  	59,709043  	26,344417  	25,120707  	28,540767  	64,656462  	0,235803  	0,119483  	-4447,874171  	25556,574017  	-0,018533  	-0,049995  	0,374971  	0,190000  	-3,842864  	16091,696815  	56348,614930  	8,172676  	-0,047947  
298,549000  	22,914718  	31,838771  	24,265769  	657,183579  	70,118967  	65,297170  	0,006585  	0,011437  	0,003965  	0,004203  	0,004492  	-0,000001  	-0,000000  	26,819763  	24,588356  	25,520523  	25,671822  	29,556167  	27,870647  	29,114717  	29,036975  	32,952599  	31,611989  	34,295240  	59,708862  	26,348285  	25,124690  	28,544590  	64,659974  	0,170759  	0,086525  	-3228,429708  	18487,087219  	-0,027588  	-0,050008  	0,415884  	0,210731  	-4,254695  	16014,498170  	56614,415665  	8,211227  	-0,047958  
299,550000  	22,901083  	31,850871  	24,267428  	657,183579  	70,117877  	65,308336  	0,006580  	0,011438  	0,003966  	0,004297  	0,004426  	0,000002  	-0,000000  	26,814536  	24,587761  	25,519631  	25,671742  	29,562949  	27,871931  	29,112295  	29,033871  	32,952877  	31,608517  	34,296264  	59,708341  	26,345115  	25,114173  	28,547266  	64,668068  	0,246897  	0,125104  	-4681,387724  	18478,103084  	-0,027575  	-0,049981  	0,363271  	0,184072  	-3,707004  	16016,167035  	56511,832102  	8,196348  	-0,047935  
300,550000  	22,892485  	31,863433  	24,268841  	1256,670793  	70,119372  	65,306221  	0,006573  	0,011443  	0,003966  	0,004205  	0,004481  	0,000000  	-0,000000  	26,813998  	24,582459  	25,516012  	25,666463  	29,565738  	27,868080  	29,111207  	29,034345  	32,955106  	31,601617  	34,293547  	59,705242  	26,339170  	25,103794  	28,547402  	64,667663  	0,172737  	0,087527  	-3282,987402  	25556,913810  	-0,018533  	-0,049996  	0,407139  	0,206300  	-4,157769  	16026,153345  	56355,287663  	8,173643  	-0,047948  
301,550000  	22,900193  	31,872639  	24,270101  	956,927186  	70,122425  	65,307060  	0,006582  	0,011435  	0,003964  	0,004193  	0,004469  	-0,000000  	-0,000000  	26,823211  	24,579961  	25,509867  	25,663795  	29,559276  	27,869721  	29,109022  	29,032127  	32,955863  	31,602182  	34,288802  	59,703323  	26,336334  	25,102994  	28,539745  	64,662118  	0,163208  	0,082699  	-3102,401793  	22511,194760  	-0,022172  	-0,050001  	0,397725  	0,201530  	-4,063496  	16010,102807  	56568,066649  	8,204504  	-0,047952  
302,553000  	22,895709  	31,874301  	24,271453  	357,439972  	70,122238  	65,299534  	0,006582  	0,011451  	0,003966  	0,004278  	0,004464  	0,000002  	-0,000000  	26,825139  	24,582299  	25,510035  	25,668039  	29,556173  	27,870525  	29,112362  	29,027845  	32,955279  	31,606145  	34,296157  	59,703701  	26,342067  	25,099028  	28,535204  	64,661706  	0,231619  	0,117363  	-4405,842764  	12527,947269  	-0,036481  	-0,049981  	0,393686  	0,199483  	-4,028355  	16044,578072  	56566,661491  	8,204301  	-0,047935  
303,550000  	22,853424  	31,871530  	24,272559  	357,439972  	70,118064  	65,295832  	0,006570  	0,011454  	0,003965  	0,004215  	0,004480  	-0,000001  	-0,000000  	26,815664  	24,583492  	25,508684  	25,675844  	29,553945  	27,866332  	29,112613  	29,026995  	32,953773  	31,604500  	34,297624  	59,698030  	26,342163  	25,090240  	28,541010  	64,656395  	0,180896  	0,091661  	-3456,141907  	12534,321529  	-0,036500  	-0,050010  	0,406124  	0,205786  	-4,155223  	16050,028237  	56308,048949  	8,166792  	-0,047960  
304,551000  	22,809942  	31,868144  	24,274648  	956,927186  	70,114326  	65,301742  	0,006577  	0,011463  	0,003965  	0,004249  	0,004457  	0,000001  	-0,000000  	26,810392  	24,580128  	25,504871  	25,672769  	29,552719  	27,864082  	29,105513  	29,032313  	32,953943  	31,599021  	34,292101  	59,696055  	26,337041  	25,083119  	28,543108  	64,654065  	0,208425  	0,105611  	-3999,824790  	22503,456177  	-0,022164  	-0,049982  	0,388025  	0,196615  	-3,962106  	16069,117964  	56451,946969  	8,187663  	-0,047936  
305,549000  	22,816943  	31,869314  	24,275108  	956,927186  	70,117067  	65,303266  	0,006588  	0,011447  	0,003966  	0,004210  	0,004447  	-0,000001  	-0,000000  	26,820687  	24,581797  	25,517316  	25,670294  	29,569765  	27,867384  	29,115189  	29,049018  	32,958938  	31,613091  	34,303942  	59,707313  	26,351220  	25,082065  	28,544282  	64,666280  	0,176543  	0,089456  	-3385,801136  	22514,320674  	-0,022175  	-0,050009  	0,380086  	0,192592  	-3,882019  	16033,947987  	56689,510393  	8,222118  	-0,047959  
