06/25/2020 14:40:16
Tempo T_f_e T_f_s AR AR T_q_e T_q_s Corrente_P_f Corrente_P_q Corrente_P_RESERVA Corrente_eletromag_f Corrente_eletromag_q AR AR T_1 T_2 T_3 T_4 T_5 T_6 T_7 T_8 T_9 T_10 T_11 T_12 T_13 T_14 T_15 T_16 Velocidade_f_(m/s) Vazao_f_(L/s) q_f_(W) AR AR AR Velocidade_q_(m/s) Vazao_q_(L/s) q_q_(W) DeltaP_q_(Pa) DeltaP_f_(Pa) DeltaP_f_(Psi) AR
0,006000  	23,302958  	29,683150  	26,142457  	57,696365  	70,357235  	64,207053  	0,008842  	0,008513  	0,003961  	0,004351  	0,004343  	-0,000000  	-0,000000  	26,162032  	24,768792  	25,646157  	25,466800  	28,288293  	27,013501  	28,214121  	27,848085  	30,580435  	29,782115  	32,414678  	58,202596  	28,062491  	27,236489  	27,640367  	63,475191  	0,291031  	0,147468  	-3933,760733  	1706,206976  	-0,053748  	-0,050003  	0,298061  	0,151030  	-3,888867  	9708,845362  	105242,929620  	15,264196  	-0,047954  
2,559000  	23,297491  	29,667273  	26,143194  	1256,670793  	70,362967  	64,239638  	0,008854  	0,008658  	0,003962  	0,004332  	0,004332  	-0,000001  	-0,000001  	26,153784  	24,759427  	25,635786  	25,461961  	28,268234  	27,014101  	28,206331  	27,833981  	30,572314  	29,775091  	32,402005  	58,197284  	28,058377  	27,241210  	27,648841  	63,468814  	0,276010  	0,139856  	-3724,642778  	25501,215101  	-0,018518  	-0,050007  	0,289349  	0,146615  	-3,758726  	10019,779968  	105504,416028  	15,302122  	-0,047957  
3,563000  	23,295188  	29,661273  	26,142733  	1256,670793  	70,364431  	64,235472  	0,008858  	0,008559  	0,003963  	0,004288  	0,004347  	0,000000  	-0,000000  	26,155446  	24,764865  	25,644656  	25,467246  	28,279640  	27,018247  	28,215201  	27,833788  	30,574269  	29,765686  	32,400289  	58,202718  	28,064843  	27,240637  	27,640805  	63,470480  	0,240147  	0,121684  	-3238,808820  	25497,643100  	-0,018515  	-0,049999  	0,300932  	0,152484  	-3,912778  	9807,108216  	105603,815038  	15,316538  	-0,047950  
4,560000  	23,321232  	29,657889  	26,143286  	1256,670793  	70,365428  	64,222475  	0,008847  	0,008389  	0,003961  	0,004349  	0,004369  	-0,000000  	-0,000000  	26,157663  	24,758079  	25,647346  	25,465343  	28,278331  	27,011531  	28,213386  	27,833675  	30,568668  	29,770404  	32,407183  	58,195641  	28,061718  	27,244968  	27,630905  	63,469013  	0,289576  	0,146730  	-3887,383597  	25499,029337  	-0,018516  	-0,050002  	0,318346  	0,161308  	-4,148645  	9440,145291  	105355,398714  	15,280509  	-0,047953  
5,603000  	23,381060  	29,647735  	26,142487  	1256,670793  	70,368419  	64,224372  	0,008854  	0,008326  	0,003962  	0,004325  	0,004359  	-0,000000  	-0,000000  	26,155381  	24,757621  	25,636040  	25,455004  	28,268212  	27,005107  	28,209701  	27,834483  	30,563500  	29,764460  	32,398328  	58,192726  	28,047887  	27,248858  	27,630819  	63,465028  	0,269807  	0,136713  	-3581,980592  	25498,502513  	-0,018516  	-0,050001  	0,310702  	0,157435  	-4,049751  	9304,070148  	105501,005520  	15,301627  	-0,047952  
6,562000  	23,417117  	29,645212  	26,143532  	1256,670793  	70,371658  	64,217531  	0,008853  	0,008473  	0,003960  	0,004337  	0,004358  	-0,000000  	-0,000000  	26,153104  	24,758884  	25,640328  	25,456267  	28,273188  	27,013513  	28,216663  	27,838910  	30,568759  	29,762302  	32,398719  	58,198356  	28,052216  	27,239418  	27,635150  	63,466342  	0,279305  	0,141526  	-3685,243324  	25498,192332  	-0,018515  	-0,050000  	0,309613  	0,156883  	-4,042175  	9621,983003  	105490,738690  	15,300138  	-0,047952  
7,564000  	23,406336  	29,653335  	26,144178  	1256,670793  	70,369011  	64,201643  	0,008857  	0,008675  	0,003961  	0,004305  	0,004324  	-0,000001  	-0,000000  	26,167163  	24,764583  	25,646552  	25,463240  	28,276868  	27,007974  	28,215040  	27,835478  	30,566144  	29,773646  	32,405597  	58,203656  	28,054505  	27,244120  	27,632028  	63,466214  	0,253621  	0,128512  	-3356,517516  	25504,232419  	-0,018520  	-0,050013  	0,282808  	0,143301  	-3,700155  	10057,085725  	105584,213443  	15,313695  	-0,047963  
8,560000  	23,355353  	29,669150  	26,143563  	1256,670793  	70,367266  	64,189331  	0,008849  	0,008707  	0,003963  	0,004308  	0,004332  	0,000000  	-0,000000  	26,162403  	24,762917  	25,641603  	25,462274  	28,274580  	27,008909  	28,210068  	27,844065  	30,572011  	29,768275  	32,401956  	58,198521  	28,054160  	27,235268  	27,629695  	63,469375  	0,255806  	0,129619  	-3421,648588  	25496,927230  	-0,018514  	-0,049997  	0,289593  	0,146739  	-3,795419  	10127,099547  	105408,201570  	15,288167  	-0,047949  
9,564000  	23,274426  	29,687889  	26,143778  	956,927186  	70,367235  	64,191165  	0,008855  	0,008528  	0,003959  	0,004343  	0,004329  	0,000000  	-0,000000  	26,160413  	24,757916  	25,644603  	25,458791  	28,275328  	27,010475  	28,214898  	27,836228  	30,570435  	29,768985  	32,397994  	58,196459  	28,056088  	27,221803  	27,636906  	63,472608  	0,284518  	0,144167  	-3865,790046  	22440,414810  	-0,022143  	-0,049996  	0,286656  	0,145251  	-3,755792  	9739,174993  	105535,138845  	15,306578  	-0,047948  
10,560000  	23,244943  	29,687458  	26,143963  	-242,047242  	70,366051  	64,230528  	0,008860  	0,008501  	0,003963  	0,004336  	0,004341  	-0,000001  	-0,000000  	26,154820  	24,758517  	25,639869  	25,451253  	28,275536  	27,006433  	28,208285  	27,826498  	30,566824  	29,764710  	32,392991  	58,196873  	28,053789  	27,202855  	27,637183  	63,470008  	0,279218  	0,141482  	-3810,974459  	-27103,630084  	-0,102522  	-0,050010  	0,296493  	0,150235  	-3,859191  	9681,883175  	105631,014370  	15,320483  	-0,047960  
11,560000  	23,259316  	29,678781  	26,144147  	-242,047242  	70,363839  	64,258014  	0,008850  	0,008719  	0,003963  	0,004317  	0,004316  	-0,000001  	-0,000000  	26,154006  	24,763987  	25,644980  	25,453543  	28,274978  	27,011975  	28,202202  	27,827541  	30,569627  	29,762114  	32,396836  	58,201991  	28,054834  	27,200559  	27,641127  	63,468713  	0,263784  	0,133661  	-3587,424329  	-27102,095960  	-0,102516  	-0,050007  	0,276806  	0,140260  	-3,585521  	10151,639439  	105417,034998  	15,289448  	-0,047957  
12,563000  	23,272584  	29,660504  	26,144577  	956,927186  	70,365833  	64,247753  	0,008853  	0,008398  	0,003962  	0,004336  	0,004347  	0,000000  	-0,000000  	26,156536  	24,760208  	25,639967  	25,455870  	28,274669  	27,011335  	28,199852  	27,824986  	30,567776  	29,764083  	32,403123  	58,200016  	28,054045  	27,193803  	27,642657  	63,465882  	0,278786  	0,141263  	-3772,827062  	22441,312374  	-0,022143  	-0,049998  	0,301035  	0,152536  	-3,907176  	9459,804512  	105493,492516  	15,300537  	-0,047950  
13,561000  	23,303480  	29,638073  	26,144977  	57,696365  	70,364556  	64,243027  	0,008862  	0,008520  	0,003961  	0,004344  	0,004328  	0,000001  	-0,000001  	26,159992  	24,763741  	25,640442  	25,461574  	28,279079  	27,018959  	28,209289  	27,833889  	30,571213  	29,767908  	32,406033  	58,199024  	28,065559  	27,182649  	27,641319  	63,474863  	0,284936  	0,144379  	-3823,848690  	1705,703027  	-0,053737  	-0,049992  	0,286423  	0,145133  	-3,719629  	9723,403896  	105694,302949  	15,329663  	-0,047944  
14,563000  	23,314229  	29,630012  	26,144362  	1256,670793  	70,360880  	64,246199  	0,008852  	0,008759  	0,003961  	0,004336  	0,004336  	0,000001  	-0,000000  	26,159194  	24,768258  	25,646751  	25,467331  	28,280847  	27,020925  	28,218869  	27,836541  	30,571325  	29,769343  	32,408445  	58,199880  	28,070520  	27,175682  	27,638441  	63,484541  	0,278469  	0,141102  	-3725,966812  	25492,377095  	-0,018511  	-0,049987  	0,292540  	0,148232  	-3,794808  	10237,450534  	105472,605802  	15,297508  	-0,047941  
15,561000  	23,308517  	29,632504  	26,145561  	1256,670793  	70,356893  	64,238954  	0,008856  	0,008593  	0,003962  	0,004327  	0,004346  	-0,000000  	-0,000000  	26,152514  	24,760352  	25,638454  	25,459898  	28,277389  	27,008007  	28,211181  	27,826816  	30,563718  	29,770758  	32,408035  	58,196845  	28,061838  	27,166513  	27,633206  	63,479719  	0,271552  	0,137598  	-3638,138595  	25498,165867  	-0,018515  	-0,050000  	0,300612  	0,152322  	-3,901593  	9880,791562  	105560,248092  	15,310220  	-0,047952  
16,564000  	23,275778  	29,638043  	26,144762  	57,696365  	70,353341  	64,230186  	0,008854  	0,008371  	0,003961  	0,004348  	0,004333  	0,000001  	-0,000000  	26,150301  	24,756770  	25,633143  	25,451156  	28,278622  	27,004359  	28,204391  	27,827092  	30,569133  	29,770483  	32,405965  	58,195264  	28,067726  	27,159553  	27,635066  	63,475541  	0,288374  	0,146121  	-3886,897256  	1705,708967  	-0,053736  	-0,049991  	0,290287  	0,147090  	-3,770795  	9401,718232  	105509,810703  	15,302904  	-0,047944  
17,561000  	23,282565  	29,639920  	26,145069  	-242,047242  	70,350071  	64,236809  	0,008854  	0,008518  	0,003961  	0,004361  	0,004353  	0,000000  	-0,000000  	26,153248  	24,761493  	25,637072  	25,457797  	28,280858  	27,011668  	28,209733  	27,831041  	30,577917  	29,768941  	32,407305  	58,197711  	28,079229  	27,151453  	27,640195  	63,477875  	0,299161  	0,151587  	-4029,178659  	-27096,860225  	-0,102496  	-0,049996  	0,305546  	0,154822  	-3,962596  	9718,961134  	105508,334934  	15,302690  	-0,047948  
18,564000  	23,301975  	29,642689  	26,144270  	-242,047242  	70,348015  	64,226548  	0,008862  	0,008524  	0,003964  	0,004318  	0,004339  	-0,000001  	-0,000000  	26,151826  	24,762800  	25,636520  	25,465213  	28,274715  	27,017614  	28,207504  	27,834392  	30,572669  	29,770743  	32,402963  	58,202294  	28,077076  	27,132724  	27,637158  	63,481659  	0,263934  	0,133737  	-3545,422154  	-27102,812890  	-0,102519  	-0,050009  	0,294746  	0,149350  	-3,827662  	9732,423835  	105673,013753  	15,326575  	-0,047959  
19,562000  	23,328418  	29,635766  	26,143625  	-242,047242  	70,341535  	64,214733  	0,008849  	0,008496  	0,003963  	0,004349  	0,004364  	-0,000000  	-0,000000  	26,147174  	24,756426  	25,633022  	25,453526  	28,268670  	27,002809  	28,195218  	27,826843  	30,565562  	29,760526  	32,393539  	58,202792  	28,066096  	27,112131  	27,635984  	63,484290  	0,289329  	0,146605  	-3866,092448  	-27098,935894  	-0,102504  	-0,050001  	0,314520  	0,159370  	-4,088013  	9671,239648  	105393,542740  	15,286041  	-0,047952  
20,562000  	23,351207  	29,632443  	26,142764  	956,927186  	70,335554  	64,201799  	0,008843  	0,008475  	0,003963  	0,004306  	0,004369  	-0,000000  	-0,000000  	26,149456  	24,751789  	25,634944  	25,453677  	28,270917  	27,005641  	28,196226  	27,825448  	30,563400  	29,763212  	32,403706  	58,208881  	28,067197  	27,102459  	27,638411  	63,488645  	0,254717  	0,129067  	-3389,501488  	22444,059358  	-0,022146  	-0,050005  	0,318297  	0,161284  	-4,141795  	9625,621398  	105273,016939  	15,268560  	-0,047956  
21,561000  	23,348811  	29,633458  	26,142364  	1256,670793  	70,329137  	64,201301  	0,008852  	0,008459  	0,003963  	0,004319  	0,004376  	-0,000001  	-0,000000  	26,150857  	24,745838  	25,640481  	25,462185  	28,260556  	27,010256  	28,205912  	27,827376  	30,561477  	29,767919  	32,407827  	58,202616  	28,068124  	27,100145  	27,631644  	63,503635  	0,265242  	0,134400  	-3531,486320  	25501,174752  	-0,018518  	-0,050007  	0,323816  	0,164080  	-4,209536  	9592,300685  	105465,551770  	15,296485  	-0,047957  
22,564000  	23,342915  	29,641089  	26,141073  	1256,670793  	70,324028  	64,192968  	0,008856  	0,008401  	0,003963  	0,004352  	0,004337  	-0,000001  	-0,000000  	26,161956  	24,756582  	25,642079  	25,456516  	28,274476  	27,013794  	28,215665  	27,832137  	30,578414  	29,773332  	32,408696  	58,205949  	28,082097  	27,102272  	27,651808  	63,509794  	0,291917  	0,147916  	-3895,000549  	25503,315310  	-0,018519  	-0,050011  	0,292841  	0,148385  	-3,808867  	9466,843601  	105557,324800  	15,309796  	-0,047961  
23,560000  	23,337202  	29,650596  	26,140059  	1256,670793  	70,320321  	64,184045  	0,008861  	0,008423  	0,003962  	0,004316  	0,004375  	-0,000000  	-0,000000  	26,148155  	24,753339  	25,633364  	25,450400  	28,268817  	27,005834  	28,199600  	27,826420  	30,568885  	29,774873  	32,398401  	58,199734  	28,075348  	27,088168  	27,640665  	63,504157  	0,262807  	0,133166  	-3515,068255  	25498,329050  	-0,018515  	-0,050000  	0,323282  	0,163809  	-4,208370  	9512,883488  	105655,389264  	15,324019  	-0,047952  
24,561000  	23,362755  	29,654473  	26,139075  	1256,670793  	70,318639  	64,170924  	0,008855  	0,008708  	0,003960  	0,004349  	0,004330  	-0,000000  	-0,000000  	26,147679  	24,738706  	25,622883  	25,440636  	28,266217  	26,998506  	28,191619  	27,808875  	30,561628  	29,756350  	32,393791  	58,197998  	28,067959  	27,064657  	27,631525  	63,493154  	0,289375  	0,146629  	-3857,127393  	25500,317749  	-0,018517  	-0,050004  	0,287929  	0,145896  	-3,755146  	10128,210238  	105532,067269  	15,306132  	-0,047955  
25,563000  	23,397000  	29,652227  	26,137877  	1256,670793  	70,322159  	64,166851  	0,008855  	0,008413  	0,003961  	0,004360  	0,004364  	-0,000001  	-0,000000  	26,142490  	24,741105  	25,623421  	25,442558  	28,263875  	26,993552  	28,195602  	27,818559  	30,556639  	29,761112  	32,391677  	58,202853  	28,073426  	27,064411  	27,628702  	63,486736  	0,298259  	0,151130  	-3952,470471  	25501,463829  	-0,018518  	-0,050007  	0,314495  	0,159357  	-4,106673  	9491,205216  	105528,240156  	15,305577  	-0,047957  
26,561000  	23,420403  	29,648843  	26,137262  	1256,670793  	70,322969  	64,187123  	0,008862  	0,008702  	0,003962  	0,004334  	0,004364  	-0,000001  	-0,000000  	26,164618  	24,762154  	25,638210  	25,460005  	28,275537  	27,011020  	28,219232  	27,829343  	30,565412  	29,765703  	32,403382  	58,211959  	28,079438  	27,075512  	27,638914  	63,497761  	0,277367  	0,140544  	-3659,872763  	25505,315295  	-0,018521  	-0,050015  	0,314164  	0,159189  	-4,089398  	10115,530681  	105676,155939  	15,327031  	-0,047965  
27,566000  	23,424826  	29,659366  	26,136340  	357,439972  	70,325741  	64,193031  	0,008843  	0,008628  	0,003964  	0,004341  	0,004341  	0,000001  	-0,000000  	26,148051  	24,744412  	25,630231  	25,447183  	28,270567  	26,999532  	28,196028  	27,827131  	30,559305  	29,764873  	32,405351  	58,208949  	28,069686  	27,071736  	27,651706  	63,493411  	0,283205  	0,143502  	-3740,564521  	12436,497920  	-0,036413  	-0,049988  	0,296621  	0,150300  	-3,859074  	9955,044401  	105276,582791  	15,269077  	-0,047941  
28,561000  	23,406828  	29,679119  	26,135356  	956,927186  	70,333342  	64,185755  	0,008862  	0,008539  	0,003962  	0,004270  	0,004380  	0,000000  	-0,000000  	26,151943  	24,750967  	25,642347  	25,446685  	28,270953  	26,999885  	28,202783  	27,822217  	30,558149  	29,764157  	32,402070  	58,198615  	28,054910  	27,069764  	27,638028  	63,491491  	0,225702  	0,114365  	-2999,113435  	22441,851278  	-0,022144  	-0,049999  	0,327206  	0,165798  	-4,267305  	9763,145391  	105678,592016  	15,327384  	-0,047950  
29,563000  	23,382442  	29,697273  	26,133573  	956,927186  	70,341224  	64,195549  	0,008848  	0,008836  	0,003964  	0,004327  	0,004364  	-0,000001  	-0,000000  	26,140598  	24,742265  	25,623357  	25,440318  	28,257235  	26,996661  	28,193906  	27,826685  	30,547351  	29,757806  	32,390789  	58,194488  	28,042046  	27,072248  	27,624147  	63,481948  	0,271178  	0,137408  	-3627,842524  	22445,275921  	-0,022147  	-0,050007  	0,314895  	0,159560  	-4,105482  	10405,077775  	105381,404721  	15,284281  	-0,047957  
30,562000  	23,373842  	29,707735  	26,132713  	-242,047242  	70,344962  	64,203571  	0,008860  	0,008636  	0,003962  	0,004349  	0,004394  	-0,000000  	-0,000000  	26,143356  	24,742609  	25,623164  	25,438021  	28,254098  	26,994666  	28,195647  	27,817861  	30,560228  	29,745617  	32,385160  	58,196120  	28,048041  	27,077918  	27,630660  	63,481300  	0,289334  	0,146607  	-3882,419854  	-27099,619599  	-0,102511  	-0,050002  	0,338435  	0,171488  	-4,409320  	9973,441538  	105648,751836  	15,323056  	-0,047953  
31,562000  	23,397614  	29,709120  	26,130961  	657,183579  	70,345117  	64,231119  	0,008855  	0,008369  	0,003963  	0,004331  	0,004378  	-0,000000  	-0,000000  	26,138725  	24,740906  	25,623838  	25,437285  	28,261062  	27,002443  	28,194723  	27,813979  	30,562772  	29,746620  	32,395403  	58,197809  	28,048915  	27,082632  	27,622726  	63,493100  	0,274988  	0,139338  	-3676,876650  	18407,000837  	-0,027545  	-0,050005  	0,325343  	0,164854  	-4,219853  	9398,365644  	105538,012710  	15,306995  	-0,047956  
32,561000  	23,419113  	29,709181  	26,128317  	57,696365  	70,341691  	64,263020  	0,008850  	0,008383  	0,003962  	0,004323  	0,004349  	-0,000000  	-0,000000  	26,143126  	24,745756  	25,625070  	25,441652  	28,263027  	27,004373  	28,193781  	27,822348  	30,564401  	29,761477  	32,390481  	58,203441  	28,046290  	27,094407  	27,626690  	63,495133  	0,268011  	0,135803  	-3571,403378  	1706,935619  	-0,053747  	-0,050001  	0,302989  	0,153527  	-3,907219  	9428,580669  	105435,344413  	15,292104  	-0,047952  
33,563000  	23,378695  	29,714381  	26,126104  	1256,670793  	70,339199  	64,241752  	0,008851  	0,008432  	0,003961  	0,004347  	0,004339  	-0,000001  	-0,000000  	26,151766  	24,750679  	25,636348  	25,443074  	28,272567  	27,005988  	28,198963  	27,828543  	30,563687  	29,769736  	32,398256  	58,204561  	28,046112  	27,106383  	27,645021  	63,496564  	0,287471  	0,145664  	-3858,516780  	25505,656072  	-0,018521  	-0,050015  	0,295042  	0,149500  	-3,816474  	9534,015612  	105449,784349  	15,294198  	-0,047965  
34,562000  	23,347614  	29,719920  	26,124568  	1256,670793  	70,338389  	64,206494  	0,008846  	0,008568  	0,003963  	0,004322  	0,004361  	-0,000000  	-0,000000  	26,154714  	24,751139  	25,645671  	25,452343  	28,275078  	27,009431  	28,204941  	27,831828  	30,566689  	29,764308  	32,407261  	58,204065  	28,048807  	27,113666  	27,640151  	63,498706  	0,267472  	0,135530  	-3610,843321  	25498,772693  	-0,018516  	-0,050000  	0,312392  	0,158291  	-4,063716  	9825,706975  	105345,541428  	15,279079  	-0,047951  
35,565000  	23,335359  	29,715858  	26,122908  	357,439972  	70,336613  	64,200275  	0,008861  	0,008404  	0,003962  	0,004352  	0,004371  	-0,000000  	-0,000000  	26,151144  	24,747832  	25,638303  	25,449871  	28,269034  	27,007236  	28,193569  	27,825810  	30,566349  	29,757483  	32,395584  	58,205589  	28,043080  	27,118818  	27,633999  	63,502109  	0,291555  	0,147733  	-3941,030619  	12440,726476  	-0,036424  	-0,050004  	0,319717  	0,162003  	-4,162014  	9473,373329  	105662,182036  	15,325004  	-0,047955  
36,563000  	23,318345  	29,700350  	26,120756  	956,927186  	70,337299  	64,185848  	0,008857  	0,008784  	0,003963  	0,004396  	0,004353  	-0,000001  	-0,000000  	26,144872  	24,744135  	25,633226  	25,455786  	28,272211  	27,007378  	28,205632  	27,822804  	30,560047  	29,759700  	32,394289  	58,202521  	28,039204  	27,126945  	27,633287  	63,497829  	0,327703  	0,166050  	-4430,698147  	22449,636516  	-0,022151  	-0,050017  	0,305660  	0,154880  	-3,988816  	10291,699626  	105584,933675  	15,313800  	-0,047966  
37,566000  	23,299303  	29,683581  	26,116330  	1256,670793  	70,334869  	64,182117  	0,008850  	0,008730  	0,003963  	0,004318  	0,004368  	-0,000000  	-0,000000  	26,146178  	24,749042  	25,632502  	25,460291  	28,278719  	27,007329  	28,204921  	27,826637  	30,565880  	29,762727  	32,400057  	58,199579  	28,045603  	27,138791  	27,631018  	63,496076  	0,264626  	0,134088  	-3579,149647  	25501,041107  	-0,018517  	-0,050004  	0,317748  	0,161005  	-4,147441  	10176,221070  	105432,696503  	15,291720  	-0,047955  
38,561000  	23,303664  	29,670227  	26,113994  	1256,670793  	70,332688  	64,204752  	0,008851  	0,008418  	0,003963  	0,004340  	0,004402  	-0,000001  	-0,000000  	26,144729  	24,752520  	25,633893  	25,454452  	28,280695  	27,010394  	28,198140  	27,830399  	30,572734  	29,761890  	32,403707  	58,200571  	28,042404  	27,147726  	27,628739  	63,492600  	0,282357  	0,143072  	-3808,359151  	25502,492932  	-0,018518  	-0,050007  	0,344622  	0,174623  	-4,480086  	9503,908827  	105450,949429  	15,294367  	-0,047958  
39,565000  	23,329002  	29,659704  	26,111504  	1256,670793  	70,332408  	64,238208  	0,008856  	0,008366  	0,003963  	0,004342  	0,004373  	0,000001  	-0,000000  	26,148339  	24,751336  	25,634153  	25,447352  	28,280255  	27,007629  	28,202295  	27,831312  	30,570716  	29,762810  	32,402178  	58,197939  	28,031347  	27,156723  	27,633415  	63,490700  	0,283460  	0,143631  	-3801,703372  	25495,989468  	-0,018513  	-0,049993  	0,321321  	0,162816  	-4,154196  	9391,107247  	105545,335063  	15,308057  	-0,047945  
40,563000  	23,371017  	29,655704  	26,110213  	1256,670793  	70,326738  	64,224527  	0,008853  	0,008469  	0,003961  	0,004327  	0,004396  	0,000000  	-0,000000  	26,148967  	24,748974  	25,632183  	25,446931  	28,273323  	27,002841  	28,200383  	27,825701  	30,565782  	29,762390  	32,398725  	58,193043  	28,025451  	27,160546  	27,629284  	63,493777  	0,271916  	0,137782  	-3620,354131  	25497,474678  	-0,018514  	-0,049996  	0,340007  	0,172284  	-4,401552  	9613,720739  	105480,789609  	15,298695  	-0,047948  
41,564000  	23,389137  	29,658996  	26,107847  	57,696365  	70,319729  	64,192564  	0,008855  	0,008750  	0,003963  	0,004391  	0,004375  	0,000001  	-0,000000  	26,152316  	24,755613  	25,638502  	25,459246  	28,271909  	27,006087  	28,201840  	27,829532  	30,568098  	29,769796  	32,406222  	58,196928  	28,032280  	27,170713  	27,626443  	63,497564  	0,323699  	0,164021  	-4299,639650  	1707,765143  	-0,053738  	-0,049990  	0,323020  	0,163677  	-4,198729  	10219,975199  	105536,000298  	15,306703  	-0,047943  
42,563000  	23,392331  	29,659673  	26,106371  	1256,670793  	70,317113  	64,176583  	0,008851  	0,008380  	0,003962  	0,004377  	0,004414  	-0,000001  	-0,000000  	26,160545  	24,761767  	25,645018  	25,466630  	28,277453  	27,007642  	28,211948  	27,835538  	30,571867  	29,773494  	32,412071  	58,199320  	28,037012  	27,184933  	27,635539  	63,496939  	0,312172  	0,158180  	-4144,856342  	25502,353219  	-0,018518  	-0,050007  	0,354220  	0,179486  	-4,614307  	9421,608787  	105454,861275  	15,294935  	-0,047957  
43,564000  	23,385421  	29,667150  	26,105818  	1256,670793  	70,312658  	64,184325  	0,008860  	0,008451  	0,003963  	0,004343  	0,004343  	0,000000  	-0,000000  	26,157003  	24,754511  	25,638935  	25,460214  	28,273620  	27,008440  	28,208192  	27,829468  	30,567024  	29,761677  	32,406380  	58,197406  	28,033506  	27,182860  	27,635731  	63,494652  	0,284870  	0,144346  	-3791,037172  	25497,753282  	-0,018515  	-0,049996  	0,298199  	0,151100  	-3,876831  	9573,573878  	105649,415579  	15,323152  	-0,047948  
44,561000  	23,363369  	29,677858  	26,104589  	1256,670793  	70,307487  	64,193093  	0,008862  	0,008386  	0,003962  	0,004364  	0,004347  	0,000001  	-0,000000  	26,161721  	24,754510  	25,635962  	25,461445  	28,271905  	27,013669  	28,203849  	27,838205  	30,567956  	29,768267  	32,405254  	58,203849  	28,042900  	27,186148  	27,635263  	63,499575  	0,301907  	0,152979  	-4038,728834  	25494,093942  	-0,018512  	-0,049988  	0,301057  	0,152548  	-3,905083  	9434,784264  	105673,861084  	15,326698  	-0,047941  
45,563000  	23,325931  	29,687919  	26,104127  	1256,670793  	70,302503  	64,184916  	0,008850  	0,008359  	0,003962  	0,004338  	0,004370  	-0,000001  	-0,000000  	26,163144  	24,755390  	25,637905  	25,460697  	28,274764  	27,014815  	28,214413  	27,841525  	30,575021  	29,776761  	32,402698  	58,202537  	28,040894  	27,192565  	27,638604  	63,503664  	0,280590  	0,142177  	-3781,801558  	25506,905551  	-0,018521  	-0,050016  	0,319134  	0,161708  	-4,141727  	9375,719586  	105435,019603  	15,292057  	-0,047966  
46,563000  	23,317024  	29,686135  	26,103451  	1256,670793  	70,305182  	64,150217  	0,008853  	0,008411  	0,003963  	0,004342  	0,004338  	-0,000000  	-0,000000  	26,160459  	24,758239  	25,644464  	25,467477  	28,279264  	27,022188  	28,215983  	27,837967  	30,575987  	29,775303  	32,413078  	58,208242  	28,035972  	27,192777  	27,644889  	63,510971  	0,283403  	0,143602  	-3823,993473  	25499,486207  	-0,018516  	-0,050000  	0,294177  	0,149062  	-3,841145  	9488,194326  	105494,029159  	15,300615  	-0,047952  
47,562000  	23,317853  	29,671827  	26,102529  	1256,670793  	70,310727  	64,132371  	0,008852  	0,008727  	0,003963  	0,004358  	0,004359  	0,000001  	-0,000000  	26,156451  	24,764958  	25,648813  	25,463279  	28,276548  	27,013681  	28,213657  	27,835507  	30,571102  	29,774061  	32,404542  	58,201237  	28,040630  	27,193020  	27,640862  	63,507729  	0,296676  	0,150328  	-3993,581240  	25493,654559  	-0,018512  	-0,049987  	0,310805  	0,157487  	-4,073675  	10168,844529  	105475,522034  	15,297931  	-0,047940  
48,563000  	23,338123  	29,655335  	26,101361  	1256,670793  	70,314153  	64,127147  	0,008861  	0,008589  	0,003963  	0,004360  	0,004352  	-0,000000  	-0,000001  	26,153774  	24,756482  	25,638910  	25,457284  	28,280798  	27,012074  	28,209550  	27,826140  	30,574681  	29,771397  	32,404989  	58,197326  	28,037141  	27,180762  	27,634131  	63,500705  	0,298291  	0,151146  	-3992,084861  	25501,607925  	-0,018517  	-0,050005  	0,304730  	0,154409  	-3,999638  	9871,695927  	105663,092917  	15,325136  	-0,047955  
49,561000  	23,381060  	29,640996  	26,100869  	956,927186  	70,316863  	64,136164  	0,008854  	0,008401  	0,003963  	0,004337  	0,004381  	0,000000  	-0,000000  	26,159743  	24,753739  	25,636066  	25,458202  	28,285493  	27,006021  	28,204277  	27,835944  	30,574686  	29,766139  	32,409970  	58,197440  	28,045234  	27,179139  	27,637782  	63,502675  	0,280002  	0,141879  	-3713,331258  	22442,927933  	-0,022144  	-0,049998  	0,328106  	0,166254  	-4,302069  	9466,952548  	105505,044465  	15,302213  	-0,047950  
50,565000  	23,393222  	29,638535  	26,100439  	-242,047242  	70,321162  	64,169805  	0,008848  	0,008485  	0,003962  	0,004328  	0,004358  	-0,000000  	-0,000000  	26,156679  	24,752793  	25,641098  	25,454123  	28,276164  	27,015759  	28,216230  	27,835408  	30,570315  	29,772474  	32,405157  	58,194858  	28,045737  	27,168667  	27,630683  	63,501462  	0,272598  	0,138127  	-3606,693879  	-27099,052770  	-0,102522  	-0,050003  	0,309836  	0,156996  	-4,043251  	9646,537751  	105384,010264  	15,284658  	-0,047954  
51,562000  	23,410820  	29,650996  	26,100255  	-242,047242  	70,323935  	64,188460  	0,008860  	0,008666  	0,003963  	0,004324  	0,004294  	0,000001  	-0,000000  	26,151592  	24,740012  	25,641704  	25,457100  	28,274727  	27,013310  	28,207096  	27,830272  	30,565356  	29,765051  	32,393120  	58,195858  	28,045730  	27,160308  	27,624703  	63,488848  	0,268986  	0,136297  	-3555,967181  	-27094,673451  	-0,102505  	-0,049994  	0,259050  	0,131263  	-3,371792  	10037,536158  	105642,764029  	15,322188  	-0,047946  
52,563000  	23,413462  	29,670750  	26,100808  	956,927186  	70,324807  	64,175277  	0,008854  	0,008569  	0,003962  	0,004312  	0,004381  	0,000001  	-0,000000  	26,157462  	24,760065  	25,646560  	25,457751  	28,281337  	27,016303  	28,217150  	27,834455  	30,573494  	29,769887  	32,408851  	58,201150  	28,051811  	27,143854  	27,629682  	63,499078  	0,259116  	0,131296  	-3434,884110  	22441,082849  	-0,022142  	-0,049994  	0,327636  	0,166016  	-4,274267  	9828,756068  	105519,512645  	15,304311  	-0,047946  
53,562000  	23,366993  	29,687458  	26,099824  	57,696365  	70,329043  	64,177049  	0,008852  	0,008247  	0,003963  	0,004298  	0,004368  	-0,000001  	-0,000000  	26,157963  	24,760797  	25,637469  	25,471022  	28,273187  	27,016573  	28,210061  	27,828142  	30,568345  	29,763357  	32,401534  	58,202510  	28,049064  	27,143406  	27,642580  	63,503126  	0,248254  	0,125792  	-3324,135657  	1708,736160  	-0,053755  	-0,050007  	0,317349  	0,160803  	-4,141717  	9133,458192  	105459,669879  	15,295632  	-0,047958  
54,561000  	23,350531  	29,696319  	26,099886  	1256,670793  	70,331536  	64,181837  	0,008853  	0,008335  	0,003962  	0,004373  	0,004340  	0,000000  	-0,000000  	26,145138  	24,741975  	25,629978  	25,442282  	28,263508  	27,005085  	28,202338  	27,837672  	30,569039  	29,764713  	32,404228  	58,198467  	28,048678  	27,129319  	27,631149  	63,482521  	0,309064  	0,156605  	-4154,962033  	25499,409307  	-0,018516  	-0,050000  	0,295931  	0,149950  	-3,860751  	9324,187087  	105496,705314  	15,301003  	-0,047951  
55,563000  	23,339198  	29,698073  	26,100347  	1256,670793  	70,331785  	64,168810  	0,008851  	0,008706  	0,003962  	0,004336  	0,004360  	-0,000000  	-0,000000  	26,157322  	24,757110  	25,625902  	25,451319  	28,267389  	27,002276  	28,200324  	27,829234  	30,567010  	29,762076  	32,399150  	58,195481  	28,055510  	27,119279  	27,633926  	63,481738  	0,278532  	0,141134  	-3752,223911  	25501,538064  	-0,018517  	-0,050004  	0,311365  	0,157771  	-4,070866  	10123,035269  	105452,453442  	15,294585  	-0,047955  
56,563000  	23,368621  	29,689027  	26,099240  	1256,670793  	70,331162  	64,160664  	0,008860  	0,008516  	0,003962  	0,004326  	0,004363  	-0,000001  	-0,000000  	26,164024  	24,756788  	25,646094  	25,459950  	28,273863  	27,010298  	28,207381  	27,831938  	30,563833  	29,771370  	32,406796  	58,195863  	28,067070  	27,125582  	27,642950  	63,480398  	0,270402  	0,137015  	-3620,660639  	25504,494384  	-0,018519  	-0,050011  	0,313889  	0,159050  	-4,108878  	9713,975054  	105637,574125  	15,321435  	-0,047961  
57,562000  	23,418315  	29,672627  	26,098964  	956,927186  	70,332688  	64,176987  	0,008850  	0,008448  	0,003962  	0,004352  	0,004342  	-0,000000  	-0,000000  	26,147744  	24,753056  	25,637189  	25,455110  	28,273644  	27,000772  	28,207772  	27,818799  	30,568351  	29,761397  	32,404525  	58,195470  	28,059960  	27,105566  	27,633601  	63,482560  	0,291915  	0,147915  	-3867,831723  	22446,135401  	-0,022147  	-0,050006  	0,297210  	0,150598  	-3,881216  	9568,703111  	105433,134291  	15,291783  	-0,047957  
58,568000  	23,472493  	29,663519  	26,099148  	357,439972  	70,337236  	64,185569  	0,008854  	0,008853  	0,003963  	0,004258  	0,004350  	0,000001  	-0,000000  	26,149294  	24,747964  	25,641598  	25,455463  	28,264246  	26,996906  	28,201776  	27,824856  	30,560295  	29,768068  	32,401321  	58,186756  	28,055749  	27,095679  	27,634358  	63,474941  	0,215668  	0,109280  	-2828,642405  	12438,248625  	-0,036414  	-0,049988  	0,303648  	0,153861  	-3,962702  	10441,420698  	105510,989906  	15,303075  	-0,047941  
59,564000  	23,480693  	29,677366  	26,099056  	1256,670793  	70,341286  	64,192253  	0,008857  	0,008810  	0,003963  	0,004358  	0,004378  	-0,000001  	-0,000001  	26,152069  	24,750364  	25,646314  	25,454683  	28,274956  	27,013069  	28,211316  	27,826222  	30,560739  	29,767383  	32,402994  	58,191649  	28,073860  	27,097931  	27,626531  	63,480640  	0,296958  	0,150471  	-3898,370912  	25507,256525  	-0,018521  	-0,050017  	0,325901  	0,165136  	-4,251288  	10347,309138  	105576,269713  	15,312543  	-0,047966  
60,563000  	23,420679  	29,701489  	26,098564  	1256,670793  	70,341847  	64,206556  	0,008852  	0,008582  	0,003962  	0,004377  	0,004349  	0,000000  	-0,000000  	26,161889  	24,757982  	25,644630  	25,459473  	28,279899  	27,020173  	28,207375  	27,830780  	30,574151  	29,765650  	32,405703  	58,193875  	28,079782  	27,097284  	27,638586  	63,487434  	0,312283  	0,158236  	-4155,229410  	25498,839614  	-0,018515  	-0,049998  	0,302828  	0,153445  	-3,941486  	9856,168191  	105466,046047  	15,296557  	-0,047950  
61,562000  	23,342300  	29,733735  	26,098564  	1256,670793  	70,346395  	64,224683  	0,008846  	0,008764  	0,003963  	0,004337  	0,004336  	0,000000  	-0,000000  	26,164203  	24,762966  	25,643334  	25,462152  	28,282617  	27,014575  	28,206934  	27,840051  	30,578773  	29,766941  	32,410592  	58,200664  	28,073752  	27,092731  	27,631716  	63,488892  	0,279504  	0,141627  	-3784,606114  	25498,557648  	-0,018515  	-0,049998  	0,292410  	0,148166  	-3,797482  	10250,045905  	105334,010663  	15,277407  	-0,047949  
62,563000  	23,320065  	29,748997  	26,098195  	657,183579  	70,348388  	64,230155  	0,008851  	0,008277  	0,003962  	0,004311  	0,004361  	-0,000000  	-0,000000  	26,158959  	24,754319  	25,639581  	25,462382  	28,275561  	27,012577  	28,200817  	27,832845  	30,571365  	29,763055  	32,410432  	58,188576  	28,070722  	27,089698  	27,624119  	63,487732  	0,258752  	0,131112  	-3524,177680  	18407,353738  	-0,027544  	-0,050002  	0,312527  	0,158360  	-4,056430  	9199,122635  	105449,127667  	15,294103  	-0,047953  
63,562000  	23,290857  	29,737735  	26,097734  	-242,047242  	70,345273  	64,256086  	0,008859  	0,008463  	0,003961  	0,004329  	0,004337  	-0,000000  	-0,000000  	26,147508  	24,747837  	25,630276  	25,453960  	28,271715  	27,012711  	28,198660  	27,827866  	30,558248  	29,762713  	32,404712  	58,177952  	28,065088  	27,087761  	27,622625  	63,486599  	0,272950  	0,138306  	-3727,930826  	-27099,175536  	-0,102523  	-0,050003  	0,292788  	0,148358  	-3,782195  	9600,506353  	105626,234009  	15,319790  	-0,047954  
64,562000  	23,307872  	29,717673  	26,097673  	-242,047242  	70,345460  	64,253847  	0,008852  	0,008444  	0,003963  	0,004320  	0,004325  	-0,000000  	-0,000000  	26,146774  	24,754428  	25,634559  	25,457119  	28,277717  	27,013597  	28,206518  	27,832895  	30,559520  	29,767274  	32,407132  	58,184961  	28,067389  	27,090211  	27,633265  	63,487425  	0,266094  	0,134832  	-3613,393188  	-27098,021356  	-0,102519  	-0,050001  	0,283935  	0,143872  	-3,669294  	9558,809477  	105460,947937  	15,295817  	-0,047952  
65,562000  	23,345587  	29,696843  	26,097458  	956,927186  	70,345865  	64,225553  	0,008845  	0,008513  	0,003961  	0,004298  	0,004339  	0,000000  	-0,000000  	26,156082  	24,756615  	25,642847  	25,466063  	28,276934  	27,015807  	28,209388  	27,838497  	30,568623  	29,773528  	32,411397  	58,189181  	28,064184  	27,093255  	27,636280  	63,487529  	0,247851  	0,125588  	-3334,904306  	22442,430241  	-0,022144  	-0,049997  	0,295053  	0,149506  	-3,830930  	9706,909082  	105323,553184  	15,275890  	-0,047948  
66,564000  	23,369665  	29,671919  	26,096351  	357,439972  	70,339136  	64,198130  	0,008854  	0,008462  	0,003961  	0,004320  	0,004326  	0,000001  	-0,000000  	26,163283  	24,757514  	25,646422  	25,468754  	28,280942  	27,018914  	28,215141  	27,845488  	30,573613  	29,774884  	32,416398  	58,191065  	28,064458  	27,099275  	27,632799  	63,486289  	0,266115  	0,134843  	-3553,028116  	12439,576961  	-0,036418  	-0,049993  	0,284617  	0,144218  	-3,707911  	9597,496169  	105505,863552  	15,302332  	-0,047946  
67,560000  	23,396570  	29,661119  	26,096720  	1256,670793  	70,337735  	64,198005  	0,008849  	0,008610  	0,003962  	0,004339  	0,004341  	0,000000  	-0,000000  	26,164617  	24,762190  	25,649124  	25,468016  	28,290940  	27,021490  	28,218809  	27,849197  	30,579928  	29,770623  	32,420170  	58,188295  	28,073323  	27,107919  	27,638466  	63,488492  	0,280944  	0,142357  	-3728,570475  	25497,612729  	-0,018514  	-0,049996  	0,296354  	0,150165  	-3,860015  	9916,961868  	105413,871628  	15,288989  	-0,047948  
68,562000  	23,426546  	29,664689  	26,095982  	57,696365  	70,334557  	64,209509  	0,008846  	0,008343  	0,003961  	0,004342  	0,004368  	-0,000000  	-0,000000  	26,159351  	24,766939  	25,651341  	25,463962  	28,287669  	27,017499  	28,210664  	27,847139  	30,579216  	29,771527  	32,419875  	58,183118  	28,066606  	27,105762  	27,638133  	63,487988  	0,283315  	0,143558  	-3744,179471  	1708,769923  	-0,053750  	-0,050001  	0,317441  	0,160849  	-4,124784  	9341,789054  	105334,766200  	15,277516  	-0,047952  
69,560000  	23,451761  	29,679519  	26,096443  	1256,670793  	70,328109  	64,199031  	0,008858  	0,008450  	0,003963  	0,004316  	0,004354  	-0,000001  	-0,000000  	26,156301  	24,765657  	25,651297  	25,462895  	28,283791  	27,011165  	28,208503  	27,841713  	30,564773  	29,774900  	32,419447  	58,189977  	28,058476  	27,107764  	27,631436  	63,483562  	0,262465  	0,132993  	-3462,852491  	25505,408449  	-0,018520  	-0,050013  	0,306598  	0,155356  	-3,986518  	9571,628401  	105589,551630  	15,314470  	-0,047962  
70,564000  	23,438554  	29,693550  	26,096320  	1256,670793  	70,321567  	64,191507  	0,008857  	0,008533  	0,003962  	0,004308  	0,004348  	0,000000  	-0,000000  	26,159385  	24,756047  	25,646357  	25,461200  	28,284086  	27,013583  	28,209447  	27,834942  	30,558606  	29,769024  	32,413989  	58,188506  	28,061018  	27,124746  	27,635378  	63,481664  	0,256563  	0,130002  	-3399,794397  	25498,637758  	-0,018515  	-0,049998  	0,301792  	0,152920  	-3,924651  	9750,779940  	105566,857276  	15,311178  	-0,047949  
71,561000  	23,448506  	29,708689  	26,096781  	357,439972  	70,311194  	64,188305  	0,008860  	0,008430  	0,003961  	0,004318  	0,004378  	-0,000000  	-0,000000  	26,159424  	24,765139  	25,650568  	25,455359  	28,282814  	27,017029  	28,210231  	27,841445  	30,566570  	29,766513  	32,417081  	58,184826  	28,057213  	27,123000  	27,637268  	63,475319  	0,264073  	0,133808  	-3502,206828  	12442,423505  	-0,036426  	-0,050006  	0,326016  	0,165194  	-4,234703  	9529,765276  	105645,362511  	15,322564  	-0,047957  
72,563000  	23,473384  	29,721612  	26,096966  	956,927186  	70,307394  	64,180407  	0,008852  	0,008738  	0,003963  	0,004324  	0,004323  	0,000001  	-0,000000  	26,165746  	24,762942  	25,653295  	25,469707  	28,294972  	27,016328  	28,214167  	27,839308  	30,572864  	29,775127  	32,419774  	58,193182  	28,061298  	27,126536  	27,630862  	63,485111  	0,269530  	0,136573  	-3567,751079  	22441,245210  	-0,022142  	-0,049994  	0,282015  	0,142899  	-3,665618  	10192,126582  	105471,221828  	15,297307  	-0,047946  
73,562000  	23,483826  	29,722135  	26,098257  	1256,670793  	70,308203  	64,168188  	0,008854  	0,008607  	0,003962  	0,004344  	0,004332  	0,000000  	-0,000000  	26,162828  	24,765391  	25,651589  	25,471727  	28,285204  	27,011626  	28,216250  	27,837220  	30,579922  	29,772004  	32,410049  	58,194507  	28,052093  	27,131706  	27,630195  	63,488370  	0,285206  	0,144516  	-3769,257896  	25498,356591  	-0,018515  	-0,049997  	0,289003  	0,146440  	-3,764432  	9911,361724  	105512,599835  	15,303309  	-0,047949  
74,564000  	23,464722  	29,727797  	26,099363  	1256,670793  	70,308017  	64,170240  	0,008855  	0,008405  	0,003964  	0,004334  	0,004364  	-0,000000  	-0,000000  	26,169357  	24,776542  	25,660083  	25,471774  	28,287385  	27,021760  	28,228543  	27,854382  	30,577656  	29,783367  	32,426308  	58,193812  	28,055687  	27,126169  	27,627752  	63,487712  	0,277541  	0,140632  	-3682,515894  	25502,055414  	-0,018518  	-0,050005  	0,314536  	0,159378  	-4,095523  	9474,412567  	105530,810394  	15,305950  	-0,047956  
75,562000  	23,443806  	29,736935  	26,099363  	357,439972  	70,311287  	64,194927  	0,008856  	0,008465  	0,003962  	0,004351  	0,004363  	-0,000000  	-0,000000  	26,166332  	24,770552  	25,648427  	25,471073  	28,291211  	27,016694  	28,214817  	27,848796  	30,585329  	29,780519  	32,420920  	58,197613  	28,040728  	27,123434  	27,630154  	63,483677  	0,291244  	0,147575  	-3882,883233  	12441,677089  	-0,036424  	-0,050003  	0,313671  	0,158940  	-4,070021  	9605,349529  	105544,805481  	15,307980  	-0,047954  
76,565000  	23,384592  	29,751889  	26,098994  	956,927186  	70,318577  	64,186035  	0,008854  	0,008335  	0,003962  	0,004383  	0,004368  	-0,000000  	-0,000000  	26,168977  	24,779382  	25,654792  	25,484189  	28,297983  	27,021435  	28,227777  	27,854853  	30,586708  	29,787722  	32,428763  	58,194270  	28,044978  	27,143452  	27,640094  	63,482744  	0,316739  	0,160494  	-4272,568812  	22444,051900  	-0,022145  	-0,050001  	0,317506  	0,160882  	-4,130667  	9324,616506  	105514,852324  	15,303635  	-0,047952  
77,562000  	23,295955  	29,757151  	26,099578  	57,696365  	70,322907  	64,172137  	0,008856  	0,008365  	0,003963  	0,004308  	0,004361  	-0,000001  	-0,000000  	26,163838  	24,768331  	25,656325  	25,473171  	28,288456  	27,017120  	28,217938  	27,848469  	30,580203  	29,776473  	32,412502  	58,192358  	28,043370  	27,139208  	27,640731  	63,470381  	0,256122  	0,129779  	-3505,862343  	1708,765482  	-0,053756  	-0,050008  	0,312025  	0,158105  	-4,071418  	9389,632929  	105555,559527  	15,309540  	-0,047958  
78,563000  	23,286373  	29,744597  	26,099578  	1256,670793  	70,329947  	64,160944  	0,008842  	0,008519  	0,003960  	0,004313  	0,004350  	-0,000000  	-0,000000  	26,156521  	24,761890  	25,639872  	25,476193  	28,280874  	27,009146  	28,209311  	27,835142  	30,568673  	29,772870  	32,396382  	58,176117  	28,040210  	27,138919  	27,630502  	63,465580  	0,259820  	0,131653  	-3554,854672  	25501,012084  	-0,018517  	-0,050003  	0,303233  	0,153650  	-3,968425  	9720,370367  	105254,855807  	15,265926  	-0,047954  
79,562000  	23,265735  	29,713489  	26,099486  	357,439972  	70,336177  	64,152394  	0,008857  	0,008448  	0,003964  	0,004288  	0,004345  	0,000000  	-0,000000  	26,163189  	24,770413  	25,655760  	25,465800  	28,287295  	27,018342  	28,217347  	27,847087  	30,585175  	29,772163  	32,419940  	58,183271  	28,038565  	27,140496  	27,636679  	63,458821  	0,240073  	0,121647  	-3279,355717  	12439,964576  	-0,036419  	-0,049996  	0,299777  	0,151899  	-3,932595  	9568,123713  	105584,079282  	15,313676  	-0,047948  
80,564000  	23,292147  	29,675273  	26,099056  	956,927186  	70,332813  	64,146859  	0,008854  	0,008525  	0,003962  	0,004318  	0,004362  	-0,000000  	-0,000000  	26,166746  	24,779511  	25,650820  	25,480336  	28,286340  	27,027642  	28,218247  	27,849886  	30,585544  	29,778484  	32,416637  	58,186933  	28,042756  	27,159275  	27,634024  	63,449132  	0,264528  	0,134038  	-3577,179852  	22445,870693  	-0,022147  	-0,050005  	0,312986  	0,158593  	-4,107318  	9733,954748  	105513,221211  	15,303399  	-0,047956  
81,562000  	23,337786  	29,646258  	26,098011  	1256,670793  	70,336738  	64,161441  	0,008849  	0,008487  	0,003964  	0,004320  	0,004356  	-0,000000  	-0,000000  	26,166405  	24,768363  	25,650952  	25,474069  	28,296158  	27,025422  	28,223297  	27,855420  	30,584841  	29,782254  	32,426035  	58,191064  	28,032404  	27,143592  	27,619149  	63,466516  	0,265849  	0,134708  	-3552,986784  	25499,709026  	-0,018516  	-0,050000  	0,308304  	0,156220  	-4,038909  	9652,798649  	105410,913030  	15,288560  	-0,047952  
82,561000  	23,373658  	29,634627  	26,098994  	1256,670793  	70,342096  	64,181029  	0,008860  	0,008644  	0,003960  	0,004371  	0,004317  	0,000000  	-0,000000  	26,169275  	24,769262  	25,651458  	25,486120  	28,288586  	27,025472  	28,221986  	27,848066  	30,586262  	29,786265  	32,431678  	58,191980  	28,030453  	27,159152  	27,631408  	63,457980  	0,307541  	0,155833  	-4079,224321  	25497,385976  	-0,018514  	-0,049995  	0,277396  	0,140559  	-3,625633  	9990,012049  	105648,737714  	15,323054  	-0,047947  
83,563000  	23,421017  	29,639058  	26,098902  	1256,670793  	70,342314  	64,179288  	0,008856  	0,008471  	0,003965  	0,004330  	0,004360  	-0,000001  	-0,000000  	26,173107  	24,778969  	25,652606  	25,473629  	28,284848  	27,030489  	28,220926  	27,851945  	30,585037  	29,786886  	32,423973  	58,196500  	28,040462  	27,169695  	27,636838  	63,458213  	0,274108  	0,138892  	-3610,823409  	25506,893639  	-0,018521  	-0,050016  	0,311187  	0,157681  	-4,068589  	9617,742570  	105555,171166  	15,309483  	-0,047965  
84,562000  	23,451608  	29,653643  	26,098595  	1256,670793  	70,341442  	64,193652  	0,008856  	0,008540  	0,003964  	0,004297  	0,004332  	-0,000000  	-0,000000  	26,176052  	24,783246  	25,661838  	25,485297  	28,299796  	27,039804  	28,234461  	27,850300  	30,594116  	29,792776  	32,431887  	58,206131  	28,043111  	27,173450  	27,643573  	63,461726  	0,247126  	0,125220  	-3247,006721  	25500,494936  	-0,018516  	-0,050002  	0,289351  	0,146616  	-3,773746  	9766,591361  	105564,710703  	15,310867  	-0,047953  
85,561000  	23,429555  	29,678381  	26,097488  	1256,670793  	70,343030  	64,190108  	0,008862  	0,008723  	0,003964  	0,004327  	0,004350  	-0,000001  	-0,000000  	26,178385  	24,780895  	25,661521  	25,489121  	28,306157  	27,043480  	28,233525  	27,863344  	30,599123  	29,793249  	32,435285  	58,200109  	28,054278  	27,187094  	27,638243  	63,467275  	0,271822  	0,137734  	-3598,440468  	25506,115936  	-0,018521  	-0,050014  	0,303390  	0,153730  	-3,960139  	10160,563165  	105675,089714  	15,326876  	-0,047964  
86,563000  	23,425071  	29,702689  	26,097058  	657,183579  	70,344526  	64,188802  	0,008839  	0,008388  	0,003961  	0,004324  	0,004382  	-0,000000  	-0,000000  	26,176268  	24,761832  	25,654516  	25,472044  	28,296631  	27,026888  	28,222526  	27,849728  	30,577448  	29,780816  	32,422436  	58,188479  	28,037733  	27,191087  	27,624342  	63,464438  	0,269235  	0,136423  	-3580,614199  	18406,931587  	-0,027544  	-0,050001  	0,328647  	0,166528  	-4,291771  	9437,820623  	105198,769542  	15,257792  	-0,047952  
87,565000  	23,411066  	29,715612  	26,097427  	657,183579  	70,340320  	64,216847  	0,008855  	0,008614  	0,003961  	0,004330  	0,004373  	-0,000001  	-0,000000  	26,177346  	24,771807  	25,654580  	25,474902  	28,293834  	27,027524  	28,222618  	27,846157  	30,578328  	29,779970  	32,419270  	58,190091  	28,045363  	27,199257  	27,630346  	63,465733  	0,273905  	0,138789  	-3658,348223  	18409,649501  	-0,027548  	-0,050009  	0,322045  	0,163183  	-4,183547  	9925,705195  	105526,277173  	15,305293  	-0,047959  
88,564000  	23,379923  	29,720720  	26,097734  	57,696365  	70,337890  	64,208763  	0,008855  	0,008754  	0,003961  	0,004383  	0,004381  	-0,000002  	-0,000000  	26,174311  	24,779177  	25,655385  	25,476815  	28,293461  	27,032226  	28,228787  	27,850053  	30,587207  	29,779377  	32,416281  	58,194131  	28,054873  	27,214520  	27,636989  	63,466753  	0,316977  	0,160614  	-4257,984924  	1709,248602  	-0,053768  	-0,050020  	0,328089  	0,166245  	-4,265993  	10227,667261  	105534,256208  	15,306450  	-0,047969  
89,566000  	23,341717  	29,729058  	26,098287  	1256,670793  	70,341753  	64,199342  	0,008850  	0,008369  	0,003962  	0,004337  	0,004349  	0,000001  	-0,000000  	26,170158  	24,773469  	25,659373  	25,479005  	28,289106  	27,029264  	28,229085  	27,847380  	30,584045  	29,780814  	32,412332  	58,189827  	28,049556  	27,221241  	27,631614  	63,452854  	0,279667  	0,141709  	-3784,382550  	25495,793626  	-0,018513  	-0,049992  	0,302669  	0,153364  	-3,943982  	9398,333809  	105418,814393  	15,289706  	-0,047944  
90,565000  	23,321262  	29,722658  	26,097673  	657,183579  	70,338451  	64,213334  	0,008863  	0,008381  	0,003963  	0,004334  	0,004299  	-0,000001  	-0,000000  	26,174863  	24,774452  	25,659771  	25,482778  	28,292022  	27,024905  	28,225613  	27,850721  	30,581522  	29,789936  	32,420960  	58,191551  	28,046628  	27,230262  	27,631575  	63,459721  	0,277527  	0,140625  	-3763,695887  	18409,098550  	-0,027547  	-0,050007  	0,263279  	0,133405  	-3,421053  	9423,448147  	105700,347245  	15,330539  	-0,047958  
91,564000  	23,314813  	29,710473  	26,097765  	657,183579  	70,334183  	64,209385  	0,008858  	0,008405  	0,003960  	0,004339  	0,004350  	-0,000001  	-0,000000  	26,177774  	24,780809  	25,666037  	25,491867  	28,295955  	27,031211  	28,223441  	27,858889  	30,589751  	29,793606  	32,431675  	58,194628  	28,043036  	27,239502  	27,640875  	63,467894  	0,281628  	0,142703  	-3815,895191  	18409,038023  	-0,027547  	-0,050007  	0,303598  	0,153835  	-3,944751  	9475,507694  	105586,755437  	15,314064  	-0,047958  
92,563000  	23,315366  	29,696935  	26,097703  	57,696365  	70,334557  	64,193217  	0,008856  	0,008555  	0,003962  	0,004330  	0,004335  	-0,000002  	-0,000000  	26,178170  	24,778658  	25,666212  	25,491931  	28,293591  	27,032932  	28,223063  	27,853762  	30,595321  	29,788048  	32,423706  	58,188538  	28,040333  	27,244752  	27,635852  	63,466874  	0,274325  	0,139003  	-3708,751372  	1709,372839  	-0,053772  	-0,050024  	0,291805  	0,147860  	-3,801758  	9799,222314  	105558,878240  	15,310021  	-0,047972  
93,563000  	23,334100  	29,675058  	26,098472  	1256,670793  	70,336676  	64,176645  	0,008854  	0,008434  	0,003962  	0,004320  	0,004372  	-0,000002  	-0,000000  	26,177029  	24,776999  	25,661669  	25,477852  	28,297126  	27,030540  	28,225760  	27,852809  	30,594352  	29,782614  	32,418891  	58,188371  	28,046178  	27,251448  	27,632064  	63,473692  	0,265676  	0,134620  	-3568,953124  	25509,783255  	-0,018523  	-0,050022  	0,320669  	0,162485  	-4,190516  	9537,364662  	105502,269455  	15,301810  	-0,047971  
94,563000  	23,350562  	29,660289  	26,097980  	657,183579  	70,334557  	64,158985  	0,008849  	0,008346  	0,003962  	0,004379  	0,004346  	-0,000002  	-0,000001  	26,172552  	24,779511  	25,663465  	25,473414  	28,301143  	27,032255  	28,225450  	27,858687  	30,591697  	29,783374  	32,428674  	58,193904  	28,043840  	27,262292  	27,638689  	63,480146  	0,314063  	0,159138  	-4198,184235  	18413,846328  	-0,027554  	-0,050022  	0,300377  	0,152203  	-3,935230  	9347,439426  	105394,841982  	15,286229  	-0,047970  
95,563000  	23,346324  	29,651243  	26,098533  	657,183579  	70,328047  	64,153606  	0,008859  	0,008478  	0,003962  	0,004341  	0,004358  	-0,000001  	-0,000000  	26,172818  	24,773631  	25,658933  	25,477818  	28,291794  	27,027659  	28,217022  	27,852646  	30,584515  	29,782855  	32,428078  	58,191460  	28,033140  	27,267245  	27,627349  	63,481876  	0,282797  	0,143295  	-3777,358305  	18409,347773  	-0,027547  	-0,050008  	0,310187  	0,157174  	-4,063006  	9633,408258  	105612,450755  	15,317791  	-0,047958  
96,563000  	23,325439  	29,648535  	26,097673  	57,696365  	70,322066  	64,157524  	0,008853  	0,008548  	0,003963  	0,004332  	0,004365  	-0,000002  	-0,000000  	26,175183  	24,770462  	25,659662  	25,476997  	28,288548  	27,026780  	28,217469  	27,855582  	30,584507  	29,777409  	32,426809  	58,189856  	28,036208  	27,261698  	27,623056  	63,481209  	0,275694  	0,139696  	-3693,105301  	1709,353561  	-0,053771  	-0,050023  	0,315557  	0,159895  	-4,126719  	9782,397830  	105488,253185  	15,299778  	-0,047971  
97,564000  	23,326053  	29,651212  	26,097980  	1256,670793  	70,323405  	64,168437  	0,008858  	0,008353  	0,003963  	0,004364  	0,004362  	-0,000000  	-0,000000  	26,175982  	24,775628  	25,664022  	25,479753  	28,298461  	27,027735  	28,227567  	27,858451  	30,593619  	29,780310  	32,431114  	58,189926  	28,041110  	27,271916  	27,641609  	63,483171  	0,301535  	0,152790  	-4040,578637  	25500,212332  	-0,018516  	-0,050001  	0,313036  	0,158618  	-4,087406  	9362,815061  	105588,965559  	15,314385  	-0,047953  
98,560000  	23,323904  	29,650043  	26,098410  	1256,670793  	70,325960  	64,159731  	0,008859  	0,008695  	0,003962  	0,004299  	0,004346  	0,000000  	-0,000000  	26,173339  	24,777633  	25,663893  	25,486209  	28,299161  	27,032057  	28,223053  	27,855065  	30,590793  	29,777647  	32,429610  	58,192441  	28,043686  	27,281232  	27,644792  	63,483098  	0,249009  	0,126175  	-3337,241385  	25499,201248  	-0,018516  	-0,049999  	0,300649  	0,152341  	-3,932834  	10101,283423  	105626,523514  	15,319832  	-0,047951  
99,563000  	23,324456  	29,644781  	26,098226  	1256,670793  	70,328327  	64,150559  	0,008850  	0,008387  	0,003962  	0,004339  	0,004365  	0,000000  	-0,000000  	26,180320  	24,781152  	25,662705  	25,488101  	28,300293  	27,033571  	28,230535  	27,853971  	30,590435  	29,789322  	32,435096  	58,186635  	28,050243  	27,285640  	27,634004  	63,490870  	0,281604  	0,142691  	-3770,613690  	25499,369676  	-0,018516  	-0,050000  	0,315535  	0,159884  	-4,135280  	9435,155673  	105415,008464  	15,289154  	-0,047951  
100,561000  	23,334100  	29,642443  	26,099148  	1256,670793  	70,332750  	64,165732  	0,008858  	0,008501  	0,003961  	0,004341  	0,004384  	0,000000  	-0,000000  	26,177035  	24,781112  	25,663230  	25,481137  	28,298057  	27,027232  	28,229464  	27,851146  	30,590040  	29,794695  	32,430671  	58,195305  	28,051246  	27,289405  	27,636369  	63,485391  	0,283116  	0,143457  	-3783,673163  	25498,964491  	-0,018515  	-0,049999  	0,330447  	0,167440  	-4,323191  	9680,991085  	105607,387951  	15,317057  	-0,047950  
101,565000  	23,377374  	29,639427  	26,100285  	-242,047242  	70,340725  	64,169152  	0,008850  	0,008467  	0,003964  	0,004342  	0,004365  	-0,000001  	-0,000000  	26,171538  	24,776825  	25,655442  	25,465906  	28,292331  	27,021904  	28,222819  	27,858281  	30,576920  	29,779277  	32,428484  	58,192190  	28,040907  	27,280827  	27,631770  	63,486882  	0,283614  	0,143709  	-3762,507442  	-27105,941278  	-0,102548  	-0,050017  	0,315539  	0,159886  	-4,131194  	9608,965994  	105418,489583  	15,289659  	-0,047966  
102,561000  	23,393590  	29,645150  	26,099732  	357,439972  	70,344027  	64,164115  	0,008851  	0,008377  	0,003963  	0,004310  	0,004359  	0,000000  	-0,000000  	26,156702  	24,758722  	25,655409  	25,472531  	28,286116  	27,012440  	28,218976  	27,840966  	30,567708  	29,770371  	32,415522  	58,183342  	28,027155  	27,274136  	27,629002  	63,468494  	0,257614  	0,130535  	-3411,856401  	12440,211966  	-0,036420  	-0,049997  	0,310680  	0,157424  	-4,073078  	9413,775236  	105456,315860  	15,295145  	-0,047949  
103,563000  	23,380322  	29,651612  	26,100839  	357,439972  	70,343404  	64,157741  	0,008854  	0,008699  	0,003962  	0,004341  	0,004364  	0,000000  	-0,000000  	26,170808  	24,763904  	25,654273  	25,472861  	28,285719  	27,025098  	28,213112  	27,834846  	30,588201  	29,776441  	32,425837  	58,192784  	28,032095  	27,292134  	27,633888  	63,472716  	0,282714  	0,143253  	-3756,100875  	12440,465647  	-0,036421  	-0,049998  	0,314677  	0,159449  	-4,129320  	10108,842485  	105508,666806  	15,302738  	-0,047950  
104,563000  	23,390642  	29,663242  	26,100531  	956,927186  	70,344276  	64,156622  	0,008848  	0,008511  	0,003962  	0,004291  	0,004396  	0,000000  	-0,000000  	26,167030  	24,769645  	25,655690  	25,463655  	28,279407  	27,017345  	28,223250  	27,848627  	30,576616  	29,778293  	32,415583  	58,191354  	28,039021  	27,282051  	27,624250  	63,480112  	0,242589  	0,122922  	-3223,673056  	22443,047172  	-0,022144  	-0,049998  	0,339832  	0,172195  	-4,460841  	9702,926868  	105378,064824  	15,283796  	-0,047950  
105,564000  	23,383517  	29,675612  	26,100009  	1256,670793  	70,346862  	64,168188  	0,008862  	0,008400  	0,003962  	0,004313  	0,004324  	-0,000001  	-0,000000  	26,159742  	24,767423  	25,642887  	25,462839  	28,282502  	27,013055  	28,210456  	27,838611  	30,568691  	29,775184  	32,415852  	58,183755  	28,032390  	27,287154  	27,630502  	63,457285  	0,260000  	0,131744  	-3465,776459  	25502,932696  	-0,018518  	-0,050007  	0,282998  	0,143397  	-3,709416  	9464,375321  	105674,835515  	15,326839  	-0,047958  
106,566000  	23,382472  	29,678812  	26,101300  	1256,670793  	70,353466  	64,196233  	0,008850  	0,008456  	0,003962  	0,004317  	0,004322  	0,000002  	-0,000001  	26,172945  	24,775549  	25,654863  	25,469504  	28,286501  	27,018291  	28,219219  	27,843053  	30,578408  	29,773226  	32,411593  	58,185832  	28,040921  	27,298342  	27,635943  	63,466891  	0,263761  	0,133650  	-3518,291961  	25489,255739  	-0,018508  	-0,049978  	0,281171  	0,142472  	-3,672700  	9584,477745  	105432,117493  	15,291636  	-0,047932  
107,564000  	23,390304  	29,687489  	26,101853  	1256,670793  	70,355553  	64,202110  	0,008852  	0,008445  	0,003961  	0,004357  	0,004344  	0,000000  	-0,000000  	26,166166  	24,770247  	25,648665  	25,470508  	28,286546  	27,016269  	28,219250  	27,836556  	30,576369  	29,779782  	32,412769  	58,188487  	28,039673  	27,282805  	27,632449  	63,472122  	0,295996  	0,149983  	-3948,796272  	25497,502578  	-0,018514  	-0,049996  	0,298410  	0,151207  	-3,895477  	9561,978836  	105478,805442  	15,298407  	-0,047948  
108,563000  	23,393621  	29,692781  	26,101669  	57,696365  	70,354743  	64,185879  	0,008862  	0,008483  	0,003962  	0,004337  	0,004394  	-0,000001  	-0,000000  	26,156365  	24,768499  	25,640733  	25,468090  	28,275157  	27,011173  	28,218980  	27,834511  	30,567428  	29,773847  	32,405328  	58,191971  	28,036194  	27,299946  	27,632631  	63,473429  	0,279725  	0,141739  	-3732,900544  	1708,774409  	-0,053760  	-0,050012  	0,338282  	0,171410  	-4,427023  	9643,113004  	105687,453688  	15,328669  	-0,047962  
109,563000  	23,398412  	29,692904  	26,101945  	1256,670793  	70,358668  	64,192191  	0,008852  	0,008390  	0,003961  	0,004340  	0,004336  	-0,000002  	-0,000000  	26,165024  	24,769528  	25,649618  	25,466213  	28,283467  	27,022339  	28,212223  	27,841086  	30,569718  	29,768341  	32,409677  	58,182974  	28,042107  	27,299952  	27,622450  	63,474296  	0,282266  	0,143026  	-3764,020069  	25508,843541  	-0,018523  	-0,050021  	0,292554  	0,148239  	-3,827115  	9443,656346  	105474,236915  	15,297745  	-0,047969  
110,564000  	23,399887  	29,691058  	26,102068  	1256,670793  	70,363092  	64,188833  	0,008859  	0,008597  	0,003962  	0,004319  	0,004304  	-0,000000  	-0,000000  	26,165252  	24,774186  	25,657203  	25,468857  	28,291586  	27,015384  	28,217934  	27,842730  	30,574955  	29,769835  	32,419991  	58,193340  	28,052647  	27,318749  	27,633878  	63,465775  	0,265272  	0,134416  	-3535,541140  	25501,831521  	-0,018518  	-0,050005  	0,267066  	0,135324  	-3,498095  	9889,322655  	105612,493122  	15,317797  	-0,047956  
111,562000  	23,379432  	29,691242  	26,102621  	357,439972  	70,363372  	64,176552  	0,008857  	0,008532  	0,003962  	0,004313  	0,004330  	-0,000000  	-0,000001  	26,170067  	24,776321  	25,656675  	25,476749  	28,287527  	27,024431  	28,225775  	27,845764  	30,579037  	29,781047  	32,423277  	58,192888  	28,053500  	27,312817  	27,634519  	63,466597  	0,260255  	0,131873  	-3480,051013  	12441,183950  	-0,036423  	-0,050002  	0,287993  	0,145928  	-3,779873  	9749,768292  	105580,280414  	15,313125  	-0,047953  
112,564000  	23,352773  	29,693950  	26,102253  	956,927186  	70,360569  	64,177174  	0,008859  	0,008396  	0,003963  	0,004324  	0,004365  	-0,000001  	-0,000000  	26,168726  	24,771491  	25,650354  	25,475462  	28,286023  	27,012759  	28,217427  	27,839180  	30,573131  	29,768964  	32,416684  	58,189064  	28,050743  	27,303651  	27,629718  	63,458853  	0,269254  	0,136433  	-3617,144433  	22447,549747  	-0,022149  	-0,050010  	0,314956  	0,159590  	-4,131465  	9456,526914  	105612,168312  	15,317750  	-0,047960  
113,562000  	23,356643  	29,695273  	26,102068  	1256,670793  	70,356799  	64,185227  	0,008858  	0,008412  	0,003962  	0,004369  	0,004353  	0,000000  	-0,000000  	26,173772  	24,772879  	25,660980  	25,472820  	28,285806  	27,013970  	28,216346  	27,835623  	30,582010  	29,765138  	32,419057  	58,192047  	28,052114  	27,307739  	27,637017  	63,457679  	0,305430  	0,154764  	-4101,485817  	25498,911039  	-0,018515  	-0,049999  	0,305711  	0,154906  	-4,002527  	9489,183335  	105596,386768  	15,315461  	-0,047950  
114,565000  	23,380537  	29,690473  	26,103175  	1256,670793  	70,352812  	64,192067  	0,008852  	0,008498  	0,003964  	0,004324  	0,004382  	-0,000001  	-0,000000  	26,168280  	24,766643  	25,662565  	25,473076  	28,284885  	27,018060  	28,219181  	27,839413  	30,583000  	29,768627  	32,418023  	58,188445  	28,055344  	27,311413  	27,634947  	63,459966  	0,269234  	0,136423  	-3599,043915  	25507,212771  	-0,018521  	-0,050017  	0,328509  	0,166458  	-4,293474  	9676,358728  	105462,903860  	15,296101  	-0,047966  
115,561000  	23,386803  	29,681150  	26,104097  	1256,670793  	70,353684  	64,180843  	0,008857  	0,008647  	0,003962  	0,004366  	0,004374  	0,000001  	-0,000000  	26,158882  	24,762132  	25,656702  	25,472967  	28,281244  	27,020991  	28,216037  	27,843058  	30,581019  	29,773699  	32,420183  	58,186250  	28,053483  	27,320184  	27,629054  	63,461300  	0,303532  	0,153802  	-4047,511261  	25494,503864  	-0,018512  	-0,049989  	0,322122  	0,163222  	-4,218261  	9996,199373  	105569,236864  	15,311523  	-0,047942  
116,564000  	23,379248  	29,677396  	26,105326  	1256,670793  	70,363279  	64,188118  	0,008863  	0,008373  	0,003963  	0,004357  	0,004378  	-0,000000  	-0,000000  	26,161384  	24,768458  	25,656961  	25,478040  	28,285587  	27,027119  	28,223888  	27,850825  	30,584232  	29,775941  	32,424677  	58,188968  	28,057076  	27,322656  	27,634397  	63,470361  	0,296245  	0,150109  	-3952,725295  	25500,865200  	-0,018517  	-0,050003  	0,325591  	0,164979  	-4,265291  	9406,684503  	105706,144402  	15,331380  	-0,047954  
117,563000  	23,365089  	29,682258  	26,105849  	1256,670793  	70,369852  	64,205810  	0,008850  	0,008455  	0,003963  	0,004293  	0,004402  	0,000000  	-0,000000  	26,167227  	24,774558  	25,660443  	25,477742  	28,286935  	27,025940  	28,222205  	27,851162  	30,584660  	29,773347  	32,426975  	58,189533  	28,058473  	27,319203  	27,636448  	63,474188  	0,244293  	0,123785  	-3269,385338  	25497,042710  	-0,018514  	-0,049995  	0,344675  	0,174649  	-4,507177  	9583,614661  	105431,778561  	15,291587  	-0,047947  
118,563000  	23,343222  	29,687427  	26,106586  	1256,670793  	70,369229  	64,199653  	0,008861  	0,008411  	0,003963  	0,004363  	0,004341  	-0,000001  	-0,000000  	26,172610  	24,771421  	25,656921  	25,473666  	28,283643  	27,020158  	28,214994  	27,843010  	30,576970  	29,772374  	32,422097  	58,182377  	28,055231  	27,316621  	27,638175  	63,465218  	0,300903  	0,152470  	-4044,243119  	25506,999578  	-0,018521  	-0,050017  	0,296585  	0,150282  	-3,881798  	9488,054959  	105660,974589  	15,324829  	-0,047966  
119,562000  	23,322214  	29,688350  	26,107324  	357,439972  	70,362780  	64,192658  	0,008853  	0,008628  	0,003961  	0,004299  	0,004363  	0,000001  	-0,000000  	26,175892  	24,772326  	25,655837  	25,474749  	28,285735  	27,021503  	28,224800  	27,845305  	30,577625  	29,776768  	32,418992  	58,185271  	28,056740  	27,319954  	27,638644  	63,464636  	0,249226  	0,126284  	-3361,265194  	12436,784344  	-0,036411  	-0,049983  	0,313592  	0,158899  	-4,104755  	9956,767033  	105486,876272  	15,299578  	-0,047937  
120,563000  	23,318160  	29,683673  	26,108308  	956,927186  	70,357298  	64,183579  	0,008859  	0,008593  	0,003961  	0,004356  	0,004341  	0,000001  	-0,000000  	26,173144  	24,777659  	25,662584  	25,476775  	28,287847  	27,021704  	28,227190  	27,848744  	30,580816  	29,778364  	32,418369  	58,196736  	28,053962  	27,325496  	27,633675  	63,474589  	0,295449  	0,149706  	-3984,281071  	22440,603832  	-0,022142  	-0,049993  	0,296096  	0,150034  	-3,877992  	9879,799722  	105610,014678  	15,317438  	-0,047945  
121,562000  	23,288308  	29,669181  	26,108431  	57,696365  	70,359478  	64,194274  	0,008852  	0,008536  	0,003963  	0,004318  	0,004379  	0,000000  	-0,000000  	26,172861  	24,775603  	25,661590  	25,479903  	28,287270  	27,024571  	28,219209  	27,846371  	30,572833  	29,780763  	32,416651  	58,198448  	28,045751  	27,323604  	27,634793  	63,476431  	0,264438  	0,133993  	-3574,693279  	1707,940568  	-0,053745  	-0,049997  	0,326426  	0,165402  	-4,269336  	9757,847327  	105477,887500  	15,298274  	-0,047949  
122,565000  	23,291502  	29,655581  	26,110275  	1256,670793  	70,363341  	64,215355  	0,008852  	0,008496  	0,003962  	0,004322  	0,004371  	0,000001  	-0,000000  	26,173136  	24,775066  	25,654713  	25,477378  	28,287253  	27,035159  	28,222794  	27,850182  	30,574946  	29,787506  	32,423980  	58,197657  	28,041629  	27,324930  	27,630449  	63,471697  	0,267562  	0,135576  	-3607,405001  	25495,534434  	-0,018513  	-0,049992  	0,319740  	0,162015  	-4,170230  	9670,653175  	105471,341867  	15,297325  	-0,047945  
123,564000  	23,307718  	29,651058  	26,111842  	1256,670793  	70,366892  	64,219925  	0,008860  	0,008660  	0,003962  	0,004326  	0,004329  	-0,000001  	-0,000000  	26,167810  	24,773397  	25,651727  	25,465777  	28,287355  	27,025399  	28,217203  	27,844515  	30,578076  	29,780058  	32,420481  	58,188215  	28,035531  	27,330326  	27,625710  	63,468380  	0,270969  	0,137302  	-3641,435061  	25505,807954  	-0,018521  	-0,050015  	0,286438  	0,145140  	-3,735261  	10025,612861  	105632,031167  	15,320631  	-0,047964  
124,564000  	23,324426  	29,644904  	26,112519  	1256,670793  	70,368512  	64,203260  	0,008856  	0,008903  	0,003964  	0,004384  	0,004348  	-0,000001  	-0,000000  	26,170334  	24,773655  	25,653127  	25,469170  	28,284503  	27,021125  	28,215859  	27,848397  	30,583600  	29,779249  	32,418984  	58,194618  	28,037616  	27,336776  	27,630888  	63,473479  	0,317451  	0,160855  	-4250,706122  	25501,987985  	-0,018518  	-0,050006  	0,302090  	0,153071  	-3,951084  	10548,250725  	105550,291951  	15,308776  	-0,047957  
125,562000  	23,363953  	29,642289  	26,112857  	1256,670793  	70,368138  	64,208732  	0,008853  	0,008576  	0,003963  	0,004270  	0,004375  	-0,000000  	-0,000000  	26,173842  	24,773466  	25,656514  	25,475223  	28,278251  	27,018994  	28,223610  	27,848253  	30,583585  	29,777874  	32,414228  	58,193574  	28,033290  	27,350012  	27,629745  	63,472688  	0,225062  	0,114040  	-2993,502648  	25501,635324  	-0,018518  	-0,050006  	0,323126  	0,163730  	-4,222213  	9844,348181  	105480,613082  	15,298669  	-0,047956  
126,561000  	23,379002  	29,640935  	26,113963  	657,183579  	70,368201  	64,250023  	0,008858  	0,008438  	0,003961  	0,004336  	0,004359  	0,000000  	-0,000000  	26,173037  	24,776426  	25,659779  	25,474098  	28,281655  	27,018743  	28,221114  	27,845549  	30,578318  	29,782485  	32,419995  	58,190460  	28,042688  	27,351352  	27,631563  	63,464739  	0,278706  	0,141222  	-3697,319881  	18405,940446  	-0,027543  	-0,050000  	0,310811  	0,157490  	-4,034135  	9546,440489  	105605,100157  	15,316725  	-0,047951  
127,563000  	23,362233  	29,654873  	26,114885  	657,183579  	70,364681  	64,275146  	0,008856  	0,008450  	0,003963  	0,004326  	0,004343  	0,000001  	-0,000000  	26,171338  	24,766918  	25,647082  	25,461068  	28,277847  	27,017846  	28,207359  	27,831415  	30,569452  	29,773117  	32,415318  	58,179647  	28,033189  	27,344056  	27,623054  	63,464654  	0,270537  	0,137083  	-3606,555773  	18402,945452  	-0,027538  	-0,049991  	0,297945  	0,150971  	-3,849044  	9571,437391  	105543,972272  	15,307859  	-0,047944  
128,561000  	23,336864  	29,680042  	26,114762  	1256,670793  	70,360070  	64,277944  	0,008853  	0,008401  	0,003962  	0,004346  	0,004344  	0,000000  	-0,000000  	26,164638  	24,770637  	25,649096  	25,472599  	28,282376  	27,016566  	28,211655  	27,833185  	30,566812  	29,768969  	32,411047  	58,183508  	28,031347  	27,357734  	27,630212  	63,457640  	0,287318  	0,145586  	-3861,040488  	25498,020176  	-0,018515  	-0,049998  	0,298928  	0,151469  	-3,857044  	9467,173271  	105485,555847  	15,299386  	-0,047949  
129,564000  	23,346999  	29,696350  	26,115838  	1256,670793  	70,355896  	64,241006  	0,008854  	0,008450  	0,003963  	0,004324  	0,004385  	-0,000000  	-0,000000  	26,163804  	24,763766  	25,639304  	25,453242  	28,271109  	27,010990  	28,197898  	27,829781  	30,559250  	29,769263  	32,405377  	58,175333  	28,019453  	27,353722  	27,621130  	63,453472  	0,268985  	0,136297  	-3618,184649  	25500,384808  	-0,018517  	-0,050003  	0,331538  	0,167993  	-4,300839  	9572,988820  	105516,200992  	15,303831  	-0,047954  
130,563000  	23,363891  	29,689519  	26,116330  	1256,670793  	70,351597  	64,216754  	0,008856  	0,008514  	0,003961  	0,004367  	0,004331  	-0,000001  	-0,000000  	26,174408  	24,777263  	25,656998  	25,470496  	28,283241  	27,034846  	28,218196  	27,842801  	30,573558  	29,774544  	32,414917  	58,191375  	28,042722  	27,363087  	27,630714  	63,461303  	0,303878  	0,153977  	-4072,267683  	25504,770070  	-0,018520  	-0,050013  	0,288630  	0,146251  	-3,756422  	9710,141403  	105555,517160  	15,309533  	-0,047962  
131,564000  	23,363707  	29,675673  	26,115777  	1256,670793  	70,347360  	64,190263  	0,008860  	0,008409  	0,003963  	0,004362  	0,004370  	-0,000001  	-0,000000  	26,164421  	24,767032  	25,663466  	25,467282  	28,268997  	27,019112  	28,209378  	27,836143  	30,582979  	29,775706  	32,418899  	58,188990  	28,023950  	27,378135  	27,644377  	63,457578  	0,299631  	0,151825  	-4006,679778  	25502,142045  	-0,018518  	-0,050007  	0,319137  	0,161709  	-4,168512  	9482,793682  	105649,542678  	15,323171  	-0,047957  
132,563000  	23,354063  	29,668350  	26,115531  	57,696365  	70,341753  	64,199280  	0,008851  	0,008503  	0,003962  	0,004365  	0,004394  	-0,000001  	-0,000000  	26,172214  	24,764204  	25,651988  	25,468197  	28,291323  	27,011648  	28,219804  	27,844123  	30,578163  	29,780365  	32,423918  	58,183346  	28,031199  	27,388923  	27,633295  	63,451085  	0,302100  	0,153077  	-4041,189485  	1707,824951  	-0,053753  	-0,050006  	0,338347  	0,171443  	-4,408937  	9685,566847  	105441,805313  	15,293041  	-0,047957  
133,566000  	23,318652  	29,671735  	26,115316  	1256,670793  	70,338015  	64,190885  	0,008855  	0,008466  	0,003963  	0,004336  	0,004363  	0,000001  	-0,000000  	26,167353  	24,768021  	25,652844  	25,470418  	28,294641  	27,027761  	28,221411  	27,840496  	30,576334  	29,774494  	32,426968  	58,188377  	28,033507  	27,405142  	27,632088  	63,460606  	0,278916  	0,141329  	-3753,988904  	25493,520781  	-0,018512  	-0,049988  	0,313616  	0,158912  	-4,089776  	9606,125597  	105528,628517  	15,305634  	-0,047941  
134,563000  	23,293099  	29,673335  	26,114762  	657,183579  	70,334215  	64,179195  	0,008857  	0,008567  	0,003963  	0,004310  	0,004339  	0,000000  	-0,000000  	26,164859  	24,767129  	25,658585  	25,465887  	28,275976  	27,020664  	28,212997  	27,835846  	30,570485  	29,768456  	32,417292  	58,184045  	28,023919  	27,397961  	27,625902  	63,456678  	0,257658  	0,130557  	-3482,697517  	18404,306617  	-0,027540  	-0,049995  	0,294610  	0,149281  	-3,846844  	9825,313635  	105582,455231  	15,313440  	-0,047947  
135,563000  	23,309315  	29,668258  	26,114301  	-242,047242  	70,329230  	64,172292  	0,008848  	0,008485  	0,003962  	0,004338  	0,004360  	-0,000001  	-0,000000  	26,162206  	24,759739  	25,637650  	25,467358  	28,267786  	27,015195  	28,215648  	27,830799  	30,562560  	29,764218  	32,408858  	58,182485  	28,021466  	27,382913  	27,619693  	63,449660  	0,280401  	0,142081  	-3777,450043  	-27104,653039  	-0,102537  	-0,050014  	0,311370  	0,157773  	-4,066945  	9648,098377  	105392,384721  	15,285873  	-0,047963  
136,561000  	23,348873  	29,654166  	26,114793  	956,927186  	70,327299  	64,174593  	0,008858  	0,008437  	0,003962  	0,004341  	0,004310  	0,000000  	-0,000000  	26,157025  	24,758612  	25,645766  	25,461568  	28,264034  	27,005414  	28,214230  	27,835365  	30,574310  	29,767489  	32,410845  	58,178396  	28,017611  	27,372759  	27,624231  	63,452431  	0,283042  	0,143420  	-3780,857336  	22443,149932  	-0,022145  	-0,050000  	0,271887  	0,137767  	-3,548805  	9544,575661  	105592,912710  	15,314957  	-0,047951  
137,564000  	23,375992  	29,636135  	26,111996  	57,696365  	70,332096  	64,179785  	0,008849  	0,008605  	0,003962  	0,004346  	0,004352  	-0,000001  	-0,000000  	26,164649  	24,770647  	25,654755  	25,467875  	28,285354  	27,016872  	28,217240  	27,842283  	30,578603  	29,774725  	32,417096  	58,192972  	28,028258  	27,367578  	27,640679  	63,460431  	0,287145  	0,145499  	-3808,194244  	1708,117275  	-0,053757  	-0,050010  	0,304702  	0,154395  	-3,976871  	9906,615468  	105412,967808  	15,288858  	-0,047960  
138,563000  	23,379616  	29,635397  	26,111689  	1256,670793  	70,330601  	64,165794  	0,008856  	0,008426  	0,003963  	0,004278  	0,004332  	0,000001  	-0,000000  	26,167950  	24,764983  	25,656438  	25,466847  	28,285653  	27,016579  	28,219541  	27,837393  	30,574937  	29,773371  	32,412844  	58,190744  	28,031386  	27,363195  	27,629672  	63,459068  	0,231623  	0,117365  	-3069,704013  	25494,988231  	-0,018513  	-0,049991  	0,289147  	0,146513  	-3,781516  	9519,573807  	105560,657636  	15,310279  	-0,047944  
139,568000  	23,380906  	29,649519  	26,111597  	357,439972  	70,324495  	64,184978  	0,008857  	0,008441  	0,003962  	0,004347  	0,004345  	-0,000000  	-0,000000  	26,162123  	24,768607  	25,650272  	25,466131  	28,281057  	27,017055  	28,210073  	27,829354  	30,568727  	29,769443  	32,412095  	58,185381  	28,033540  	27,370516  	27,633410  	63,461347  	0,288136  	0,146001  	-3826,506203  	12440,593479  	-0,036422  	-0,050001  	0,299777  	0,151899  	-3,904463  	9553,364264  	105566,115861  	15,311071  	-0,047953  
140,565000  	23,386619  	29,662504  	26,112703  	956,927186  	70,323000  	64,191818  	0,008857  	0,008584  	0,003963  	0,004330  	0,004362  	-0,000000  	-0,000000  	26,157550  	24,771928  	25,642963  	25,465976  	28,278033  	27,014328  	28,208968  	27,830156  	30,573419  	29,763190  	32,412174  	58,183949  	28,033546  	27,363452  	27,632532  	63,460564  	0,274292  	0,138986  	-3646,876812  	22444,968761  	-0,022146  	-0,050004  	0,313111  	0,158656  	-4,072598  	9860,599634  	105572,929816  	15,312059  	-0,047955  
141,562000  	23,377098  	29,676904  	26,111935  	1256,670793  	70,321225  	64,167100  	0,008857  	0,008614  	0,003962  	0,004311  	0,004353  	-0,000001  	-0,000000  	26,157244  	24,769074  	25,650331  	25,463275  	28,281052  	27,020321  	28,215782  	27,837344  	30,574999  	29,778466  	32,413954  	58,191868  	28,029289  	27,360877  	27,631311  	63,464082  	0,258894  	0,131184  	-3455,271238  	25502,522267  	-0,018518  	-0,050007  	0,306214  	0,155161  	-3,997771  	9926,774146  	105567,683424  	15,311298  	-0,047958  
142,561000  	23,345157  	29,681950  	26,111873  	1256,670793  	70,325274  	64,165794  	0,008854  	0,008631  	0,003961  	0,004307  	0,004354  	0,000000  	-0,000000  	26,160184  	24,775525  	25,649780  	25,457099  	28,282654  	27,020496  	28,212591  	27,834531  	30,573569  	29,778799  	32,422959  	58,197482  	28,033308  	27,359982  	27,637853  	63,469631  	0,255408  	0,129417  	-3428,770608  	25497,732784  	-0,018515  	-0,049997  	0,306682  	0,155398  	-4,007373  	9962,918984  	105510,163758  	15,302955  	-0,047949  
143,564000  	23,343406  	29,681119  	26,112426  	1256,670793  	70,328545  	64,189020  	0,008858  	0,008644  	0,003962  	0,004346  	0,004365  	-0,000000  	-0,000000  	26,168793  	24,777436  	25,646633  	25,458138  	28,283811  	27,013802  	28,212527  	27,833433  	30,575255  	29,772744  	32,421275  	58,195220  	28,034295  	27,351598  	27,646543  	63,468718  	0,287324  	0,145589  	-3857,787381  	25500,646521  	-0,018517  	-0,050003  	0,315377  	0,159804  	-4,107647  	9990,251166  	105596,542112  	15,315484  	-0,047954  
144,560000  	23,365089  	29,679212  	26,111873  	1256,670793  	70,331286  	64,194927  	0,008856  	0,008294  	0,003963  	0,004297  	0,004350  	-0,000000  	-0,000000  	26,169625  	24,771071  	25,647793  	25,463171  	28,280773  	27,016070  	28,214902  	27,837682  	30,577842  	29,774340  	32,415355  	58,190169  	28,038065  	27,346864  	27,640265  	63,467766  	0,247006  	0,125160  	-3304,108070  	25499,219149  	-0,018516  	-0,050000  	0,303399  	0,153734  	-3,949599  	9234,759527  	105559,676144  	15,310137  	-0,047952  
145,563000  	23,372890  	29,675458  	26,111474  	956,927186  	70,333841  	64,202825  	0,008854  	0,008465  	0,003963  	0,004327  	0,004361  	-0,000001  	-0,000000  	26,156986  	24,761794  	25,640222  	25,459463  	28,276928  	27,013709  	28,206648  	27,835988  	30,571177  	29,768176  	32,412230  	58,182405  	28,038727  	27,333810  	27,622539  	63,469711  	0,271685  	0,137665  	-3627,571164  	22446,925292  	-0,022148  	-0,050009  	0,312259  	0,158224  	-4,061402  	9605,420981  	105509,372915  	15,302841  	-0,047959  
146,561000  	23,335974  	29,676012  	26,112027  	-242,047242  	70,339822  	64,203260  	0,008860  	0,008359  	0,003962  	0,004359  	0,004383  	-0,000000  	-0,000000  	26,155678  	24,756017  	25,634538  	25,456747  	28,275599  	27,005955  	28,200283  	27,831751  	30,560655  	29,761448  	32,408211  	58,181877  	28,030606  	27,324358  	27,621998  	63,467158  	0,297179  	0,150583  	-3991,565727  	-27098,668831  	-0,102516  	-0,050001  	0,329237  	0,166827  	-4,286102  	9376,208431  	105642,806395  	15,322194  	-0,047953  
147,571000  	23,281429  	29,683673  	26,112672  	657,183579  	70,343934  	64,188429  	0,008857  	0,008421  	0,003963  	0,004325  	0,004360  	-0,000000  	-0,000000  	26,164861  	24,763108  	25,639983  	25,460921  	28,275622  	27,011401  	28,205309  	27,830974  	30,560431  	29,766652  	32,408675  	58,189692  	28,035654  	27,332668  	27,632818  	63,465783  	0,269789  	0,136704  	-3659,245607  	18407,103183  	-0,027545  	-0,050003  	0,311441  	0,157809  	-4,066939  	9510,526985  	105571,312826  	15,311824  	-0,047954  
148,561000  	23,268345  	29,682566  	26,111197  	57,696365  	70,343498  	64,165856  	0,008852  	0,008360  	0,003964  	0,004319  	0,004379  	-0,000000  	-0,000000  	26,163568  	24,771336  	25,644666  	25,463612  	28,280735  	27,016077  	28,214394  	27,836972  	30,565753  	29,777709  	32,409366  	58,189219  	28,041131  	27,329532  	27,635574  	63,470763  	0,265047  	0,134301  	-3601,661626  	1708,008350  	-0,053752  	-0,050004  	0,326523  	0,165452  	-4,279214  	9376,925782  	105469,244722  	15,297021  	-0,047955  
149,569000  	23,295894  	29,661396  	26,111535  	1256,670793  	70,342220  	64,153917  	0,008853  	0,008400  	0,003961  	0,004350  	0,004311  	-0,000001  	-0,000000  	26,167834  	24,775921  	25,648426  	25,470251  	28,274506  	27,015136  	28,218441  	27,843964  	30,575388  	29,774189  	32,416681  	58,189123  	28,043582  	27,334792  	27,641514  	63,469771  	0,290497  	0,147197  	-3917,503811  	25502,503461  	-0,018518  	-0,050007  	0,272448  	0,138051  	-3,576688  	9465,282267  	105486,092490  	15,299464  	-0,047958  
150,561000  	23,303019  	29,636412  	26,111965  	1256,670793  	70,338171  	64,147201  	0,008860  	0,008364  	0,003964  	0,004287  	0,004373  	0,000000  	-0,000000  	26,161391  	24,762993  	25,646721  	25,467549  	28,276723  	27,013009  	28,208478  	27,835416  	30,572919  	29,763563  	32,412558  	58,182978  	28,044962  	27,326894  	27,633286  	63,465737  	0,239283  	0,121246  	-3210,578268  	25496,596352  	-0,018514  	-0,049994  	0,321522  	0,162917  	-4,222748  	9385,708725  	105636,112479  	15,321223  	-0,047947  
151,565000  	23,332227  	29,623397  	26,111689  	357,439972  	70,335866  	64,139490  	0,008856  	0,008585  	0,003963  	0,004338  	0,004341  	-0,000001  	-0,000000  	26,150566  	24,758558  	25,639338  	25,465606  	28,274224  	27,008076  	28,200562  	27,827754  	30,564745  	29,762372  	32,408618  	58,176526  	28,039617  	27,322926  	27,627469  	63,461280  	0,280114  	0,141936  	-3733,360918  	12443,012138  	-0,036430  	-0,050012  	0,296402  	0,150189  	-3,896225  	9862,231005  	105559,697327  	15,310140  	-0,047962  
152,562000  	23,334622  	29,619151  	26,112426  	-242,047242  	70,333373  	64,144154  	0,008857  	0,008681  	0,003963  	0,004305  	0,004351  	-0,000000  	-0,000000  	26,168402  	24,774645  	25,649553  	25,465604  	28,284782  	27,023099  	28,213213  	27,837506  	30,577225  	29,779932  	32,411098  	58,198582  	28,058556  	27,349390  	27,638501  	63,485155  	0,253382  	0,128391  	-3373,517947  	-27098,998547  	-0,102517  	-0,050002  	0,304051  	0,154065  	-3,992162  	10070,711845  	105578,451591  	15,312860  	-0,047953  
153,563000  	23,331213  	29,621520  	26,111996  	-242,047242  	70,332626  	64,139801  	0,008849  	0,009015  	0,003964  	0,004331  	0,004371  	-0,000001  	-0,000000  	26,158014  	24,753447  	25,636747  	25,450583  	28,267759  	27,007802  	28,210351  	27,834775  	30,574281  	29,764861  	32,396570  	58,188944  	28,049737  	27,353545  	27,621229  	63,475107  	0,274906  	0,139297  	-3663,451972  	-27101,666591  	-0,102527  	-0,050008  	0,319848  	0,162069  	-4,202022  	10791,300213  	105395,025570  	15,286256  	-0,047958  
154,563000  	23,333854  	29,629520  	26,112980  	-242,047242  	70,334433  	64,156342  	0,008857  	0,008760  	0,003964  	0,004324  	0,004369  	0,000000  	-0,000000  	26,158811  	24,757475  	25,640238  	25,454960  	28,274607  	27,016297  	28,209399  	27,829461  	30,567513  	29,770928  	32,412533  	58,188119  	28,040815  	27,363692  	27,622354  	63,468240  	0,269080  	0,136345  	-3588,870545  	-27097,541525  	-0,102511  	-0,049999  	0,318210  	0,161240  	-4,170568  	10240,960881  	105584,672414  	15,313762  	-0,047951  
155,564000  	23,328510  	29,635520  	26,112519  	-242,047242  	70,342657  	64,219801  	0,008854  	0,008331  	0,003962  	0,004339  	0,004377  	-0,000000  	-0,000000  	26,162142  	24,760395  	25,645973  	25,461425  	28,270440  	27,016992  	28,210856  	27,831946  	30,571808  	29,774097  	32,416736  	58,187156  	28,038228  	27,366038  	27,632016  	63,466571  	0,281381  	0,142578  	-3759,694101  	-27099,899373  	-0,102520  	-0,050004  	0,324480  	0,164416  	-4,214748  	9314,462532  	105505,566986  	15,302289  	-0,047955  
156,576000  	23,347368  	29,648135  	26,112211  	956,927186  	70,350694  	64,255682  	0,008851  	0,008524  	0,003962  	0,004313  	0,004353  	-0,000000  	-0,000000  	26,173895  	24,767291  	25,650412  	25,462987  	28,281270  	27,021442  	28,213314  	27,839909  	30,582834  	29,783368  	32,414914  	58,192270  	28,055828  	27,380114  	27,628639  	63,489320  	0,260262  	0,131877  	-3474,064949  	22444,058228  	-0,022145  	-0,050002  	0,305483  	0,154791  	-3,949972  	9731,749638  	105449,614882  	15,294174  	-0,047953  
157,562000  	23,377313  	29,667581  	26,112642  	956,927186  	70,353092  	64,256428  	0,008861  	0,008395  	0,003962  	0,004335  	0,004377  	-0,000001  	-0,000000  	26,152534  	24,756514  	25,641493  	25,453144  	28,273523  	27,003321  	28,192684  	27,831698  	30,557666  	29,767136  	32,403377  	58,179383  	28,040334  	27,371054  	27,632697  	63,486996  	0,277807  	0,140767  	-3702,069760  	22447,796210  	-0,022149  	-0,050011  	0,325137  	0,164749  	-4,205234  	9453,626385  	105651,985817  	15,323525  	-0,047961  
158,563000  	23,352128  	29,675889  	26,113256  	-242,047242  	70,357640  	64,240198  	0,008842  	0,008543  	0,003964  	0,004309  	0,004344  	-0,000002  	-0,000001  	26,150901  	24,763960  	25,641659  	25,457515  	28,274350  	27,017160  	28,207832  	27,826343  	30,561355  	29,768183  	32,407251  	58,182536  	28,032080  	27,364784  	27,643215  	63,492079  	0,257028  	0,130238  	-3443,414375  	-27109,669805  	-0,102557  	-0,050024  	0,298821  	0,151415  	-3,878031  	9772,388882  	105256,275086  	15,266132  	-0,047972  
159,566000  	23,324856  	29,680227  	26,113810  	657,183579  	70,354307  	64,222568  	0,008861  	0,008341  	0,003962  	0,004373  	0,004396  	-0,000001  	-0,000000  	26,154074  	24,761996  	25,645190  	25,453586  	28,271765  	27,006995  	28,200697  	27,825404  	30,575782  	29,760118  	32,419136  	58,185484  	28,034410  	27,375667  	27,639977  	63,499227  	0,308765  	0,156454  	-4157,226506  	18409,587547  	-0,027548  	-0,050011  	0,339941  	0,172251  	-4,421988  	9336,430857  	105659,004544  	15,324543  	-0,047961  
160,562000  	23,320924  	29,683181  	26,113933  	1256,670793  	70,348451  	64,207022  	0,008853  	0,008582  	0,003963  	0,004388  	0,004331  	-0,000001  	-0,000000  	26,167223  	24,758238  	25,646963  	25,459159  	28,270572  	27,016690  	28,206388  	27,832878  	30,573840  	29,771382  	32,417787  	58,194279  	28,046230  	27,381750  	27,634646  	63,500866  	0,320618  	0,162460  	-4321,492789  	25504,864511  	-0,018520  	-0,050013  	0,288077  	0,145971  	-3,753245  	9857,570349  	105490,505674  	15,300104  	-0,047962  
161,562000  	23,315304  	29,671304  	26,114793  	956,927186  	70,342034  	64,194430  	0,008845  	0,008505  	0,003961  	0,004362  	0,004355  	0,000001  	-0,000000  	26,159714  	24,767080  	25,646876  	25,458325  	28,283675  	27,020486  	28,207669  	27,838837  	30,577360  	29,768292  	32,414815  	58,192281  	28,044763  	27,376499  	27,644830  	63,493519  	0,299786  	0,151904  	-4036,725793  	22440,623867  	-0,022142  	-0,049994  	0,307101  	0,155610  	-4,005124  	9691,330411  	105313,152193  	15,274381  	-0,047946  
162,562000  	23,291901  	29,658996  	26,114916  	357,439972  	70,338607  	64,185475  	0,008854  	0,008725  	0,003964  	0,004362  	0,004331  	-0,000000  	-0,000000  	26,158665  	24,759423  	25,639059  	25,459102  	28,278269  	27,016123  	28,210118  	27,836262  	30,571671  	29,760578  	32,409131  	58,185700  	28,026838  	27,378999  	27,636359  	63,491506  	0,299631  	0,151825  	-4041,692642  	12440,661202  	-0,036423  	-0,050002  	0,288197  	0,146032  	-3,761957  	10164,989655  	105503,653430  	15,302011  	-0,047953  
163,566000  	23,297430  	29,651150  	26,115377  	1256,670793  	70,338171  	64,189735  	0,008853  	0,008258  	0,003963  	0,004333  	0,004351  	0,000000  	-0,000000  	26,149483  	24,751724  	25,630066  	25,444962  	28,266107  	27,011166  	28,192978  	27,827647  	30,557461  	29,756562  	32,400421  	58,177445  	28,020824  	27,385575  	27,625051  	63,486999  	0,276595  	0,140153  	-3723,122158  	25498,334518  	-0,018515  	-0,049998  	0,304300  	0,154191  	-3,969127  	9157,346526  	105480,775487  	15,298693  	-0,047950  
164,563000  	23,338646  	29,646904  	26,116422  	1256,670793  	70,334744  	64,197259  	0,008861  	0,008353  	0,003963  	0,004309  	0,004332  	0,000001  	-0,000000  	26,157233  	24,759263  	25,640632  	25,453869  	28,269693  	27,011727  	28,199720  	27,828695  	30,571007  	29,767252  	32,408856  	58,185717  	28,027803  	27,399352  	27,628996  	63,492134  	0,256613  	0,130028  	-3429,430354  	25493,492434  	-0,018512  	-0,049988  	0,289297  	0,146589  	-3,766716  	9361,789264  	105668,777097  	15,325960  	-0,047941  
165,564000  	23,350009  	29,638073  	26,116576  	1256,670793  	70,330352  	64,188398  	0,008856  	0,008398  	0,003962  	0,004331  	0,004333  	-0,000001  	-0,000000  	26,159992  	24,761601  	25,646234  	25,458320  	28,272182  	27,011629  	28,208122  	27,829740  	30,567213  	29,769664  	32,411840  	58,190872  	28,029824  	27,406088  	27,638206  	63,496533  	0,274912  	0,139300  	-3662,222986  	25506,442661  	-0,018521  	-0,050016  	0,290242  	0,147068  	-3,781771  	9459,093529  	105563,587990  	15,310704  	-0,047965  
166,567000  	23,323719  	29,637397  	26,116822  	657,183579  	70,330165  	64,173971  	0,008846  	0,008385  	0,003961  	0,004348  	0,004355  	0,000001  	-0,000000  	26,152087  	24,754793  	25,637765  	25,453022  	28,272932  	27,008150  	28,207001  	27,817903  	30,563776  	29,761154  	32,404951  	58,182032  	28,023644  	27,403364  	27,638797  	63,487784  	0,288178  	0,146022  	-3854,586224  	18403,603250  	-0,027539  	-0,049993  	0,307687  	0,155907  	-4,018360  	9432,583399  	105339,355910  	15,278182  	-0,047946  
167,564000  	23,307964  	29,644135  	26,117560  	657,183579  	70,329230  	64,151710  	0,008862  	0,008396  	0,003964  	0,004343  	0,004349  	-0,000001  	-0,000000  	26,158060  	24,760110  	25,637400  	25,458826  	28,275189  	27,009810  	28,205375  	27,828028  	30,567405  	29,765860  	32,407895  	58,191496  	28,035073  	27,404775  	27,647220  	63,482810  	0,284236  	0,144024  	-3815,402655  	18409,494404  	-0,027548  	-0,050011  	0,302450  	0,153253  	-3,963633  	9456,316802  	105673,748106  	15,326681  	-0,047961  
168,563000  	23,318590  	29,644258  	26,117682  	57,696365  	70,328171  	64,143937  	0,008854  	0,008638  	0,003963  	0,004310  	0,004333  	-0,000000  	-0,000000  	26,154976  	24,758258  	25,639835  	25,457093  	28,272687  	27,006433  	28,203051  	27,834562  	30,568892  	29,765953  	32,407114  	58,185106  	28,036497  	27,395908  	27,637822  	63,477347  	0,257823  	0,130641  	-3455,120158  	1707,571378  	-0,053749  	-0,050002  	0,289920  	0,146905  	-3,803558  	9977,138652  	105504,832632  	15,302182  	-0,047953  
169,563000  	23,292946  	29,636197  	26,117867  	1256,670793  	70,326396  	64,136257  	0,008855  	0,008617  	0,003963  	0,004310  	0,004364  	-0,000000  	-0,000000  	26,157054  	24,756684  	25,648435  	25,459239  	28,272022  	27,008518  	28,206808  	27,828881  	30,566081  	29,765481  	32,405254  	58,187568  	28,033654  	27,388323  	27,634867  	63,475168  	0,257754  	0,130606  	-3463,801612  	25499,984885  	-0,018516  	-0,050002  	0,314851  	0,159537  	-4,134576  	9931,446828  	105529,574703  	15,305771  	-0,047953  
170,561000  	23,257013  	29,627458  	26,118666  	657,183579  	70,324963  	64,140050  	0,008858  	0,008375  	0,003963  	0,004319  	0,004365  	0,000000  	-0,000000  	26,153308  	24,756588  	25,646094  	25,456123  	28,267811  	27,012290  	28,208037  	27,828423  	30,557473  	29,764142  	32,403146  	58,192401  	28,037167  	27,380792  	27,636173  	63,477839  	0,264785  	0,134169  	-3573,552397  	18403,906428  	-0,027540  	-0,049994  	0,314984  	0,159605  	-4,132832  	9410,849946  	105597,347077  	15,315600  	-0,047947  
171,563000  	23,281705  	29,625243  	26,119496  	657,183579  	70,329978  	64,164177  	0,008854  	0,008421  	0,003961  	0,004342  	0,004319  	-0,000000  	-0,000000  	26,142058  	24,746744  	25,631664  	25,441829  	28,263157  	27,003913  	28,201315  	27,824954  	30,554243  	29,761699  	32,399252  	58,179515  	28,033754  	27,366909  	27,627641  	63,470540  	0,283775  	0,143791  	-3813,646756  	18405,988673  	-0,027543  	-0,050001  	0,279288  	0,141518  	-3,653167  	9508,904104  	105506,626150  	15,302442  	-0,047952  
172,565000  	23,318253  	29,621304  	26,118881  	57,696365  	70,330975  	64,180718  	0,008859  	0,008521  	0,003963  	0,004360  	0,004367  	-0,000001  	-0,000000  	26,144952  	24,741816  	25,634238  	25,445196  	28,262468  	27,000210  	28,198500  	27,821192  	30,560402  	29,767073  	32,400730  	58,179437  	28,032386  	27,360109  	27,630635  	63,461944  	0,297948  	0,150973  	-3978,565536  	1707,628124  	-0,053753  	-0,050006  	0,317191  	0,160723  	-4,138496  	9725,416581  	105621,566627  	15,319113  	-0,047957  
173,561000  	23,362048  	29,616566  	26,118605  	1256,670793  	70,329698  	64,165670  	0,008851  	0,008656  	0,003961  	0,004305  	0,004367  	-0,000000  	-0,000000  	26,146200  	24,749821  	25,641800  	25,455388  	28,260795  	27,007315  	28,203664  	27,824570  	30,562092  	29,768351  	32,404063  	58,186453  	28,038438  	27,359536  	27,639561  	63,471070  	0,253568  	0,128485  	-3359,866529  	25500,948791  	-0,018517  	-0,050004  	0,316698  	0,160473  	-4,141304  	10016,490343  	105442,419628  	15,293130  	-0,047955  
174,567000  	23,362048  	29,619951  	26,119096  	657,183579  	70,334370  	64,158767  	0,008854  	0,008739  	0,003961  	0,004319  	0,004371  	-0,000000  	-0,000000  	26,147594  	24,752841  	25,637147  	25,448890  	28,268148  	27,005318  	28,204467  	27,821178  	30,559076  	29,764084  	32,403302  	58,185132  	28,034288  	27,357078  	27,641079  	63,479292  	0,264838  	0,134196  	-3511,097612  	18405,870848  	-0,027543  	-0,050000  	0,319916  	0,162104  	-4,191231  	10194,292782  	105505,651719  	15,302301  	-0,047952  
175,563000  	23,342515  	29,630104  	26,120018  	-242,047242  	70,341348  	64,159078  	0,008860  	0,008242  	0,003962  	0,004305  	0,004381  	0,000001  	-0,000000  	26,144049  	24,741964  	25,630488  	25,438578  	28,269085  	26,998452  	28,191105  	27,816732  	30,554568  	29,754860  	32,394047  	58,177287  	28,023578  	27,347788  	27,628948  	63,469939  	0,254000  	0,128704  	-3383,390731  	-27094,968164  	-0,102498  	-0,049993  	0,328277  	0,166340  	-4,305416  	9124,121318  	105650,573598  	15,323320  	-0,047946  
176,561000  	23,349886  	29,643950  	26,120264  	956,927186  	70,341784  	64,184200  	0,008851  	0,008365  	0,003962  	0,004332  	0,004330  	-0,000001  	-0,000000  	26,144054  	24,748614  	25,625030  	25,443245  	28,261819  	27,002491  	28,197292  	27,816640  	30,555028  	29,749864  	32,395989  	58,178922  	28,033146  	27,343940  	27,626702  	63,468073  	0,275949  	0,139825  	-3679,540471  	22449,069488  	-0,022151  	-0,050015  	0,287884  	0,145873  	-3,760586  	9388,563978  	105454,246960  	15,294845  	-0,047964  
177,564000  	23,367239  	29,655550  	26,119711  	1256,670793  	70,343404  	64,184916  	0,008850  	0,008389  	0,003962  	0,004322  	0,004339  	0,000000  	-0,000000  	26,139723  	24,744194  	25,631424  	25,441506  	28,253314  	26,994617  	28,196501  	27,812770  	30,561502  	29,756463  	32,395784  	58,177777  	28,031560  	27,334104  	27,627830  	63,466339  	0,267916  	0,135755  	-3569,161283  	25498,745059  	-0,018515  	-0,050000  	0,294568  	0,149260  	-3,848471  	9439,902637  	105417,741107  	15,289551  	-0,047951  
178,566000  	23,396416  	29,661950  	26,119773  	1256,670793  	70,349198  	64,173536  	0,008857  	0,008483  	0,003961  	0,004327  	0,004341  	-0,000001  	-0,000000  	26,135346  	24,742875  	25,624249  	25,436026  	28,258225  	26,990944  	28,193677  	27,814922  	30,549734  	29,748544  	32,388094  	58,178322  	28,019017  	27,333705  	27,623050  	63,474594  	0,271941  	0,137794  	-3609,646252  	25504,076004  	-0,018519  	-0,050011  	0,296184  	0,150078  	-3,880362  	9643,577796  	105580,195681  	15,313113  	-0,047961  
179,563000  	23,447461  	29,661489  	26,118943  	1256,670793  	70,350787  	64,165514  	0,008850  	0,008358  	0,003963  	0,004300  	0,004367  	-0,000001  	-0,000000  	26,142843  	24,745648  	25,621370  	25,435333  	28,256485  	27,001861  	28,195503  	27,814976  	30,548246  	29,753723  	32,392034  	58,173695  	28,025127  	27,325623  	27,632310  	63,471968  	0,249845  	0,126598  	-3289,079610  	25502,054475  	-0,018518  	-0,050007  	0,316703  	0,160476  	-4,155639  	9373,138822  	105420,819744  	15,289997  	-0,047957  
180,563000  	23,431183  	29,663642  	26,117836  	1256,670793  	70,352158  	64,179008  	0,008857  	0,008577  	0,003964  	0,004373  	0,004363  	-0,000000  	-0,000000  	26,145513  	24,744519  	25,633711  	25,440888  	28,265263  	26,995135  	28,208507  	27,822580  	30,550581  	29,755325  	32,393402  	58,180860  	28,016214  	27,331784  	27,630132  	63,472356  	0,308505  	0,156322  	-4073,367695  	25499,655372  	-0,018516  	-0,050002  	0,313958  	0,159085  	-4,111555  	9846,048882  	105584,672414  	15,313762  	-0,047953  
181,564000  	23,372736  	29,680935  	26,116883  	956,927186  	70,355615  	64,164892  	0,008854  	0,008592  	0,003963  	0,004338  	0,004337  	-0,000000  	-0,000000  	26,154497  	24,749786  	25,641135  	25,447566  	28,267187  	26,998808  	28,194919  	27,822379  	30,554942  	29,758339  	32,401924  	58,176906  	28,034771  	27,334777  	27,640072  	63,460844  	0,280450  	0,142106  	-3747,951209  	22443,954138  	-0,022145  	-0,050002  	0,293070  	0,148501  	-3,848932  	9878,338138  	105518,199282  	15,304121  	-0,047953  
182,567000  	23,357196  	29,701243  	26,116391  	-242,047242  	70,352999  	64,175712  	0,008859  	0,008599  	0,003962  	0,004302  	0,004343  	0,000001  	-0,000000  	26,147729  	24,750319  	25,637939  	25,451896  	28,269518  	26,996908  	28,200306  	27,819411  	30,549999  	29,756478  	32,393724  	58,175982  	28,032941  	27,324991  	27,639566  	63,456478  	0,251364  	0,127368  	-3378,342661  	-27089,598990  	-0,102480  	-0,049982  	0,297794  	0,150894  	-3,902481  	9892,563465  	105625,753855  	15,319720  	-0,047936  
183,568000  	23,319327  	29,704012  	26,116023  	657,183579  	70,349261  	64,187963  	0,008844  	0,008388  	0,003963  	0,004314  	0,004335  	-0,000001  	-0,000000  	26,133324  	24,743739  	25,624853  	25,439729  	28,258533  	26,998170  	28,185239  	27,811872  	30,544774  	29,745738  	32,390822  	58,167744  	28,023587  	27,324607  	27,641483  	63,457672  	0,260860  	0,132180  	-3528,433676  	18410,960068  	-0,027550  	-0,050015  	0,291708  	0,147811  	-3,812840  	9437,960697  	105304,347010  	15,273104  	-0,047965  
184,562000  	23,260975  	29,695027  	26,116391  	57,696365  	70,347329  	64,196109  	0,008856  	0,008368  	0,003964  	0,004328  	0,004372  	-0,000000  	-0,000000  	26,132393  	24,739485  	25,624674  	25,438001  	28,259901  	26,990167  	28,193141  	27,810369  	30,544376  	29,743356  	32,386098  	58,180795  	28,016857  	27,323175  	27,623485  	63,453695  	0,272121  	0,137886  	-3709,222774  	1707,700286  	-0,053751  	-0,050004  	0,320783  	0,162543  	-4,186017  	9394,611228  	105556,152658  	15,309626  	-0,047955  
185,565000  	23,240889  	29,684104  	26,115623  	1256,670793  	70,343093  	64,186937  	0,008859  	0,008624  	0,003961  	0,004351  	0,004368  	-0,000000  	-0,000000  	26,154236  	24,751879  	25,636368  	25,453238  	28,268668  	27,013393  	28,200923  	27,824311  	30,560439  	29,758715  	32,401626  	58,189939  	28,028345  	27,332139  	27,642340  	63,460875  	0,290775  	0,147338  	-3969,141271  	25500,556095  	-0,018517  	-0,050003  	0,317717  	0,160990  	-4,149335  	9947,142935  	105615,529392  	15,318237  	-0,047954  
186,561000  	23,238309  	29,663981  	26,115562  	657,183579  	70,341660  	64,178853  	0,008860  	0,008414  	0,003962  	0,004372  	0,004391  	-0,000001  	-0,000000  	26,139112  	24,747292  	25,632591  	25,445108  	28,264441  	27,001264  	28,194695  	27,818720  	30,555652  	29,761346  	32,395985  	58,179268  	28,027796  	27,326287  	27,636398  	63,465110  	0,308072  	0,156103  	-4193,802865  	18411,328736  	-0,027551  	-0,050016  	0,335901  	0,170203  	-4,391541  	9493,814985  	105644,430447  	15,322429  	-0,047966  
187,565000  	23,236375  	29,633612  	26,115377  	-242,047242  	70,336426  	64,178386  	0,008858  	0,008645  	0,003963  	0,004369  	0,004364  	-0,000001  	-0,000000  	26,149713  	24,743372  	25,639106  	25,444403  	28,254300  	27,013210  	28,198929  	27,823786  	30,551921  	29,758053  	32,396605  	58,183974  	28,026653  	27,316333  	27,633846  	63,466578  	0,305466  	0,154782  	-4139,915554  	-27101,393077  	-0,102525  	-0,050007  	0,314732  	0,159477  	-4,111603  	9992,735009  	105597,481238  	15,315620  	-0,047957  
188,561000  	23,274764  	29,611705  	26,115070  	-242,047242  	70,334993  	64,172665  	0,008858  	0,008368  	0,003962  	0,004349  	0,004370  	0,000001  	-0,000000  	26,151508  	24,745982  	25,634577  	25,449870  	28,265566  	27,007637  	28,191338  	27,820886  	30,563493  	29,753174  	32,404323  	58,181300  	28,023436  	27,323351  	27,637881  	63,469899  	0,289436  	0,146659  	-3885,685772  	-27091,365605  	-0,102487  	-0,049986  	0,319068  	0,161674  	-4,171152  	9394,758376  	105594,480273  	15,315185  	-0,047940  
189,561000  	23,301668  	29,594074  	26,114824  	-242,047242  	70,331286  	64,179288  	0,008856  	0,008469  	0,003963  	0,004327  	0,004351  	-0,000001  	-0,000000  	26,150917  	24,747586  	25,632716  	25,448719  	28,266350  	27,005158  	28,192790  	27,818790  	30,559686  	29,754352  	32,399178  	58,176883  	28,021241  	27,323926  	27,639974  	63,470647  	0,271161  	0,137400  	-3614,761969  	-27101,802346  	-0,102526  	-0,050008  	0,304016  	0,154047  	-3,967716  	9613,577835  	105557,550755  	15,309828  	-0,047958  
190,562000  	23,317331  	29,591982  	26,113656  	357,439972  	70,329791  	64,185444  	0,008859  	0,008768  	0,003964  	0,004352  	0,004360  	0,000000  	-0,000000  	26,149890  	24,750268  	25,641272  	25,446818  	28,267103  	27,004298  	28,200982  	27,828101  	30,556914  	29,758907  	32,403098  	58,185687  	28,020982  	27,319469  	27,644795  	63,476636  	0,291566  	0,147739  	-3875,800980  	12440,099999  	-0,036421  	-0,050000  	0,311723  	0,157952  	-4,063239  	10257,180499  	105621,976170  	15,319172  	-0,047951  
191,561000  	23,342485  	29,604536  	26,113564  	1256,670793  	70,333810  	64,171049  	0,008853  	0,008513  	0,003962  	0,004297  	0,004345  	0,000001  	-0,000000  	26,151164  	24,743893  	25,630901  	25,444552  	28,260400  	26,995772  	28,196587  	27,814540  	30,558596  	29,752645  	32,396502  	58,180270  	28,015169  	27,324561  	27,635022  	63,478412  	0,247107  	0,125211  	-3278,203606  	25492,227440  	-0,018511  	-0,049985  	0,299803  	0,151913  	-3,919577  	9708,776740  	105492,715796  	15,300425  	-0,047938  
192,564000  	23,385728  	29,614997  	26,113933  	57,696365  	70,338856  	64,187465  	0,008854  	0,008710  	0,003962  	0,004365  	0,004338  	0,000001  	-0,000000  	26,155296  	24,745742  	25,636820  	25,450767  	28,262699  	27,003069  	28,198651  	27,815662  	30,556410  	29,757806  	32,393791  	58,184583  	28,014359  	27,317564  	27,635979  	63,474754  	0,302680  	0,153370  	-3994,423015  	1707,386401  	-0,053737  	-0,049989  	0,293733  	0,148837  	-3,833132  	10133,792695  	105502,495410  	15,301843  	-0,047942  
193,561000  	23,428818  	29,627643  	26,112580  	1256,670793  	70,338295  	64,198876  	0,008860  	0,008639  	0,003962  	0,004295  	0,004354  	-0,000000  	-0,000000  	26,152387  	24,750969  	25,639181  	25,452354  	28,268365  	27,008837  	28,203668  	27,822766  	30,561927  	29,762996  	32,402994  	58,185926  	28,009221  	27,313500  	27,645197  	63,476982  	0,245321  	0,124306  	-3221,633620  	25499,909567  	-0,018516  	-0,050002  	0,306414  	0,155262  	-3,990842  	9979,106767  	105646,089804  	15,322670  	-0,047953  
194,561000  	23,414322  	29,648319  	26,112887  	657,183579  	70,337922  	64,224683  	0,008849  	0,008439  	0,003962  	0,004332  	0,004376  	0,000000  	-0,000000  	26,145525  	24,750354  	25,637458  	25,451848  	28,271981  	27,008316  	28,209052  	27,831297  	30,562580  	29,759222  	32,404428  	58,185427  	27,998461  	27,307594  	27,641575  	63,489253  	0,275408  	0,139551  	-3637,263048  	18405,696314  	-0,027542  	-0,049999  	0,323833  	0,164088  	-4,199736  	9548,421338  	105413,250252  	15,288899  	-0,047951  
195,564000  	23,388891  	29,672781  	26,112703  	-242,047242  	70,337205  	64,243867  	0,008860  	0,008570  	0,003963  	0,004341  	0,004407  	-0,000001  	-0,000000  	26,143428  	24,752232  	25,631846  	25,453585  	28,274781  	26,995428  	28,203584  	27,829037  	30,556829  	29,758206  	32,397973  	58,182107  	27,990774  	27,291340  	27,637106  	63,485195  	0,282624  	0,143208  	-3762,443042  	-27103,562373  	-0,102534  	-0,050011  	0,348547  	0,176611  	-4,505549  	9831,060928  	105648,991913  	15,323091  	-0,047961  
196,565000  	23,390488  	29,702135  	26,111535  	956,927186  	70,332969  	64,232735  	0,008852  	0,008555  	0,003964  	0,004320  	0,004385  	-0,000000  	-0,000000  	26,143660  	24,748367  	25,622664  	25,445730  	28,267719  	26,986709  	28,194543  	27,817445  	30,550883  	29,755453  	32,387653  	58,176730  	27,987256  	27,275777  	27,632262  	63,470253  	0,265819  	0,134693  	-3554,360983  	22445,683828  	-0,022147  	-0,050006  	0,331047  	0,167744  	-4,284173  	9798,671214  	105474,512297  	15,297785  	-0,047957  
197,563000  	23,376883  	29,711581  	26,112457  	1256,670793  	70,331006  	64,217998  	0,008857  	0,008414  	0,003961  	0,004329  	0,004371  	-0,000000  	-0,000000  	26,137607  	24,737545  	25,619334  	25,435067  	28,253212  	26,993812  	28,192761  	27,814830  	30,544228  	29,745798  	32,384306  	58,171624  	27,981181  	27,265721  	27,627197  	63,464996  	0,273443  	0,138556  	-3669,663377  	25501,302812  	-0,018517  	-0,050005  	0,320349  	0,162323  	-4,154395  	9494,223889  	105573,883064  	15,312197  	-0,047955  
198,563000  	23,364290  	29,705119  	26,111166  	1256,670793  	70,331691  	64,220423  	0,008860  	0,008745  	0,003964  	0,004347  	0,004366  	-0,000001  	-0,000000  	26,136793  	24,738077  	25,622375  	25,440709  	28,255602  	26,998689  	28,187460  	27,818601  	30,545199  	29,743959  	32,391961  	58,170434  	27,981858  	27,262089  	27,630893  	63,464347  	0,287838  	0,145850  	-3866,580938  	25502,339878  	-0,018518  	-0,050007  	0,315974  	0,160106  	-4,096493  	10207,140711  	105644,748196  	15,322475  	-0,047957  
199,562000  	23,350654  	29,703458  	26,111351  	1256,670793  	70,330632  	64,197446  	0,008854  	0,008493  	0,003963  	0,004350  	0,004340  	0,000000  	-0,000000  	26,143369  	24,739955  	25,625424  	25,444672  	28,260437  	26,996585  	28,179591  	27,816399  	30,546609  	29,748539  	32,391298  	58,176145  	27,986574  	27,260208  	27,635197  	63,457565  	0,289911  	0,146900  	-3901,787240  	25499,135232  	-0,018516  	-0,050000  	0,295565  	0,149765  	-3,845637  	9665,227063  	105511,321777  	15,303123  	-0,047951  
200,563000  	23,323811  	29,700812  	26,110920  	1256,670793  	70,328950  	64,195705  	0,008858  	0,008605  	0,003964  	0,004335  	0,004323  	0,000001  	-0,000000  	26,139504  	24,732837  	25,621540  	25,435475  	28,248762  	26,994712  	28,184122  	27,810829  	30,541788  	29,744597  	32,388473  	58,177400  	27,982117  	27,254496  	27,637807  	63,446837  	0,277703  	0,140714  	-3751,728041  	25495,224109  	-0,018513  	-0,049991  	0,281737  	0,142758  	-3,665749  	9905,301741  	105591,571102  	15,314763  	-0,047944  
201,563000  	23,329462  	29,688873  	26,112119  	57,696365  	70,321474  	64,198316  	0,008853  	0,008383  	0,003961  	0,004292  	0,004344  	-0,000001  	-0,000000  	26,141658  	24,738324  	25,622121  	25,443157  	28,256167  	26,998899  	28,194808  	27,813976  	30,550416  	29,742273  	32,393974  	58,180611  	27,992021  	27,254490  	27,632077  	63,450391  	0,243201  	0,123232  	-3276,543512  	1708,124315  	-0,053757  	-0,050010  	0,299018  	0,151515  	-3,884198  	9427,472101  	105499,586240  	15,301421  	-0,047960  
202,562000  	23,320187  	29,678227  	26,111996  	657,183579  	70,309325  	64,204846  	0,008853  	0,008471  	0,003962  	0,004314  	0,004339  	0,000001  	-0,000000  	26,142267  	24,746188  	25,629849  	25,445409  	28,249858  	26,996414  	28,189014  	27,811862  	30,552492  	29,746996  	32,392327  	58,179212  	27,988656  	27,252117  	27,624459  	63,451523  	0,260969  	0,132235  	-3515,172247  	18402,915752  	-0,027538  	-0,049990  	0,294628  	0,149290  	-3,815500  	9617,162465  	105480,923770  	15,298715  	-0,047943  
203,564000  	23,314751  	29,668073  	26,112365  	657,183579  	70,300790  	64,194399  	0,008854  	0,008378  	0,003962  	0,004334  	0,004347  	-0,000001  	-0,000001  	26,144284  	24,748484  	25,630346  	25,442687  	28,259276  	26,989735  	28,197603  	27,809210  	30,560292  	29,753736  	32,393819  	58,176389  	27,986115  	27,266810  	27,639109  	63,454552  	0,277521  	0,140622  	-3735,353744  	18410,794561  	-0,027550  	-0,050014  	0,300707  	0,152371  	-3,895446  	9415,802069  	105516,935346  	15,303938  	-0,047964  
204,566000  	23,329002  	29,663827  	26,113717  	57,696365  	70,299730  	64,176054  	0,008847  	0,008498  	0,003962  	0,004322  	0,004384  	-0,000001  	-0,000000  	26,143930  	24,736650  	25,623355  	25,438203  	28,259697  	26,992587  	28,195411  	27,811141  	30,546468  	29,742914  	32,388246  	58,170924  	27,985377  	27,261910  	27,629094  	63,452901  	0,267365  	0,135476  	-3588,175884  	1708,036751  	-0,053757  	-0,050010  	0,330115  	0,167272  	-4,288493  	9675,520404  	105352,849660  	15,280139  	-0,047960  
205,563000  	23,343805  	29,654843  	26,114178  	1256,670793  	70,299668  	64,154912  	0,008860  	0,008893  	0,003962  	0,004353  	0,004383  	-0,000001  	-0,000000  	26,144847  	24,744627  	25,625301  	25,444383  	28,259983  	26,988917  	28,195305  	27,822773  	30,556638  	29,757942  	32,392190  	58,181693  	27,986771  	27,274739  	27,632062  	63,444736  	0,292309  	0,148115  	-3908,205341  	25505,812600  	-0,018521  	-0,050015  	0,329219  	0,166818  	-4,291566  	10528,100536  	105636,197212  	15,321235  	-0,047964  
206,560000  	23,353817  	29,646658  	26,115162  	1256,670793  	70,297488  	64,143221  	0,008852  	0,008515  	0,003961  	0,004335  	0,004343  	-0,000001  	-0,000000  	26,150069  	24,746036  	25,635004  	25,458902  	28,270913  	27,007249  	28,199965  	27,829585  	30,566039  	29,764870  	32,396746  	58,180805  	27,996994  	27,274861  	27,642896  	63,456225  	0,278013  	0,140871  	-3706,344768  	25502,389758  	-0,018518  	-0,050007  	0,297849  	0,150922  	-3,888649  	9713,048300  	105474,356953  	15,297762  	-0,047958  
207,564000  	23,392516  	29,646381  	26,115992  	357,439972  	70,298111  	64,155720  	0,008850  	0,008539  	0,003962  	0,004371  	0,004368  	-0,000000  	-0,000000  	26,144083  	24,738723  	25,622977  	25,439412  	28,266146  	27,000669  	28,192354  	27,814574  	30,555600  	29,755691  	32,390923  	58,168122  	27,979665  	27,268724  	27,629960  	63,449593  	0,307101  	0,155610  	-4068,754894  	12440,996560  	-0,036424  	-0,050004  	0,317517  	0,160888  	-4,137434  	9763,175811  	105418,708477  	15,289691  	-0,047955  
208,563000  	23,395771  	29,650689  	26,117529  	956,927186  	70,299793  	64,175433  	0,008862  	0,008438  	0,003965  	0,004353  	0,004370  	-0,000001  	-0,000000  	26,142075  	24,750887  	25,631302  	25,451943  	28,270256  	26,999547  	28,191674  	27,816698  	30,560142  	29,750096  	32,400644  	58,178949  	27,998259  	27,271643  	27,642376  	63,456525  	0,292353  	0,148137  	-3874,016840  	22447,761438  	-0,022149  	-0,050012  	0,319396  	0,161840  	-4,149709  	9545,310697  	105678,415489  	15,327358  	-0,047961  
209,563000  	23,370525  	29,664535  	26,118820  	956,927186  	70,301070  	64,170520  	0,008847  	0,008434  	0,003963  	0,004354  	0,004364  	-0,000002  	-0,000000  	26,145075  	24,745355  	25,623260  	25,450587  	28,260854  	26,991494  	28,197888  	27,817644  	30,549384  	29,759078  	32,399993  	58,174042  	27,986795  	27,254186  	27,632518  	63,455439  	0,293237  	0,148585  	-3910,021055  	22450,999391  	-0,022152  	-0,050020  	0,314154  	0,159184  	-4,085721  	9538,100406  	105362,714007  	15,281570  	-0,047968  
210,564000  	23,357257  	29,682504  	26,119619  	-242,047242  	70,306926  	64,175619  	0,008849  	0,008451  	0,003963  	0,004305  	0,004413  	0,000000  	-0,000000  	26,149232  	24,759704  	25,636828  	25,458402  	28,270635  	27,011118  	28,212412  	27,836484  	30,567515  	29,755178  	32,398931  	58,181843  	28,012667  	27,261295  	27,644926  	63,460426  	0,253387  	0,128393  	-3395,438109  	-27097,805533  	-0,102509  	-0,049999  	0,353436  	0,179089  	-4,597183  	9574,562888  	105402,256130  	15,287305  	-0,047951  
211,565000  	23,347306  	29,687396  	26,121279  	-242,047242  	70,311848  	64,173070  	0,008861  	0,008335  	0,003962  	0,004359  	0,004353  	-0,000001  	-0,000000  	26,142707  	24,746167  	25,635799  	25,448648  	28,263952  	26,997830  	28,203582  	27,832080  	30,556761  	29,751526  	32,404792  	58,185479  	28,002958  	27,248467  	27,641002  	63,457544  	0,297660  	0,150827  	-3998,068680  	-27106,501651  	-0,102542  	-0,050017  	0,305635  	0,154868  	-3,980275  	9323,713805  	105668,141598  	15,325868  	-0,047966  
212,564000  	23,359346  	29,683396  	26,122201  	956,927186  	70,311350  	64,169276  	0,008851  	0,008477  	0,003963  	0,004316  	0,004349  	-0,000000  	-0,000001  	26,135762  	24,738973  	25,631552  	25,446706  	28,260856  	26,991461  	28,197018  	27,822266  	30,550662  	29,753192  	32,394398  	58,172697  	28,004628  	27,245682  	27,631278  	63,455675  	0,262996  	0,133262  	-3523,534129  	22443,565044  	-0,022145  	-0,050002  	0,302563  	0,153311  	-3,942370  	9630,802026  	105450,243320  	15,294265  	-0,047953  
213,564000  	23,379401  	29,670258  	26,123645  	-242,047242  	70,312191  	64,160477  	0,008863  	0,008494  	0,003961  	0,004294  	0,004344  	0,000001  	-0,000000  	26,152972  	24,747346  	25,627760  	25,455917  	28,265407  	27,003795  	28,196506  	27,824527  	30,551568  	29,756992  	32,396459  	58,184585  	28,025356  	27,232396  	27,637822  	63,459495  	0,244953  	0,124120  	-3264,570689  	-27093,038762  	-0,102490  	-0,049989  	0,298342  	0,151172  	-3,893474  	9667,382651  	105709,625521  	15,331885  	-0,047942  
214,570000  	23,372337  	29,664289  	26,125858  	-242,047242  	70,311069  	64,156000  	0,008850  	0,008464  	0,003961  	0,004342  	0,004354  	0,000000  	-0,000000  	26,153186  	24,750661  	25,628134  	25,452417  	28,266589  	27,003235  	28,197014  	27,828029  	30,550472  	29,759018  	32,403397  	58,183805  	28,022092  	27,233439  	27,632348  	63,469799  	0,283752  	0,143779  	-3782,317875  	-27097,178235  	-0,102505  	-0,049998  	0,306477  	0,155294  	-4,001812  	9602,875590  	105421,554098  	15,290104  	-0,047949  
215,562000  	23,399518  	29,665581  	26,127149  	657,183579  	70,313406  	64,152362  	0,008859  	0,008651  	0,003963  	0,004315  	0,004316  	-0,000000  	-0,000000  	26,147954  	24,750129  	25,629227  	25,451067  	28,275535  	27,009252  	28,197431  	27,823111  	30,561078  	29,758454  	32,395974  	58,179949  	28,026488  	27,233161  	27,640989  	63,459128  	0,261555  	0,132532  	-3472,083486  	18406,163879  	-0,027544  	-0,050002  	0,276648  	0,140179  	-3,615829  	10005,422348  	105627,907489  	15,320033  	-0,047953  
216,562000  	23,448414  	29,670073  	26,128010  	1256,670793  	70,313593  	64,154166  	0,008861  	0,008744  	0,003961  	0,004317  	0,004369  	0,000000  	-0,000000  	26,146917  	24,742225  	25,622945  	25,450815  	28,266674  	27,003630  	28,200867  	27,823246  	30,556201  	29,760903  	32,393418  	58,177820  	28,027896  	27,231089  	27,631463  	63,456895  	0,263386  	0,133460  	-3471,603067  	25497,652925  	-0,018515  	-0,049998  	0,318421  	0,161346  	-4,160721  	10205,517830  	105670,966036  	15,326278  	-0,047950  
217,564000  	23,457167  	29,674196  	26,129547  	57,696365  	70,314247  	64,158456  	0,008850  	0,008485  	0,003962  	0,004348  	0,004365  	-0,000001  	-0,000000  	26,149438  	24,739452  	25,626170  	25,455867  	28,264299  	27,007686  	28,198599  	27,820833  	30,556521  	29,762877  	32,399147  	58,175235  	28,023786  	27,226995  	27,634006  	63,462672  	0,288259  	0,146063  	-3796,616353  	1707,210817  	-0,053758  	-0,050012  	0,315657  	0,159945  	-4,122164  	9648,026217  	105421,787114  	15,290138  	-0,047962  
218,564000  	23,435053  	29,688104  	26,131330  	1256,670793  	70,313188  	64,183206  	0,008862  	0,008657  	0,003962  	0,004369  	0,004358  	-0,000001  	-0,000000  	26,155095  	24,748660  	25,633872  	25,457963  	28,268377  	27,012602  	28,199683  	27,824029  	30,559488  	29,764450  	32,406928  	58,174958  	28,032556  	27,230836  	27,636079  	63,460603  	0,305251  	0,154673  	-4043,707702  	25506,082512  	-0,018521  	-0,050017  	0,309715  	0,156935  	-4,027627  	10018,319799  	105676,381894  	15,327063  	-0,047966  
219,564000  	23,406398  	29,709612  	26,131606  	1256,670793  	70,310228  	64,202110  	0,008852  	0,008358  	0,003963  	0,004346  	0,004360  	-0,000001  	-0,000000  	26,160984  	24,755193  	25,637131  	25,454361  	28,271241  	27,010337  	28,200428  	27,830428  	30,558601  	29,763342  	32,403257  	58,177963  	28,043112  	27,228004  	27,628112  	63,464462  	0,286958  	0,145404  	-3831,886810  	25503,526629  	-0,018519  	-0,050011  	0,311528  	0,157854  	-4,036765  	9374,005444  	105472,492825  	15,297492  	-0,047961  
220,563000  	23,380292  	29,730228  	26,132467  	1256,670793  	70,307799  	64,210256  	0,008858  	0,008741  	0,003963  	0,004311  	0,004394  	-0,000000  	-0,000000  	26,156445  	24,756591  	25,638445  	25,448961  	28,274685  	27,007532  	28,204084  	27,827893  	30,558661  	29,758037  	32,400670  	58,180817  	28,045004  	27,218002  	27,628753  	63,468566  	0,258934  	0,131204  	-3483,308387  	25498,617785  	-0,018516  	-0,050000  	0,338232  	0,171385  	-4,375211  	10199,833500  	105597,587154  	15,315635  	-0,047952  
221,573000  	23,353848  	29,735181  	26,134004  	1256,670793  	70,309543  	64,207084  	0,008853  	0,008359  	0,003964  	0,004341  	0,004371  	-0,000000  	-0,000000  	26,154662  	24,756412  	25,637590  	25,449176  	28,276464  	27,012786  	28,205524  	27,826470  	30,559582  	29,756727  	32,405220  	58,182916  	28,047484  	27,214721  	27,633646  	63,466877  	0,283121  	0,143459  	-3827,511969  	25499,751861  	-0,018516  	-0,050003  	0,320310  	0,162303  	-4,146712  	9375,981341  	105487,052799  	15,299603  	-0,047954  
222,564000  	23,344942  	29,728289  	26,135356  	657,183579  	70,312970  	64,206525  	0,008852  	0,008603  	0,003962  	0,004373  	0,004329  	-0,000001  	-0,000000  	26,154073  	24,751946  	25,635143  	25,453148  	28,270380  	27,011424  	28,209021  	27,826347  	30,563754  	29,762997  	32,407191  	58,177840  	28,051671  	27,209631  	27,629220  	63,466976  	0,309134  	0,156640  	-4180,507902  	18409,760554  	-0,027549  	-0,050014  	0,286823  	0,145335  	-3,715619  	9902,410408  	105476,270510  	15,298040  	-0,047964  
223,565000  	23,341072  	29,712043  	26,135725  	657,183579  	70,314247  	64,195456  	0,008856  	0,008888  	0,003963  	0,004311  	0,004345  	0,000000  	-0,000000  	26,153326  	24,751079  	25,634519  	25,454857  	28,267532  	27,007566  	28,211302  	27,825263  	30,563876  	29,763174  	32,403819  	58,173356  	28,055295  	27,200965  	27,630517  	63,464581  	0,258248  	0,130856  	-3485,590280  	18403,092179  	-0,027540  	-0,049994  	0,299141  	0,151577  	-3,883022  	10517,089137  	105559,026523  	15,310042  	-0,047946  
224,563000  	23,293591  	29,697396  	26,136217  	1256,670793  	70,315119  	64,169214  	0,008859  	0,008375  	0,003961  	0,004303  	0,004335  	-0,000000  	-0,000000  	26,158281  	24,751241  	25,634703  	25,455944  	28,271579  	27,009846  	28,207527  	27,831042  	30,561508  	29,761796  	32,403769  	58,177566  	28,057471  	27,198411  	27,636173  	63,461107  	0,251882  	0,127630  	-3417,200826  	25500,025649  	-0,018517  	-0,050004  	0,291559  	0,147735  	-3,801369  	9409,856692  	105629,185546  	15,320218  	-0,047955  
225,565000  	23,258026  	29,683304  	26,138123  	1256,670793  	70,306552  	64,197042  	0,008853  	0,008404  	0,003963  	0,004349  	0,004385  	-0,000000  	-0,000001  	26,155904  	24,748805  	25,635238  	25,458084  	28,273768  	27,008520  	28,206258  	27,834336  	30,564133  	29,764423  	32,408328  	58,179827  	28,054708  	27,197634  	27,629847  	63,463821  	0,289452  	0,146668  	-3940,080952  	25500,173079  	-0,018517  	-0,050004  	0,331345  	0,167895  	-4,294532  	9472,948154  	105500,511243  	15,301555  	-0,047955  
226,563000  	23,291871  	29,673150  	26,138553  	1256,670793  	70,297332  	64,204379  	0,008861  	0,008408  	0,003965  	0,004341  	0,004358  	-0,000001  	-0,000000  	26,153533  	24,755512  	25,638814  	25,462251  	28,279175  	27,018749  	28,208086  	27,831206  	30,564829  	29,761666  	32,410943  	58,181097  	28,059394  	27,200262  	27,629970  	63,468890  	0,283008  	0,143402  	-3825,968348  	25502,502520  	-0,018518  	-0,050009  	0,310147  	0,157154  	-4,008898  	9480,646583  	105660,847489  	15,324810  	-0,047959  
227,564000  	23,327067  	29,657827  	26,139198  	1256,670793  	70,291600  	64,191756  	0,008850  	0,008398  	0,003960  	0,004319  	0,004376  	-0,000000  	-0,000000  	26,162365  	24,754343  	25,641582  	25,465462  	28,278045  	27,027122  	28,216036  	27,832828  	30,573422  	29,769898  	32,411813  	58,183047  	28,074730  	27,202978  	27,635216  	63,481542  	0,265146  	0,134351  	-3556,110004  	25498,547370  	-0,018516  	-0,050001  	0,324378  	0,164365  	-4,197573  	9460,082538  	105425,847242  	15,290726  	-0,047952  
228,564000  	23,347030  	29,637458  	26,139567  	1256,670793  	70,289980  	64,161970  	0,008858  	0,008401  	0,003962  	0,004317  	0,004364  	-0,000000  	-0,000000  	26,166938  	24,754603  	25,640122  	25,458413  	28,273443  	27,009812  	28,208458  	27,833854  	30,569435  	29,766514  	32,404703  	58,180872  	28,074049  	27,193678  	27,630669  	63,485074  	0,263486  	0,133510  	-3511,328848  	25500,895604  	-0,018517  	-0,050006  	0,314435  	0,159327  	-4,087685  	9466,749511  	105588,760787  	15,314355  	-0,047956  
229,564000  	23,387540  	29,633304  	26,140981  	956,927186  	70,286367  	64,139366  	0,008853  	0,008484  	0,003964  	0,004364  	0,004359  	-0,000000  	-0,000000  	26,167753  	24,761279  	25,644969  	25,462616  	28,279612  	27,011207  	28,213807  	27,839170  	30,565669  	29,770415  	32,417027  	58,174260  	28,067151  	27,189453  	27,636147  	63,477490  	0,301507  	0,152776  	-3989,479508  	22444,443616  	-0,022146  	-0,050006  	0,310345  	0,157254  	-4,047005  	9646,136629  	105491,091745  	15,300189  	-0,047956  
230,563000  	23,398720  	29,638104  	26,140551  	357,439972  	70,286055  	64,126805  	0,008853  	0,008454  	0,003963  	0,004413  	0,004350  	-0,000000  	-0,000000  	26,163407  	24,759511  	25,646342  	25,466202  	28,278810  	27,019866  	28,215245  	27,830676  	30,567623  	29,769431  	32,420533  	58,178417  	28,068573  	27,182443  	27,640220  	63,479845  	0,340839  	0,172706  	-4505,302329  	12439,815939  	-0,036423  	-0,050004  	0,303748  	0,153911  	-3,968865  	9580,059744  	105493,323050  	15,300513  	-0,047955  
231,565000  	23,395403  	29,647150  	26,141473  	357,439972  	70,286616  	64,120214  	0,008857  	0,008470  	0,003963  	0,004340  	0,004384  	0,000000  	-0,000000  	26,169193  	24,766079  	25,645109  	25,472550  	28,292675  	27,017249  	28,219033  	27,835436  	30,570967  	29,778729  	32,425430  	58,188826  	28,080611  	27,183911  	27,645167  	63,484530  	0,281757  	0,142768  	-3731,711548  	12438,167715  	-0,036419  	-0,049997  	0,330433  	0,167433  	-4,322555  	9615,509163  	105566,864337  	15,311179  	-0,047949  
232,562000  	23,384223  	29,661919  	26,141780  	956,927186  	70,281819  	64,126059  	0,008852  	0,008384  	0,003963  	0,004353  	0,004362  	0,000001  	-0,000000  	26,159056  	24,755652  	25,634078  	25,465648  	28,275986  	27,019497  	28,213110  	27,836316  	30,563841  	29,763975  	32,415234  	58,178936  	28,063050  	27,178233  	27,628593  	63,481510  	0,292973  	0,148452  	-3896,374726  	22438,575174  	-0,022141  	-0,049991  	0,312887  	0,158542  	-4,085961  	9430,564348  	105460,333622  	15,295728  	-0,047944  
233,563000  	23,397092  	29,671366  	26,141657  	956,927186  	70,277894  	64,126930  	0,008855  	0,008454  	0,003962  	0,004369  	0,004327  	0,000000  	-0,000000  	26,146759  	24,755567  	25,641329  	25,452860  	28,264869  	27,009430  	28,204545  	27,833633  	30,571150  	29,751973  	32,403380  	58,172854  	28,066373  	27,167608  	27,623054  	63,479467  	0,305976  	0,155040  	-4067,086269  	22441,664406  	-0,022144  	-0,049999  	0,285519  	0,144674  	-3,725656  	9579,914010  	105538,535231  	15,307070  	-0,047950  
234,565000  	23,419205  	29,678504  	26,141657  	357,439972  	70,278143  	64,119094  	0,008857  	0,008473  	0,003963  	0,004322  	0,004366  	-0,000001  	-0,000000  	26,167836  	24,754302  	25,649440  	25,463629  	28,284440  	27,022754  	28,218075  	27,842390  	30,576360  	29,780334  	32,419694  	58,183031  	28,067299  	27,184445  	27,639884  	63,492205  	0,267358  	0,135472  	-3545,277050  	12440,268140  	-0,036425  	-0,050007  	0,316159  	0,160200  	-4,130897  	9621,891742  	105574,497379  	15,312286  	-0,047957  
235,562000  	23,430630  	29,678135  	26,142303  	1256,670793  	70,286398  	64,119250  	0,008852  	0,008358  	0,003963  	0,004263  	0,004373  	-0,000000  	-0,000000  	26,162023  	24,760478  	25,641833  	25,457173  	28,276621  	27,021090  	28,208823  	27,832728  	30,569247  	29,778726  	32,415950  	58,185873  	28,066069  	27,184366  	27,635663  	63,479799  	0,219898  	0,111424  	-2910,441881  	25500,831307  	-0,018517  	-0,050006  	0,321575  	0,162945  	-4,207185  	9374,654172  	105457,706895  	15,295347  	-0,047956  
236,563000  	23,447339  	29,681458  	26,141504  	1256,670793  	70,293874  	64,115706  	0,008861  	0,008743  	0,003962  	0,004347  	0,004360  	-0,000001  	-0,000000  	26,158382  	24,758161  	25,639829  	25,458710  	28,271752  	27,009716  	28,207618  	27,835586  	30,561966  	29,756449  	32,402190  	58,176476  	28,063072  	27,180924  	27,637303  	63,464611  	0,287667  	0,145763  	-3799,233995  	25501,542452  	-0,018518  	-0,050007  	0,311281  	0,157729  	-4,079787  	10204,034315  	105661,765431  	15,324943  	-0,047958  
237,562000  	23,449151  	29,692566  	26,142856  	57,696365  	70,295650  	64,123789  	0,008848  	0,008537  	0,003963  	0,004375  	0,004332  	0,000000  	-0,000000  	26,182305  	24,772832  	25,662254  	25,470257  	28,298656  	27,023131  	28,221018  	27,844411  	30,578156  	29,778577  	32,414702  	58,186851  	28,075239  	27,197530  	27,636544  	63,483590  	0,310530  	0,157348  	-4107,307565  	1706,060653  	-0,053744  	-0,049999  	0,288857  	0,146366  	-3,782021  	9760,209489  	105383,388888  	15,284568  	-0,047951  
238,570000  	23,395833  	29,702904  	26,143041  	657,183579  	70,302129  	64,134298  	0,008857  	0,008508  	0,003961  	0,004351  	0,004337  	-0,000000  	-0,000000  	26,166318  	24,764945  	25,652875  	25,470873  	28,284444  	27,020860  	28,223165  	27,837904  	30,573960  	29,775553  	32,415763  	58,184351  	28,068337  	27,187363  	27,647734  	63,480682  	0,290706  	0,147303  	-3884,309275  	18405,982695  	-0,027544  	-0,050004  	0,293090  	0,148511  	-3,834936  	9697,372001  	105582,144543  	15,313395  	-0,047955  
239,562000  	23,373074  	29,712689  	26,143041  	657,183579  	70,308982  	64,157461  	0,008856  	0,008364  	0,003962  	0,004336  	0,004357  	-0,000000  	-0,000000  	26,168230  	24,758776  	25,657558  	25,466206  	28,286467  	27,022246  	28,221292  	27,834048  	30,575539  	29,778373  	32,407990  	58,190799  	28,067184  	27,187258  	27,644757  	63,472833  	0,278874  	0,141308  	-3745,450074  	18405,986739  	-0,027544  	-0,050004  	0,309206  	0,156677  	-4,035122  	9386,164321  	105559,944465  	15,310176  	-0,047955  
240,565000  	23,388861  	29,726104  	26,143102  	1256,670793  	70,316770  	64,155409  	0,008855  	0,008369  	0,003961  	0,004290  	0,004397  	0,000000  	-0,000000  	26,167554  	24,767031  	25,651958  	25,471081  	28,284743  	27,020170  	28,216459  	27,828017  	30,576572  	29,773748  	32,414700  	58,180919  	28,063066  	27,179381  	27,640712  	63,465126  	0,241827  	0,122536  	-3246,669236  	25496,936554  	-0,018514  	-0,049997  	0,340303  	0,172434  	-4,448044  	9397,000273  	105527,301031  	15,305441  	-0,047949  
241,562000  	23,409254  	29,717089  	26,143286  	1256,670793  	70,315991  	64,160415  	0,008861  	0,008567  	0,003964  	0,004354  	0,004362  	-0,000000  	-0,000000  	26,160381  	24,762350  	25,643438  	25,464819  	28,279225  	27,015047  	28,205768  	27,832250  	30,571322  	29,772087  	32,409366  	58,175660  	28,062494  	27,182519  	27,629353  	63,464155  	0,293820  	0,148881  	-3926,385775  	25498,702574  	-0,018516  	-0,050001  	0,313185  	0,158693  	-4,089750  	9823,958876  	105665,274794  	15,325452  	-0,047952  
242,565000  	23,424242  	29,704289  	26,142672  	657,183579  	70,314184  	64,148538  	0,008850  	0,008681  	0,003963  	0,004346  	0,004346  	0,000000  	-0,000000  	26,152304  	24,762347  	25,640135  	25,460575  	28,277696  	27,011342  	28,203281  	27,827077  	30,565997  	29,762734  	32,401644  	58,165715  	28,056396  	27,169123  	27,622755  	63,463914  	0,287012  	0,145431  	-3818,508855  	18404,022515  	-0,027541  	-0,049998  	0,300150  	0,152088  	-3,925934  	10069,692415  	105422,846278  	15,290291  	-0,047949  
243,562000  	23,397337  	29,697643  	26,142856  	657,183579  	70,316240  	64,131873  	0,008851  	0,008517  	0,003963  	0,004311  	0,004333  	0,000000  	-0,000000  	26,159341  	24,765499  	25,639272  	25,468860  	28,279475  	27,012434  	28,208281  	27,829906  	30,571976  	29,769030  	32,406014  	58,168033  	28,067812  	27,167429  	27,631894  	63,462148  	0,258314  	0,130889  	-3447,792105  	18403,079334  	-0,027540  	-0,049995  	0,289994  	0,146942  	-3,804605  	9715,595106  	105453,858600  	15,294789  	-0,047947  
244,566000  	23,364168  	29,698627  	26,142610  	1256,670793  	70,317362  	64,146362  	0,008857  	0,008416  	0,003961  	0,004336  	0,004370  	0,000000  	-0,000001  	26,165468  	24,768016  	25,653483  	25,473925  	28,283203  	27,018777  	28,219179  	27,845118  	30,576723  	29,776132  	32,415544  	58,179751  	28,070537  	27,174575  	27,636240  	63,466310  	0,278624  	0,141181  	-3739,055233  	25497,445421  	-0,018515  	-0,049998  	0,319462  	0,161874  	-4,182161  	9498,573975  	105584,637109  	15,313757  	-0,047950  
245,563000  	23,361403  	29,704996  	26,142918  	1256,670793  	70,317829  	64,160695  	0,008852  	0,008341  	0,003963  	0,004303  	0,004323  	0,000000  	-0,000000  	26,158048  	24,758344  	25,654988  	25,462676  	28,280730  	27,013159  	28,213319  	27,839277  	30,565775  	29,771624  	32,413970  	58,180607  	28,063851  	27,165619  	27,634825  	63,461811  	0,252020  	0,127700  	-3386,908440  	25496,477587  	-0,018514  	-0,049996  	0,282178  	0,142982  	-3,685776  	9337,797643  	105469,590715  	15,297071  	-0,047948  
246,565000  	23,390826  	29,702781  	26,142241  	1256,670793  	70,315150  	64,167349  	0,008856  	0,008601  	0,003962  	0,004347  	0,004363  	-0,000001  	-0,000000  	26,159081  	24,755668  	25,650281  	25,460754  	28,287477  	27,016455  	28,213558  	27,837690  	30,562963  	29,772281  	32,408271  	58,179295  	28,063354  	27,158436  	27,628897  	63,458188  	0,287484  	0,145670  	-3844,242062  	25501,089106  	-0,018518  	-0,050006  	0,313633  	0,158920  	-4,090425  	9896,955291  	105565,028453  	15,310913  	-0,047957  
247,566000  	23,407596  	29,693458  	26,142149  	1256,670793  	70,316147  	64,159327  	0,008854  	0,008370  	0,003963  	0,004303  	0,004308  	0,000001  	-0,000000  	26,165223  	24,761431  	25,649173  	25,464515  	28,288441  	27,021525  	28,216709  	27,844985  	30,566237  	29,772986  	32,404722  	58,178914  	28,069394  	27,157079  	27,626353  	63,454113  	0,252472  	0,127929  	-3362,090082  	25492,801630  	-0,018511  	-0,049988  	0,270265  	0,136945  	-3,529991  	9400,123648  	105501,506857  	15,301700  	-0,047941  
248,562000  	23,378787  	29,685027  	26,142149  	1256,670793  	70,318265  	64,175619  	0,008858  	0,008458  	0,003962  	0,004332  	0,004396  	-0,000001  	-0,000000  	26,165347  	24,767092  	25,644934  	25,468575  	28,280018  	27,018775  	28,214293  	27,840865  	30,565102  	29,767111  	32,402578  	58,168401  	28,071437  	27,149952  	27,627734  	63,448572  	0,275214  	0,139453  	-3676,827060  	25505,291472  	-0,018521  	-0,050016  	0,340264  	0,172414  	-4,434033  	9589,280597  	105608,171733  	15,317170  	-0,047965  
249,563000  	23,327712  	29,691427  	26,141135  	1256,670793  	70,318047  	64,169276  	0,008857  	0,008805  	0,003962  	0,004372  	0,004399  	-0,000001  	-0,000001  	26,169084  	24,773565  	25,647129  	25,476820  	28,284903  	27,018945  	28,215926  	27,837305  	30,572509  	29,773981  	32,408573  	58,168000  	28,075129  	27,142709  	27,628869  	63,457228  	0,307827  	0,155978  	-4150,036328  	25501,800868  	-0,018518  	-0,050008  	0,341983  	0,173286  	-4,460881  	10338,646460  	105580,075642  	15,313095  	-0,047958  
250,563000  	23,281767  	29,697581  	26,140705  	1256,670793  	70,321910  	64,171080  	0,008852  	0,008586  	0,003961  	0,004363  	0,004325  	-0,000001  	-0,000000  	26,180730  	24,784931  	25,657690  	25,484284  	28,299338  	27,027672  	28,225655  	27,847955  	30,586454  	29,785934  	32,420666  	58,182681  	28,086812  	27,147165  	27,636581  	63,470875  	0,301098  	0,152569  	-4092,562005  	25501,917499  	-0,018518  	-0,050008  	0,283461  	0,143632  	-3,698741  	9865,533363  	105466,215513  	15,296581  	-0,047958  
251,563000  	23,225472  	29,688073  	26,140428  	1256,670793  	70,325586  	64,180563  	0,008855  	0,008601  	0,003963  	0,004316  	0,004367  	0,000001  	-0,000000  	26,180803  	24,783399  	25,655855  	25,483749  	28,296044  	27,030287  	28,229150  	27,851478  	30,583828  	29,778512  	32,421552  	58,182984  	28,085383  	27,146729  	27,640563  	63,468890  	0,262670  	0,133097  	-3596,290103  	25490,441153  	-0,018510  	-0,049983  	0,316959  	0,160606  	-4,131950  	9898,605055  	105524,095295  	15,304976  	-0,047937  
252,564000  	23,229956  	29,671889  	26,139813  	1256,670793  	70,323031  	64,195984  	0,008857  	0,008256  	0,003962  	0,004312  	0,004377  	-0,000001  	-0,000000  	26,167762  	24,766133  	25,648605  	25,472514  	28,284986  	27,020793  	28,216134  	27,843728  	30,573087  	29,773862  	32,416950  	58,174373  	28,071194  	27,132675  	27,634173  	63,463525  	0,259258  	0,131368  	-3538,224493  	25502,855700  	-0,018519  	-0,050010  	0,325234  	0,164799  	-4,227430  	9154,712704  	105581,968015  	15,313370  	-0,047960  
253,563000  	23,277375  	29,647458  	26,139045  	1256,670793  	70,321972  	64,188895  	0,008847  	0,008558  	0,003961  	0,004377  	0,004365  	-0,000000  	-0,000000  	26,173258  	24,776324  	25,655135  	25,470745  	28,293717  	27,028872  	28,218087  	27,850134  	30,577862  	29,781735  	32,419635  	58,169486  	28,070616  	27,135273  	27,638601  	63,464647  	0,312153  	0,158170  	-4212,576328  	25498,630769  	-0,018516  	-0,050001  	0,315509  	0,159871  	-4,105056  	9804,478639  	105355,956541  	15,280590  	-0,047952  
254,565000  	23,295003  	29,621920  	26,138430  	1256,670793  	70,322221  	64,175091  	0,008857  	0,008596  	0,003963  	0,004377  	0,004307  	-0,000001  	-0,000000  	26,173120  	24,765942  	25,652003  	25,471430  	28,278120  	27,022877  	28,216625  	27,841211  	30,570504  	29,771727  	32,407563  	58,168645  	28,066995  	27,122588  	27,632604  	63,459719  	0,312080  	0,158133  	-4183,045798  	25506,463162  	-0,018521  	-0,050018  	0,269351  	0,136482  	-3,512519  	9887,541305  	105574,469134  	15,312282  	-0,047967  
255,563000  	23,288185  	29,610382  	26,138430  	357,439972  	70,319013  	64,161721  	0,008858  	0,008534  	0,003961  	0,004326  	0,004358  	0,000000  	-0,000000  	26,171702  	24,765187  	25,659804  	25,479574  	28,293215  	27,031866  	28,219174  	27,851767  	30,576168  	29,770773  	32,415580  	58,171268  	28,071861  	27,121473  	27,631057  	63,467779  	0,270955  	0,137295  	-3629,106342  	12438,769380  	-0,036420  	-0,049999  	0,309706  	0,156930  	-4,045448  	9754,236521  	105589,488080  	15,314460  	-0,047951  
256,563000  	23,286281  	29,610258  	26,138553  	956,927186  	70,316396  	64,159296  	0,008855  	0,008380  	0,003962  	0,004352  	0,004354  	-0,000000  	-0,000000  	26,175196  	24,773448  	25,661918  	25,478774  	28,299003  	27,030864  	28,222036  	27,848429  	30,576730  	29,783312  	32,414751  	58,176206  	28,068195  	27,117768  	27,629341  	63,468833  	0,291495  	0,147703  	-3905,323399  	22442,678941  	-0,022145  	-0,050001  	0,306509  	0,155310  	-4,003562  	9422,111074  	105527,477558  	15,305467  	-0,047952  
257,563000  	23,316594  	29,614658  	26,137877  	1256,670793  	70,314683  	64,160944  	0,008861  	0,008326  	0,003964  	0,004293  	0,004370  	0,000000  	-0,000000  	26,174977  	24,777630  	25,665985  	25,474929  	28,297899  	27,028325  	28,222563  	27,855027  	30,578190  	29,787860  	32,425234  	58,175247  	28,079080  	27,123773  	27,627861  	63,469006  	0,244025  	0,123649  	-3255,931384  	25497,973973  	-0,018515  	-0,049999  	0,319090  	0,161685  	-4,165617  	9305,488578  	105654,591360  	15,323903  	-0,047951  
258,564000  	23,346938  	29,616381  	26,137754  	1256,670793  	70,314807  	64,149689  	0,008843  	0,008588  	0,003961  	0,004354  	0,004327  	-0,000000  	-0,000000  	26,169081  	24,775805  	25,649631  	25,483214  	28,285743  	27,028142  	28,210662  	27,847559  	30,573990  	29,775941  	32,426166  	58,170842  	28,078637  	27,110327  	27,632093  	63,463337  	0,293091  	0,148512  	-3892,832046  	25499,914273  	-0,018517  	-0,050004  	0,285221  	0,144524  	-3,730350  	9869,944997  	105283,876900  	15,270135  	-0,047954  
259,563000  	23,352650  	29,618504  	26,137662  	1256,670793  	70,313437  	64,144310  	0,008863  	0,008516  	0,003962  	0,004344  	0,004326  	0,000001  	-0,000000  	26,181345  	24,774741  	25,657002  	25,477057  	28,287503  	27,025174  	28,221394  	27,856414  	30,580803  	29,775595  	32,421150  	58,177405  	28,076571  	27,110129  	27,635410  	63,471106  	0,285431  	0,144630  	-3788,919832  	25492,911404  	-0,018512  	-0,049988  	0,284382  	0,144099  	-3,721793  	9714,336559  	105697,769946  	15,330165  	-0,047941  
260,570000  	23,350193  	29,626566  	26,137600  	1256,670793  	70,310945  	64,140268  	0,008856  	0,008318  	0,003963  	0,004367  	0,004365  	-0,000000  	-0,000000  	26,160558  	24,764779  	25,645869  	25,451757  	28,279267  	27,020317  	28,205062  	27,840666  	30,567299  	29,767591  	32,412499  	58,166764  	28,073183  	27,105854  	27,644390  	63,460056  	0,304075  	0,154077  	-4043,175894  	25499,607421  	-0,018516  	-0,050003  	0,315121  	0,159674  	-4,125112  	9286,533973  	105551,520581  	15,308954  	-0,047954  
261,562000  	23,329923  	29,638689  	26,138461  	1256,670793  	70,306957  	64,145180  	0,008857  	0,008495  	0,003962  	0,004341  	0,004345  	0,000000  	-0,000000  	26,159809  	24,764721  	25,655041  	25,458164  	28,272781  	27,017266  	28,209833  	27,841538  	30,575281  	29,767773  	32,409626  	58,163722  	28,072369  	27,109873  	27,624479  	63,448727  	0,282543  	0,143167  	-3776,275821  	25497,889714  	-0,018515  	-0,049999  	0,299210  	0,151612  	-3,911184  	9668,684352  	105582,765919  	15,313486  	-0,047951  
262,566000  	23,311250  	29,646627  	26,138030  	1256,670793  	70,306085  	64,135666  	0,008861  	0,008703  	0,003961  	0,004315  	0,004363  	0,000001  	-0,000000  	26,168959  	24,770561  	25,654117  	25,472070  	28,283338  	27,019336  	28,219407  	27,842383  	30,572159  	29,785149  	32,413183  	58,173248  	28,096694  	27,115215  	27,649918  	63,453929  	0,261904  	0,132709  	-3515,200102  	25491,037836  	-0,018510  	-0,049984  	0,314094  	0,159154  	-4,111489  	10117,579445  	105657,196904  	15,324281  	-0,047938  
263,563000  	23,271816  	29,645796  	26,137293  	1256,670793  	70,305306  	64,130318  	0,008848  	0,008483  	0,003964  	0,004331  	0,004368  	-0,000002  	-0,000000  	26,168190  	24,770290  	25,648585  	25,459943  	28,273221  	27,014038  	28,216754  	27,830375  	30,565716  	29,767303  	32,411216  	58,165991  	28,082254  	27,101452  	27,625569  	63,443002  	0,274501  	0,139091  	-3706,719205  	25512,195052  	-0,018525  	-0,050030  	0,317816  	0,161040  	-4,163295  	9642,426074  	105383,261789  	15,284550  	-0,047977  
264,564000  	23,256460  	29,637427  	26,136862  	1256,670793  	70,306241  	64,146859  	0,008855  	0,008483  	0,003961  	0,004301  	0,004307  	0,000001  	-0,000001  	26,166414  	24,760243  	25,647659  	25,462650  	28,275093  	27,016149  	28,213602  	27,838597  	30,573808  	29,762817  	32,409035  	58,164949  	28,092668  	27,108561  	27,630263  	63,440868  	0,250110  	0,126732  	-3381,062932  	25494,987494  	-0,018513  	-0,049993  	0,269628  	0,136623  	-3,523132  	9643,204264  	105537,525494  	15,306924  	-0,047945  
265,572000  	23,269052  	29,626966  	26,136002  	1256,670793  	70,312315  	64,163773  	0,008860  	0,008451  	0,003962  	0,004323  	0,004356  	-0,000000  	-0,000000  	26,169211  	24,765009  	25,649523  	25,456187  	28,282030  	27,011402  	28,207922  	27,834246  	30,566494  	29,769358  	32,406624  	58,174876  	28,097533  	27,104066  	27,638720  	63,442758  	0,268534  	0,136068  	-3617,016887  	25498,699409  	-0,018516  	-0,050001  	0,308037  	0,156085  	-4,017928  	9573,668676  	105630,082305  	15,320348  	-0,047952  
266,563000  	23,254740  	29,617981  	26,135756  	1256,670793  	70,315991  	64,172541  	0,008847  	0,008412  	0,003961  	0,004354  	0,004401  	-0,000002  	-0,000000  	26,158576  	24,758272  	25,640400  	25,447947  	28,271972  	27,002174  	28,192413  	27,824258  	30,559652  	29,761776  	32,393253  	58,171970  	28,092129  	27,097331  	27,630073  	63,430999  	0,293149  	0,148541  	-3951,870066  	25507,037111  	-0,018522  	-0,050019  	0,343825  	0,174219  	-4,481021  	9491,023403  	105357,361698  	15,280793  	-0,047968  
267,562000  	23,246817  	29,612628  	26,134834  	1256,670793  	70,313655  	64,177174  	0,008856  	0,008408  	0,003964  	0,004316  	0,004318  	0,000000  	-0,000000  	26,154957  	24,754779  	25,643448  	25,460403  	28,268786  	27,006995  	28,195664  	27,827264  	30,557987  	29,750466  	32,395726  	58,155203  	28,085174  	27,097285  	27,627699  	63,426058  	0,262780  	0,133152  	-3543,907127  	25496,358361  	-0,018514  	-0,049995  	0,278500  	0,141118  	-3,625535  	9482,263097  	105550,743861  	15,308841  	-0,047948  
268,565000  	23,271447  	29,611028  	26,136186  	1256,670793  	70,311038  	64,157710  	0,008856  	0,008630  	0,003962  	0,004320  	0,004392  	-0,000000  	-0,000000  	26,157297  	24,758727  	25,644273  	25,468476  	28,278384  	27,004967  	28,204236  	27,829522  	30,562773  	29,766553  	32,401885  	58,167174  	28,096436  	27,105906  	27,638745  	63,430526  	0,265670  	0,134617  	-3568,110140  	25498,607545  	-0,018516  	-0,050001  	0,336595  	0,170555  	-4,393846  	9960,666476  	105548,434883  	15,308506  	-0,047952  
269,562000  	23,326053  	29,599859  	26,135018  	956,927186  	70,312596  	64,141107  	0,008855  	0,008415  	0,003962  	0,004314  	0,004365  	-0,000000  	-0,000000  	26,144595  	24,761466  	25,643279  	25,452607  	28,271193  	27,003722  	28,195384  	27,821602  	30,557480  	29,761099  	32,395537  	58,167839  	28,094192  	27,104138  	27,631815  	63,427979  	0,260797  	0,132148  	-3466,319058  	22444,419249  	-0,022146  	-0,050005  	0,315626  	0,159930  	-4,132273  	9497,379806  	105533,352388  	15,306319  	-0,047956  
270,564000  	23,375746  	29,592843  	26,135448  	-242,047242  	70,311412  	64,139801  	0,008861  	0,008495  	0,003962  	0,004304  	0,004377  	-0,000000  	-0,000001  	26,142208  	24,762325  	25,641153  	25,449447  	28,262744  	27,004726  	28,193812  	27,816977  	30,554776  	29,752809  	32,390655  	58,164418  	28,091425  	27,104241  	27,631918  	63,423919  	0,252962  	0,128178  	-3331,776351  	-27100,467829  	-0,102513  	-0,050004  	0,324708  	0,164532  	-4,251261  	9669,168953  	105663,057611  	15,325131  	-0,047955  
271,562000  	23,439875  	29,597274  	26,134895  	-242,047242  	70,308733  	64,155845  	0,008847  	0,008499  	0,003962  	0,004313  	0,004321  	0,000001  	-0,000000  	26,148656  	24,750647  	25,637264  	25,454632  	28,262727  	26,999676  	28,194701  	27,820991  	30,554925  	29,754060  	32,392885  	58,167386  	28,099349  	27,108885  	27,629381  	63,431670  	0,260342  	0,131917  	-3396,035429  	-27091,498778  	-0,102480  	-0,049986  	0,280154  	0,141956  	-3,656810  	9678,487433  	105369,160785  	15,282505  	-0,047939  
272,574000  	23,487113  	29,618812  	26,135080  	956,927186  	70,311225  	64,170147  	0,008859  	0,008715  	0,003962  	0,004322  	0,004279  	-0,000001  	-0,000000  	26,151698  	24,750352  	25,630699  	25,451571  	28,271282  	27,000782  	28,194149  	27,816611  	30,556431  	29,757661  	32,392770  	58,169016  	28,097081  	27,108401  	27,628548  	63,429818  	0,267245  	0,135415  	-3471,529767  	22446,448296  	-0,022148  	-0,050010  	0,247340  	0,125329  	-3,222298  	10142,868522  	105608,680131  	15,317244  	-0,047960  
273,563000  	23,457658  	29,653027  	26,134957  	1256,670793  	70,313281  	64,156622  	0,008852  	0,008439  	0,003962  	0,004318  	0,004328  	-0,000000  	-0,000000  	26,144176  	24,756285  	25,634624  	25,448063  	28,269062  	27,002558  	28,189870  	27,811703  	30,552756  	29,753230  	32,391223  	58,167185  	28,089465  	27,105742  	27,624859  	63,429944  	0,264648  	0,134099  	-3473,487443  	25499,186981  	-0,018516  	-0,050002  	0,286204  	0,145022  	-3,738066  	9547,893583  	105462,494317  	15,296042  	-0,047953  
274,563000  	23,419881  	29,689704  	26,134649  	1256,670793  	70,317954  	64,158363  	0,008859  	0,008393  	0,003962  	0,004323  	0,004350  	-0,000001  	-0,000000  	26,149820  	24,757728  	25,640099  	25,448449  	28,267129  	27,001678  	28,193517  	27,818271  	30,550937  	29,748985  	32,396060  	58,169988  	28,095757  	27,109609  	27,627951  	63,437799  	0,268336  	0,135968  	-3564,231414  	25503,022905  	-0,018519  	-0,050010  	0,303347  	0,153708  	-3,963856  	9449,006054  	105616,193135  	15,318334  	-0,047960  
275,563000  	23,389475  	29,715458  	26,134096  	357,439972  	70,323623  	64,160353  	0,008859  	0,008414  	0,003961  	0,004320  	0,004347  	-0,000001  	-0,000000  	26,148254  	24,748492  	25,627869  	25,446960  	28,265699  	26,996724  	28,193959  	27,816391  	30,553714  	29,750093  	32,391787  	58,166678  	28,098274  	27,103823  	27,630663  	63,429538  	0,265665  	0,134614  	-3560,369711  	12440,973949  	-0,036426  	-0,050008  	0,300913  	0,152475  	-3,934408  	9494,963170  	105627,024852  	15,319905  	-0,047958  
276,564000  	23,376268  	29,719827  	26,133543  	956,927186  	70,323499  	64,160913  	0,008845  	0,008389  	0,003962  	0,004365  	0,004288  	-0,000001  	-0,000000  	26,137003  	24,740179  	25,621658  	25,445433  	28,255990  	26,994156  	28,184772  	27,810984  	30,553663  	29,746735  	32,381738  	58,158925  	28,089675  	27,094552  	27,624397  	63,424975  	0,301969  	0,153010  	-4058,154176  	22446,466909  	-0,022148  	-0,050010  	0,254127  	0,128768  	-3,322318  	9440,626354  	105317,890187  	15,275069  	-0,047960  
277,564000  	23,404862  	29,708873  	26,134004  	-242,047242  	70,311724  	64,145802  	0,008855  	0,008400  	0,003963  	0,004337  	0,004349  	-0,000001  	-0,000000  	26,145227  	24,746614  	25,630016  	25,445631  	28,253539  	26,997152  	28,184839  	27,814467  	30,550859  	29,743019  	32,381828  	58,161736  	28,088606  	27,096245  	27,623797  	63,434532  	0,279593  	0,141672  	-3734,009423  	-27103,650778  	-0,102526  	-0,050011  	0,302363  	0,153209  	-3,955050  	9464,296795  	105541,317301  	15,307474  	-0,047961  
278,569000  	23,404371  	29,697550  	26,134188  	-242,047242  	70,305493  	64,149284  	0,008856  	0,008403  	0,003964  	0,004334  	0,004316  	0,000000  	-0,000000  	26,142034  	24,742235  	25,627951  	25,446886  	28,258690  	26,993519  	28,184375  	27,810712  	30,548509  	29,746914  	32,383538  	58,163197  	28,093561  	27,094280  	27,620581  	63,432260  	0,277586  	0,140655  	-3700,836806  	-27096,705178  	-0,102500  	-0,049996  	0,276452  	0,140080  	-3,610436  	9471,436341  	105555,453610  	15,309524  	-0,047948  
279,561000  	23,393406  	29,690350  	26,134465  	-242,047242  	70,310010  	64,142569  	0,008858  	0,008464  	0,003962  	0,004353  	0,004383  	0,000000  	-0,000000  	26,150465  	24,741532  	25,631354  	25,453527  	28,270078  	27,002331  	28,191686  	27,818020  	30,552934  	29,749248  	32,396963  	58,167135  	28,103692  	27,107892  	27,626649  	63,438987  	0,293036  	0,148484  	-3909,158818  	-27096,371552  	-0,102498  	-0,049996  	0,329561  	0,166991  	-4,311876  	9602,081835  	105599,048800  	15,315847  	-0,047948  
280,563000  	23,402313  	29,691581  	26,134588  	956,927186  	70,316116  	64,133614  	0,008855  	0,008386  	0,003963  	0,004318  	0,004362  	-0,000001  	-0,000000  	26,148115  	24,745491  	25,627150  	25,455353  	28,255618  	27,001364  	28,197785  	27,818793  	30,549245  	29,747154  	32,395159  	58,166175  	28,102819  	27,108841  	27,624119  	63,433564  	0,264039  	0,133790  	-3518,035363  	22445,422757  	-0,022147  	-0,050007  	0,312584  	0,158388  	-4,099735  	9434,056302  	105532,236735  	15,306157  	-0,047958  
281,563000  	23,414291  	29,689889  	26,133696  	57,696365  	70,318078  	64,130785  	0,008851  	0,008676  	0,003962  	0,004331  	0,004326  	-0,000001  	-0,000000  	26,149123  	24,744608  	25,629189  	25,453104  	28,261157  	27,003135  	28,194246  	27,816797  	30,555331  	29,760620  	32,397964  	58,164775  	28,099711  	27,104736  	27,625971  	63,437224  	0,274686  	0,139185  	-3651,934296  	1706,924207  	-0,053756  	-0,050011  	0,284715  	0,144267  	-3,737117  	10059,342478  	105448,414497  	15,293999  	-0,047961  
282,562000  	23,403480  	29,685212  	26,133512  	1256,670793  	70,317518  	64,128982  	0,008856  	0,008756  	0,003962  	0,004341  	0,004349  	0,000002  	-0,000001  	26,146178  	24,746016  	25,635636  	25,446345  	28,255998  	27,000303  	28,199255  	27,815796  	30,545668  	29,755836  	32,390341  	58,164667  	28,089776  	27,101127  	27,622547  	63,436865  	0,283051  	0,143424  	-3766,836332  	25488,898569  	-0,018509  	-0,049979  	0,302995  	0,153530  	-3,977845  	10232,550762  	105557,847321  	15,309871  	-0,047933  
283,562000  	23,366809  	29,688719  	26,132405  	1256,670793  	70,320384  	64,147574  	0,008854  	0,008565  	0,003962  	0,004319  	0,004391  	-0,000001  	-0,000001  	26,145249  	24,751398  	25,642502  	25,456561  	28,271761  	27,008299  	28,201308  	27,825961  	30,558533  	29,756807  	32,390769  	58,173039  	28,090592  	27,111861  	27,628913  	63,449470  	0,265469  	0,134515  	-3555,460283  	25503,134772  	-0,018519  	-0,050010  	0,336096  	0,170302  	-4,401207  	9819,178662  	105513,884954  	15,303495  	-0,047960  
284,563000  	23,330937  	29,694258  	26,131483  	1256,670793  	70,321692  	64,165670  	0,008850  	0,008249  	0,003961  	0,004309  	0,004375  	-0,000001  	-0,000000  	26,147057  	24,745991  	25,628168  	25,449528  	28,259136  	27,001061  	28,189130  	27,824538  	30,543806  	29,742234  	32,380228  	58,163563  	28,090992  	27,112758  	27,618821  	63,446990  	0,256738  	0,130091  	-3461,049712  	25503,334550  	-0,018519  	-0,050011  	0,323229  	0,163782  	-4,221214  	9138,977687  	105427,160606  	15,290917  	-0,047960  
285,573000  	23,347122  	29,696750  	26,131084  	1256,670793  	70,321630  	64,186999  	0,008862  	0,008326  	0,003963  	0,004319  	0,004309  	-0,000000  	-0,000000  	26,133989  	24,739053  	25,624886  	25,444428  	28,256929  	26,995906  	28,187366  	27,820996  	30,547248  	29,743135  	32,388038  	58,147681  	28,079156  	27,117734  	27,620776  	63,438269  	0,264800  	0,134176  	-3562,054266  	25499,286225  	-0,018516  	-0,050002  	0,270696  	0,137164  	-3,522882  	9304,648839  	105681,691836  	15,327834  	-0,047953  
286,563000  	23,361987  	29,690966  	26,131391  	657,183579  	70,322439  	64,176925  	0,008855  	0,008419  	0,003962  	0,004304  	0,004348  	-0,000001  	-0,000001  	26,138434  	24,753470  	25,620783  	25,452720  	28,263212  	27,001894  	28,188270  	27,830815  	30,552195  	29,752936  	32,389911  	58,164829  	28,096271  	27,121827  	27,623541  	63,443331  	0,252998  	0,128196  	-3392,221685  	18407,524391  	-0,027546  	-0,050007  	0,302020  	0,153036  	-3,937511  	9504,154310  	105534,376247  	15,306467  	-0,047957  
287,563000  	23,347245  	29,680442  	26,130192  	657,183579  	70,321723  	64,153513  	0,008850  	0,008552  	0,003963  	0,004403  	0,004340  	0,000000  	-0,000000  	26,155768  	24,758368  	25,638413  	25,443147  	28,272520  	27,011847  	28,202581  	27,824945  	30,556895  	29,751669  	32,388378  	58,158159  	28,094272  	27,130415  	27,624533  	63,449004  	0,333270  	0,168870  	-4471,497894  	18404,258308  	-0,027541  	-0,049997  	0,295743  	0,149855  	-3,869902  	9792,701076  	105433,183718  	15,291790  	-0,047949  
288,566000  	23,343559  	29,671827  	26,129455  	1256,670793  	70,322097  	64,141822  	0,008852  	0,008453  	0,003963  	0,004324  	0,004406  	0,000000  	-0,000000  	26,152991  	24,746285  	25,639741  	25,462404  	28,272741  	27,003547  	28,199588  	27,832232  	30,543899  	29,753212  	32,394603  	58,165989  	28,084846  	27,126064  	27,606046  	63,446703  	0,269253  	0,136432  	-3609,761417  	25496,261736  	-0,018514  	-0,049995  	0,347945  	0,176306  	-4,561881  	9577,631789  	105467,239371  	15,296730  	-0,047947  
289,562000  	23,327804  	29,664842  	26,129762  	1256,670793  	70,323374  	64,160322  	0,008849  	0,008720  	0,003964  	0,004331  	0,004332  	0,000001  	-0,000000  	26,157953  	24,755961  	25,648455  	25,472714  	28,277791  	27,009758  	28,208763  	27,839484  	30,563375  	29,767605  	32,396212  	58,174252  	28,112468  	27,141639  	27,630975  	63,451021  	0,274580  	0,139132  	-3686,285588  	25494,171669  	-0,018512  	-0,049990  	0,289580  	0,146732  	-3,786088  	10153,265858  	105400,441429  	15,287042  	-0,047943  
290,565000  	23,296416  	29,662627  	26,129024  	657,183579  	70,323561  	64,178231  	0,008860  	0,008366  	0,003964  	0,004310  	0,004355  	-0,000000  	-0,000000  	26,165831  	24,766322  	25,645116  	25,466405  	28,273540  	27,017353  	28,210316  	27,844709  	30,558821  	29,767402  	32,397330  	58,166632  	28,111659  	27,121124  	27,634215  	63,452582  	0,257975  	0,130718  	-3479,312528  	18406,680033  	-0,027545  	-0,050004  	0,307321  	0,155722  	-4,006503  	9390,261849  	105650,340582  	15,323286  	-0,047955  
291,563000  	23,289322  	29,665396  	26,129393  	657,183579  	70,324994  	64,179972  	0,008853  	0,008668  	0,003964  	0,004264  	0,004363  	0,000001  	-0,000000  	26,151738  	24,763921  	25,640558  	25,459882  	28,270650  	27,012885  	28,207509  	27,835551  	30,563041  	29,769007  	32,394443  	58,162535  	28,103738  	27,116649  	27,627256  	63,444323  	0,220771  	0,111866  	-2982,156763  	18400,325605  	-0,027535  	-0,049985  	0,313727  	0,158968  	-4,089804  	10042,887281  	105497,976311  	15,301188  	-0,047938  
292,567000  	23,306643  	29,661212  	26,127918  	1256,670793  	70,324869  	64,180034  	0,008852  	0,008523  	0,003962  	0,004349  	0,004355  	-0,000000  	-0,000000  	26,149466  	24,756257  	25,640655  	25,457839  	28,269605  	27,004353  	28,206272  	27,834543  	30,561191  	29,767449  	32,399921  	58,161617  	28,096432  	27,114530  	27,621494  	63,435014  	0,289401  	0,146642  	-3896,022008  	25499,993713  	-0,018517  	-0,050003  	0,307613  	0,155870  	-4,009987  	9728,520854  	105473,905043  	15,297697  	-0,047954  
293,563000  	23,290427  	29,644073  	26,128256  	57,696365  	70,328140  	64,181589  	0,008852  	0,008433  	0,003962  	0,004330  	0,004347  	-0,000001  	-0,000000  	26,152315  	24,757569  	25,641540  	25,456687  	28,274315  	27,006574  	28,205298  	27,826859  	30,556795  	29,760313  	32,404163  	58,160961  	28,091409  	27,114889  	27,615263  	63,434736  	0,273696  	0,138684  	-3684,053828  	1707,331214  	-0,053759  	-0,050014  	0,301408  	0,152725  	-3,930191  	9535,388058  	105461,456336  	15,295891  	-0,047963  
294,564000  	23,291410  	29,635704  	26,129916  	1256,670793  	70,329822  	64,189611  	0,008849  	0,008707  	0,003961  	0,004328  	0,004303  	-0,000001  	-0,000000  	26,157512  	24,762883  	25,645878  	25,458702  	28,282616  	27,009556  	28,211368  	27,831134  	30,564362  	29,762320  	32,406420  	58,168782  	28,102121  	27,116881  	27,624985  	63,434201  	0,272046  	0,137848  	-3656,459504  	25503,958555  	-0,018519  	-0,050012  	0,266513  	0,135044  	-3,471599  	10126,932590  	105413,716284  	15,288967  	-0,047962  
295,563000  	23,290581  	29,636443  	26,129363  	1256,670793  	70,331598  	64,185164  	0,008857  	0,008849  	0,003961  	0,004294  	0,004405  	-0,000001  	-0,000001  	26,163890  	24,760327  	25,647209  	25,465123  	28,285130  	27,014741  	28,210062  	27,835369  	30,570450  	29,766300  	32,398294  	58,170265  	28,106777  	27,122462  	27,631640  	63,440398  	0,244736  	0,124009  	-3290,208473  	25501,875812  	-0,018518  	-0,050007  	0,347065  	0,175860  	-4,525454  	10431,441462  	105578,133842  	15,312814  	-0,047958  
296,564000  	23,290151  	29,633735  	26,129178  	1256,670793  	70,330227  	64,201332  	0,008860  	0,008935  	0,003962  	0,004372  	0,004354  	-0,000001  	-0,000000  	26,162855  	24,763351  	25,643080  	25,466674  	28,277552  	27,016286  	28,211531  	27,841849  	30,565092  	29,768138  	32,402269  	58,164459  	28,108560  	27,122847  	27,628123  	63,445365  	0,307938  	0,156034  	-4138,406906  	25505,748862  	-0,018521  	-0,050016  	0,306458  	0,155284  	-3,984570  	10618,005622  	105645,715566  	15,322616  	-0,047965  
297,569000  	23,305016  	29,631243  	26,129793  	1256,670793  	70,333654  	64,225273  	0,008855  	0,008392  	0,003962  	0,004314  	0,004316  	0,000002  	-0,000000  	26,164089  	24,765085  	25,643253  	25,465602  	28,276566  	27,019839  	28,206333  	27,835341  	30,560197  	29,764342  	32,401125  	58,160237  	28,103161  	27,126974  	27,630205  	63,439376  	0,261196  	0,132350  	-3500,624739  	25488,774320  	-0,018508  	-0,049978  	0,276467  	0,140088  	-3,582607  	9446,281679  	105529,934819  	15,305823  	-0,047933  
298,562000  	23,326698  	29,634750  	26,129731  	1256,670793  	70,333155  	64,237897  	0,008858  	0,008290  	0,003963  	0,004359  	0,004329  	-0,000001  	-0,000000  	26,155696  	24,755204  	25,638317  	25,457696  	28,275671  	27,013552  	28,202316  	27,823606  	30,556496  	29,760160  	32,393329  	58,157138  	28,095002  	27,129765  	27,629662  	63,433898  	0,297576  	0,150784  	-3976,748858  	25502,511805  	-0,018518  	-0,050009  	0,286662  	0,145254  	-3,706747  	9228,008369  	105595,313482  	15,315305  	-0,047959  
299,562000  	23,332134  	29,641396  	26,129270  	1256,670793  	70,327299  	64,223314  	0,008853  	0,008682  	0,003963  	0,004344  	0,004359  	0,000002  	-0,000000  	26,152976  	24,749418  	25,629875  	25,451678  	28,268308  	27,003072  	28,200291  	27,823491  	30,558676  	29,761883  	32,396083  	58,159120  	28,081843  	27,128822  	27,619571  	63,435096  	0,285519  	0,144674  	-3816,341655  	25489,933988  	-0,018509  	-0,049981  	0,310811  	0,157490  	-4,024753  	10073,187907  	105486,381995  	15,299506  	-0,047935  
300,563000  	23,351913  	29,646504  	26,129516  	1256,670793  	70,326427  	64,210753  	0,008845  	0,008538  	0,003960  	0,004367  	0,004355  	-0,000001  	-0,000000  	26,152432  	24,754520  	25,638997  	25,453387  	28,273544  	27,002086  	28,203501  	27,833036  	30,562469  	29,760057  	32,398775  	58,162299  	28,073506  	27,131969  	27,620729  	63,436870  	0,304138  	0,154109  	-4055,751162  	25502,574790  	-0,018518  	-0,050009  	0,307433  	0,155778  	-3,988630  	9761,753844  	105313,971280  	15,274500  	-0,047959  
301,565000  	23,374026  	29,647273  	26,128041  	57,696365  	70,325897  	64,187279  	0,008864  	0,008668  	0,003964  	0,004329  	0,004404  	-0,000001  	-0,000001  	26,148935  	24,760810  	25,642351  	25,456833  	28,269623  	27,001622  	28,205208  	27,831690  	30,557170  	29,756500  	32,393944  	58,164597  	28,069585  	27,135861  	27,624933  	63,437342  	0,273202  	0,138434  	-3630,862970  	1707,137911  	-0,053753  	-0,050007  	0,346011  	0,175326  	-4,505977  	10041,204974  	105730,978268  	15,334982  	-0,047958  
302,563000  	23,393744  	29,647950  	26,128471  	1256,670793  	70,322658  	64,193932  	0,008853  	0,008576  	0,003963  	0,004322  	0,004367  	-0,000001  	-0,000000  	26,156048  	24,765569  	25,635617  	25,459303  	28,261085  	27,004069  	28,203918  	27,827123  	30,556269  	29,759676  	32,392944  	58,170050  	28,067991  	27,132609  	27,621848  	63,443967  	0,267592  	0,135591  	-3545,496063  	25505,745614  	-0,018521  	-0,050016  	0,316580  	0,160414  	-4,116067  	9844,442271  	105484,454317  	15,299227  	-0,047965  
303,564000  	23,390058  	29,660135  	26,127272  	357,439972  	70,315026  	64,198627  	0,008862  	0,008276  	0,003961  	0,004331  	0,004348  	0,000001  	-0,000000  	26,158342  	24,765513  	25,641619  	25,457088  	28,273501  	27,010809  	28,207505  	27,830876  	30,562848  	29,760942  	32,396373  	58,168452  	28,066190  	27,127354  	27,625154  	63,449179  	0,274740  	0,139213  	-3649,443365  	12437,564718  	-0,036415  	-0,049991  	0,302200  	0,153127  	-3,921199  	9195,915782  	105675,817007  	15,326981  	-0,047944  
