07/10/2020 14:32:46
Tempo T_f_e T_f_s AR AR T_q_e T_q_s Corrente_P_f Corrente_P_q Corrente_P_RESERVA Corrente_eletromag_f Corrente_eletromag_q AR AR T_1 T_2 T_3 T_4 T_5 T_6 T_7 T_8 T_9 T_10 T_11 T_12 T_13 T_14 T_15 T_16 Velocidade_f_(m/s) Vazao_f_(L/s) q_f_(W) AR AR AR Velocidade_q_(m/s) Vazao_q_(L/s) q_q_(W) DeltaP_q_(Pa) DeltaP_f_(Pa) DeltaP_f_(Psi) AR
0,009000  	15,313214  	38,264239  	57,725912  	-242,047242  	69,783010  	64,552475  	0,004291  	0,008322  	0,003965  	0,004082  	0,004366  	-0,000000  	-0,000000  	22,295565  	18,889342  	20,179234  	22,812792  	30,096085  	28,173329  	29,768812  	31,482361  	38,865784  	37,149261  	40,696567  	59,390244  	22,353500  	20,995742  	22,094288  	63,634460  	0,073159  	0,037070  	-3559,663886  	-27701,987384  	-0,093567  	-0,050004  	0,315924  	0,160081  	-3,505716  	9295,909757  	7188,683093  	1,042630  	-0,047955  
2,545000  	15,318607  	38,264239  	657,272221  	357,439972  	69,792416  	64,562736  	0,004288  	0,008320  	0,003968  	0,004061  	0,004374  	0,000001  	-0,000000  	22,287917  	18,889019  	20,183435  	22,826302  	30,095841  	28,173449  	29,776427  	31,476175  	38,861826  	37,149895  	40,697307  	59,391837  	22,347372  	20,972272  	22,097039  	63,641430  	0,055711  	0,028229  	-2710,071104  	-7102,328447  	-0,021692  	-0,049990  	0,322828  	0,163579  	-3,581737  	9290,752475  	7129,892430  	1,034103  	-0,047943  
3,542000  	15,319986  	38,262665  	657,272221  	357,439972  	69,793444  	64,557512  	0,004289  	0,008345  	0,003966  	0,004034  	0,004359  	-0,000001  	-0,000000  	22,305134  	18,897845  	20,177354  	22,811905  	30,089632  	28,176086  	29,774725  	31,487021  	38,870175  	37,151105  	40,689860  	59,402282  	22,358868  	20,969644  	22,098270  	63,641152  	0,033805  	0,017129  	-1644,254151  	-7104,973615  	-0,021700  	-0,050011  	0,310426  	0,157295  	-3,448254  	9345,266859  	7148,858526  	1,036854  	-0,047961  
4,543000  	15,315390  	38,258778  	1256,818530  	956,927186  	69,795437  	64,565286  	0,004291  	0,008316  	0,003965  	0,004051  	0,004359  	-0,000001  	-0,000000  	22,293851  	18,890870  	20,172316  	22,813645  	30,076760  	28,171468  	29,766476  	31,485555  	38,850668  	37,146583  	40,681038  	59,386815  	22,347102  	20,945696  	22,090460  	63,636990  	0,048173  	0,024410  	-2343,164704  	-4421,254174  	-0,012272  	-0,050008  	0,310561  	0,157363  	-3,445949  	9282,268780  	7191,966501  	1,043107  	-0,047958  
5,543000  	15,310947  	38,260074  	1256,818530  	57,696365  	69,796185  	64,568116  	0,004291  	0,008300  	0,003966  	0,004081  	0,004366  	0,000000  	-0,000000  	22,297414  	18,889101  	20,175924  	22,816913  	30,089674  	28,176668  	29,763319  	31,484972  	38,860663  	37,149724  	40,680553  	59,391806  	22,351048  	20,960786  	22,095268  	63,637615  	0,071985  	0,036475  	-3502,237952  	-24492,814492  	-0,018199  	-0,049999  	0,316312  	0,160278  	-3,508374  	9249,265710  	7186,042244  	1,042247  	-0,047950  
6,542000  	15,314133  	38,264331  	1256,818530  	1256,670793  	69,794503  	64,568489  	0,004289  	0,008339  	0,003966  	0,004043  	0,004372  	-0,000001  	-0,000000  	22,298277  	18,891228  	20,171798  	22,803478  	30,083345  	28,167334  	29,761310  	31,471792  	38,856608  	37,144130  	40,684900  	59,384244  	22,340894  	20,960990  	22,090143  	63,633042  	0,041182  	0,020867  	-2003,724802  	-1,993873  	-0,011070  	-0,050009  	0,321218  	0,162763  	-3,561382  	9333,343562  	7155,093472  	1,037759  	-0,047959  
7,544000  	15,316799  	38,271550  	357,499067  	1256,670793  	69,787495  	64,567121  	0,004289  	0,008303  	0,003967  	0,004086  	0,004333  	0,000000  	-0,000000  	22,295032  	18,888929  	20,178127  	22,813850  	30,091701  	28,166424  	29,764526  	31,474947  	38,850306  	37,144623  	40,688322  	59,387929  	22,342247  	20,982457  	22,091691  	63,641671  	0,076672  	0,038850  	-3731,188733  	16229,253655  	-0,015674  	-0,049994  	0,289941  	0,146915  	-3,211145  	9255,743795  	7153,886025  	1,037583  	-0,047946  
8,681000  	15,318944  	38,279509  	-242,047242  	1256,670793  	69,782512  	64,570665  	0,004291  	0,008307  	0,003964  	0,004095  	0,004365  	0,000001  	-0,000000  	22,299936  	18,890452  	20,179504  	22,813394  	30,080505  	28,174172  	29,769728  	31,472349  	38,848490  	37,141163  	40,686196  	59,390518  	22,339808  	20,997737  	22,092748  	63,631129  	0,083903  	0,042514  	-4084,151609  	35501,559721  	-0,021692  	-0,049988  	0,315075  	0,159651  	-3,483808  	9263,285878  	7189,064392  	1,042686  	-0,047941  
9,550000  	15,320935  	38,281452  	1256,818530  	1256,670793  	69,774538  	64,567525  	0,004292  	0,008333  	0,003966  	0,004028  	0,004342  	0,000000  	-0,000000  	22,296806  	18,892572  	20,179685  	22,820730  	30,084468  	28,171105  	29,773407  	31,478443  	38,852794  	37,144625  	40,690388  	59,391766  	22,339031  	21,023662  	22,089372  	63,634410  	0,029701  	0,015050  	-1445,727871  	-1,993555  	-0,011068  	-0,050000  	0,296846  	0,150414  	-3,279200  	9318,772294  	7218,106668  	1,046898  	-0,047951  
10,542000  	15,318974  	38,277503  	1256,818530  	1256,670793  	69,773168  	64,569017  	0,004289  	0,008322  	0,003968  	0,004051  	0,004341  	-0,000000  	-0,000000  	22,296490  	18,893295  	20,180578  	22,816074  	30,085646  	28,177193  	29,770889  	31,486296  	38,862633  	37,148204  	40,691467  	59,390820  	22,339092  	21,045945  	22,100681  	63,638917  	0,048035  	0,024340  	-2337,985759  	-1,993689  	-0,011069  	-0,050004  	0,296228  	0,150101  	-3,270578  	9295,576550  	7156,943478  	1,038027  	-0,047955  
11,541000  	15,319066  	38,281575  	357,499067  	357,439972  	69,780767  	64,571940  	0,004290  	0,008326  	0,003964  	0,004069  	0,004348  	-0,000001  	-0,000000  	22,295718  	18,894134  	20,172860  	22,815169  	30,083892  	28,172286  	29,772271  	31,481876  	38,859337  	37,144081  	40,686447  	59,389499  	22,335068  	21,067054  	22,101152  	63,636764  	0,062673  	0,031757  	-3050,985368  	-1,685621  	-0,026858  	-0,050013  	0,301918  	0,152984  	-3,336399  	9303,863574  	7178,225613  	1,041114  	-0,047962  
12,543000  	15,322437  	38,286758  	957,045375  	956,927186  	69,784630  	64,561430  	0,004289  	0,008319  	0,003967  	0,004109  	0,004371  	0,000000  	-0,000000  	22,295236  	18,891740  	20,178196  	22,816591  	30,083028  	28,171585  	29,774474  	31,487083  	38,855583  	37,145047  	40,683467  	59,388729  	22,340990  	21,095018  	22,105780  	63,636498  	0,094966  	0,048120  	-4623,383506  	-1,916902  	-0,013764  	-0,049995  	0,320259  	0,162278  	-3,548840  	9289,810864  	7160,191581  	1,038498  	-0,047947  
13,546000  	15,326879  	38,286295  	-242,047242  	1256,670793  	69,782231  	64,567121  	0,004290  	0,008330  	0,003966  	0,004079  	0,004341  	-0,000000  	-0,000000  	22,292532  	18,892218  	20,176688  	22,812359  	30,080441  	28,175712  	29,775738  	31,477017  	38,859320  	37,143170  	40,689679  	59,387662  	22,343544  	21,113517  	22,100666  	63,631684  	0,070621  	0,035784  	-3437,423410  	35511,856944  	-0,021698  	-0,050005  	0,296424  	0,150200  	-3,279632  	9313,762160  	7179,863787  	1,041351  	-0,047955  
14,542000  	15,324980  	38,293514  	357,499067  	1256,670793  	69,779241  	64,567680  	0,004289  	0,008318  	0,003967  	0,004090  	0,004310  	-0,000001  	-0,000000  	22,287348  	18,892363  	20,173463  	22,813690  	30,084517  	28,175303  	29,774118  	31,475916  	38,852543  	37,139229  	40,691827  	59,382671  	22,339403  	21,123259  	22,091529  	63,623904  	0,079729  	0,040399  	-3882,276949  	16233,167692  	-0,015678  	-0,050007  	0,272085  	0,137868  	-3,008299  	9286,505675  	7151,407581  	1,037224  	-0,047958  
15,546000  	15,322498  	38,302583  	1256,818530  	357,439972  	69,779241  	64,571319  	0,004289  	0,008316  	0,003964  	0,004070  	0,004347  	0,000001  	-0,000000  	22,294859  	18,894330  	20,178207  	22,817434  	30,084857  	28,176748  	29,771143  	31,487617  	38,851286  	37,141054  	40,688553  	59,381107  	22,345090  	21,138034  	22,100695  	63,629471  	0,063327  	0,032088  	-3085,173080  	-16230,685000  	-0,015672  	-0,049988  	0,300770  	0,152402  	-3,323128  	9284,038103  	7158,934706  	1,038316  	-0,047941  
16,542000  	15,319312  	38,301534  	1256,818530  	956,927186  	69,778743  	64,565162  	0,004291  	0,008318  	0,003964  	0,004078  	0,004362  	0,000000  	-0,000000  	22,310311  	18,904966  	20,181925  	22,823103  	30,085071  	28,180913  	29,775282  	31,486675  	38,862008  	37,144568  	40,699628  	59,390752  	22,360312  	21,147181  	22,112850  	63,640033  	0,070155  	0,035548  	-3418,123260  	-4420,154815  	-0,012269  	-0,049994  	0,312983  	0,158591  	-3,461820  	9288,204961  	7190,526038  	1,042898  	-0,047946  
17,545000  	15,309231  	38,306162  	57,725912  	57,696365  	69,778369  	64,557294  	0,004290  	0,008342  	0,003966  	0,004048  	0,004330  	0,000001  	-0,000000  	22,305047  	18,904167  	20,184872  	22,825933  	30,095925  	28,182825  	29,774959  	31,492260  	38,857583  	37,143009  	40,703404  	59,394886  	22,368065  	21,139916  	22,108976  	63,637005  	0,045301  	0,022954  	-2208,588194  	-1,524828  	-0,051173  	-0,049993  	0,287658  	0,145759  	-3,186285  	9338,419488  	7170,543144  	1,039999  	-0,047945  
18,543000  	15,295137  	38,305977  	657,272221  	1256,670793  	69,778058  	64,561523  	0,004288  	0,008323  	0,003965  	0,004049  	0,004325  	0,000000  	-0,000000  	22,290004  	18,891232  	20,173250  	22,816260  	30,094764  	28,181771  	29,768397  	31,486626  	38,851550  	37,136164  	40,687331  	59,385836  	22,364665  	21,128143  	22,096399  	63,632274  	0,046705  	0,023666  	-2278,437786  	9721,523197  	-0,013764  	-0,049994  	0,283778  	0,143792  	-3,140567  	9298,013702  	7126,757304  	1,033649  	-0,047946  
19,546000  	15,277305  	38,301349  	-242,047242  	1256,670793  	69,778027  	64,558818  	0,004290  	0,008300  	0,003964  	0,004062  	0,004347  	-0,000001  	-0,000000  	22,294726  	18,894123  	20,173299  	22,820941  	30,090709  	28,182347  	29,775254  	31,481577  	38,853712  	37,140701  	40,692840  	59,381902  	22,369547  	21,122217  	22,101356  	63,632901  	0,056616  	0,028688  	-2763,540402  	35515,320556  	-0,021700  	-0,050010  	0,301144  	0,152592  	-3,334472  	9248,730174  	7182,892996  	1,041791  	-0,047960  
20,542000  	15,266766  	38,300177  	957,045375  	1256,670793  	69,777528  	64,570883  	0,004289  	0,008341  	0,003966  	0,004042  	0,004326  	-0,000000  	-0,000000  	22,296560  	18,895405  	20,178219  	22,816808  	30,081701  	28,173463  	29,765943  	31,478688  	38,855870  	37,139086  	40,684596  	59,378610  	22,364436  	21,120489  	22,093580  	63,627246  	0,040537  	0,020540  	-1979,475206  	4416,795160  	-0,012271  	-0,050000  	0,284266  	0,144040  	-3,140008  	9336,777506  	7159,188906  	1,038353  	-0,047952  
21,544000  	15,258462  	38,306840  	957,045375  	1256,670793  	69,777310  	64,565193  	0,004291  	0,008326  	0,003965  	0,004045  	0,004355  	0,000000  	-0,000000  	22,303893  	18,897880  	20,175679  	22,823713  	30,090359  	28,174851  	29,765831  	31,481090  	38,854776  	37,134269  	40,686904  	59,380880  	22,362816  	21,112006  	22,094078  	63,625424  	0,043201  	0,021890  	-2110,945798  	4416,647996  	-0,012270  	-0,049999  	0,307661  	0,155894  	-3,402001  	9305,190743  	7187,553318  	1,042466  	-0,047950  
22,542000  	15,258156  	38,302892  	357,499067  	1256,670793  	69,781359  	64,567867  	0,004289  	0,008320  	0,003965  	0,004049  	0,004351  	-0,000000  	-0,000000  	22,294956  	18,892665  	20,187129  	22,821861  	30,092266  	28,179503  	29,774702  	31,487800  	38,849564  	37,141308  	40,687562  	59,385733  	22,379096  	21,110232  	22,095598  	63,625356  	0,046158  	0,023389  	-2255,078052  	16231,643916  	-0,015676  	-0,050002  	0,303944  	0,154011  	-3,361789  	9291,209485  	7143,470912  	1,036073  	-0,047953  
23,547000  	15,266612  	38,300671  	1256,818530  	1256,670793  	69,786685  	64,559316  	0,004289  	0,008304  	0,003965  	0,004119  	0,004303  	0,000000  	-0,000000  	22,307923  	18,902970  	20,174508  	22,816563  	30,083340  	28,191296  	29,781379  	31,489917  	38,867295  	37,150447  	40,692112  	59,379585  	22,378175  	21,105339  	22,103974  	63,628901  	0,102944  	0,052163  	-5027,056762  	-1,993344  	-0,011067  	-0,049994  	0,266326  	0,134950  	-2,953557  	9258,236835  	7161,942732  	1,038752  	-0,047946  
24,545000  	15,275007  	38,297339  	57,725912  	57,696365  	69,785128  	64,559378  	0,004289  	0,008314  	0,003966  	0,004051  	0,004355  	-0,000000  	-0,000000  	22,301277  	18,902835  	20,174724  	22,831755  	30,097070  	28,172213  	29,786866  	31,485014  	38,845831  	37,141100  	40,695012  	59,378012  	22,374095  	21,089015  	22,088090  	63,625825  	0,047798  	0,024220  	-2332,940935  	-1,525071  	-0,051181  	-0,050002  	0,307125  	0,155623  	-3,404961  	9278,653731  	7161,187195  	1,038642  	-0,047953  
25,545000  	15,280706  	38,298264  	1256,818530  	57,696365  	69,779023  	64,561275  	0,004288  	0,008329  	0,003967  	0,004077  	0,004372  	-0,000000  	-0,000000  	22,317928  	18,909999  	20,190221  	22,830123  	30,096074  	28,187182  	29,782084  	31,492437  	38,861201  	37,150555  	40,708103  	59,394327  	22,397481  	21,093317  	22,109104  	63,649385  	0,069237  	0,035083  	-3378,640031  	-24494,297836  	-0,018201  	-0,050002  	0,321067  	0,162687  	-3,554076  	9310,390472  	7139,241317  	1,035459  	-0,047953  
26,543000  	15,281993  	38,298079  	1256,818530  	657,183579  	69,776656  	64,564198  	0,004290  	0,008316  	0,003964  	0,004075  	0,004304  	0,000001  	-0,000000  	22,316552  	18,905057  	20,181637  	22,824664  	30,090432  	28,183165  	29,781159  	31,481300  	38,866097  	37,148890  	40,699307  	59,382622  	22,380100  	21,072140  	22,090831  	63,629092  	0,067085  	0,033992  	-3273,391736  	-9725,116545  	-0,013764  	-0,049994  	0,266902  	0,135241  	-2,951499  	9283,894492  	7170,564327  	1,040002  	-0,047946  
27,543000  	15,275651  	38,302336  	357,499067  	-242,047242  	69,778027  	64,568551  	0,004292  	0,008322  	0,003967  	0,004034  	0,004347  	0,000001  	-0,000000  	22,308157  	18,899189  	20,190056  	22,831678  	30,097857  	28,174585  	29,775578  	31,496510  	38,857068  	37,148969  	40,697068  	59,386697  	22,390770  	21,072174  	22,098266  	63,629349  	0,034003  	0,017230  	-1659,945307  	-30938,872229  	-0,051170  	-0,049992  	0,301315  	0,152679  	-3,330149  	9296,441756  	7216,397884  	1,046650  	-0,047945  
28,544000  	15,269768  	38,308815  	-242,047242  	-242,047242  	69,779210  	64,561523  	0,004290  	0,008306  	0,003967  	0,004085  	0,004355  	0,000000  	-0,000000  	22,308046  	18,896183  	20,171621  	22,820829  	30,095015  	28,176903  	29,776348  	31,481347  	38,866052  	37,141986  	40,688120  	59,370101  	22,375899  	21,053509  	22,099376  	63,630210  	0,075418  	0,038215  	-3683,673751  	-0,000000  	-0,544373  	-0,049994  	0,307631  	0,155879  	-3,405301  	9262,383177  	7165,522706  	1,039271  	-0,047946  
29,542000  	15,270044  	38,307180  	-242,047242  	1256,670793  	69,783477  	64,559564  	0,004291  	0,008310  	0,003964  	0,004058  	0,004363  	-0,000001  	-0,000000  	22,307456  	18,898671  	20,192717  	22,830709  	30,104103  	28,176205  	29,787840  	31,508258  	38,855029  	37,152310  	40,692034  	59,378393  	22,395379  	21,060929  	22,107825  	63,630967  	0,053685  	0,027203  	-2621,967731  	35513,547145  	-0,021699  	-0,050007  	0,313977  	0,159095  	-3,479703  	9270,314356  	7189,036147  	1,042682  	-0,047958  
30,543000  	15,267531  	38,303910  	357,499067  	657,183579  	69,787215  	64,560124  	0,004291  	0,008320  	0,003966  	0,004059  	0,004332  	0,000000  	-0,000000  	22,302521  	18,893796  	20,169495  	22,811423  	30,079804  	28,176136  	29,770247  	31,488816  	38,857395  	37,142948  	40,677551  	59,371616  	22,379374  	21,063423  	22,085507  	63,622497  	0,054445  	0,027588  	-2658,991129  	7099,401881  	-0,021693  	-0,049994  	0,288851  	0,146363  	-3,203187  	9292,345643  	7195,927774  	1,043681  	-0,047946  
31,544000  	15,267072  	38,301041  	1256,818530  	657,183579  	69,786747  	64,554247  	0,004289  	0,008326  	0,003966  	0,004089  	0,004366  	0,000000  	-0,000000  	22,302030  	18,900873  	20,181566  	22,827626  	30,094053  	28,178049  	29,781773  	31,489428  	38,854533  	37,156036  	40,698603  	59,385456  	22,389160  	21,067914  	22,091854  	63,631096  	0,078766  	0,039911  	-3846,371512  	-9725,877224  	-0,013765  	-0,049998  	0,316291  	0,160267  	-3,511108  	9304,601440  	7155,425343  	1,037807  	-0,047950  
32,542000  	15,273812  	38,296845  	57,725912  	1256,670793  	69,784069  	64,558663  	0,004290  	0,008299  	0,003965  	0,004048  	0,004340  	0,000000  	-0,000000  	22,311404  	18,902816  	20,187056  	22,826558  	30,100669  	28,186783  	29,778113  	31,491340  	38,866414  	37,154179  	40,696405  	59,385369  	22,400315  	21,062750  	22,092504  	63,627889  	0,045299  	0,022953  	-2211,000112  	24489,728608  	-0,018200  	-0,049997  	0,295925  	0,149947  	-3,280572  	9246,868883  	7170,924443  	1,040055  	-0,047949  
33,547000  	15,281809  	38,298326  	1256,818530  	956,927186  	69,788523  	64,562612  	0,004289  	0,008335  	0,003966  	0,004040  	0,004340  	-0,000000  	-0,000000  	22,311902  	18,902147  	20,184891  	22,822244  	30,090856  	28,181281  	29,783779  	31,490445  	38,860561  	37,151136  	40,695793  	59,377131  	22,388290  	21,046656  	22,086415  	63,627644  	0,039199  	0,019862  	-1912,720654  	-4420,943077  	-0,012271  	-0,050004  	0,295671  	0,149819  	-3,278074  	9325,112426  	7156,223247  	1,037922  	-0,047955  
34,543000  	15,270044  	38,294871  	1256,818530  	-242,047242  	69,789706  	64,563234  	0,004290  	0,008318  	0,003965  	0,004088  	0,004349  	0,000000  	-0,000000  	22,314393  	18,903142  	20,201785  	22,827840  	30,103466  	28,188891  	29,776553  	31,499571  	38,870282  	37,158682  	40,698510  	59,387950  	22,395880  	21,039311  	22,093674  	63,638715  	0,077894  	0,039469  	-3802,254727  	-35508,811474  	-0,021694  	-0,049999  	0,302754  	0,153408  	-3,356960  	9287,284574  	7168,657832  	1,039726  	-0,047950  
35,548000  	15,264069  	38,290336  	1256,818530  	657,183579  	69,786561  	64,561990  	0,004290  	0,008321  	0,003965  	0,004082  	0,004355  	0,000000  	-0,000000  	22,312458  	18,906637  	20,192828  	22,820698  	30,093636  	28,189046  	29,781144  	31,493954  	38,865449  	37,156150  	40,696384  	59,391132  	22,386311  	21,028369  	22,090328  	63,633481  	0,072943  	0,036961  	-3560,822479  	-9725,278225  	-0,013764  	-0,049995  	0,307463  	0,155794  	-3,407940  	9294,743178  	7180,096803  	1,041385  	-0,047947  
36,544000  	15,269278  	38,285215  	57,725912  	57,696365  	69,786561  	64,567276  	0,004288  	0,008306  	0,003964  	0,004069  	0,004367  	-0,000000  	-0,000000  	22,308410  	18,905620  	20,189718  	22,829501  	30,102160  	28,183106  	29,784251  	31,487721  	38,858311  	37,149877  	40,694648  	59,388340  	22,396161  	21,017787  	22,093150  	63,630048  	0,062347  	0,031592  	-3042,182148  	-1,525118  	-0,051183  	-0,050003  	0,316548  	0,160397  	-3,505087  	9262,168113  	7127,195092  	1,033712  	-0,047954  
37,541000  	15,285639  	38,277843  	57,725912  	1256,670793  	69,784848  	64,569857  	0,004292  	0,008306  	0,003965  	0,004055  	0,004345  	0,000001  	-0,000000  	22,312392  	18,905384  	20,189306  	22,827371  	30,098308  	28,183259  	29,778314  	31,489487  	38,857059  	37,148596  	40,694405  	59,384516  	22,395414  	21,007151  	22,093152  	63,636049  	0,051128  	0,025907  	-2492,164428  	24484,945414  	-0,018197  	-0,049986  	0,299347  	0,151681  	-3,311900  	9260,496418  	7211,469241  	1,045935  	-0,047939  
38,543000  	15,291583  	38,277966  	1256,818530  	657,183579  	69,785097  	64,566001  	0,004291  	0,008330  	0,003967  	0,004062  	0,004373  	-0,000000  	-0,000000  	22,315513  	18,907976  	20,185444  	22,827918  	30,098319  	28,181984  	29,783158  	31,492762  	38,862280  	37,150230  	40,700420  	59,377848  	22,394097  	20,999387  	22,097051  	63,635363  	0,056816  	0,028789  	-2768,751682  	-9727,277502  	-0,013767  	-0,050006  	0,321359  	0,162835  	-3,558228  	9312,798619  	7194,148379  	1,043423  	-0,047957  
39,543000  	15,292686  	38,283149  	1256,818530  	-242,047242  	69,792416  	64,566561  	0,004289  	0,008315  	0,003966  	0,004081  	0,004372  	-0,000000  	-0,000000  	22,321824  	18,912042  	20,192949  	22,837014  	30,100789  	28,188132  	29,787662  	31,497448  	38,870194  	37,155284  	40,708484  	59,383037  	22,401327  	20,997820  	22,101647  	63,638723  	0,072663  	0,036819  	-3541,625658  	-35513,486912  	-0,021697  	-0,050006  	0,320782  	0,162543  	-3,556444  	9280,524218  	7164,004571  	1,039051  	-0,047957  
40,544000  	15,293360  	38,285123  	57,725912  	-242,047242  	69,791855  	64,564820  	0,004292  	0,008313  	0,003965  	0,004045  	0,004377  	0,000000  	-0,000000  	22,321729  	18,909053  	20,190452  	22,834190  	30,094678  	28,194661  	29,786576  	31,497618  	38,868942  	37,156219  	40,707905  	59,389147  	22,397519  	20,981231  	22,093399  	63,640735  	0,043315  	0,021948  	-2111,307811  	-27697,147504  	-0,093551  	-0,049995  	0,324950  	0,164655  	-3,603467  	9277,303216  	7208,715414  	1,045536  	-0,047947  
41,545000  	15,289561  	38,286419  	957,045375  	1256,670793  	69,788398  	64,567463  	0,004289  	0,008298  	0,003966  	0,004082  	0,004358  	-0,000000  	-0,000000  	22,315987  	18,903238  	20,186581  	22,829274  	30,094294  	28,191093  	29,789139  	31,499288  	38,867004  	37,157014  	40,705339  	59,390205  	22,397379  	20,964850  	22,090779  	63,637013  	0,072729  	0,036852  	-3545,824361  	4416,991164  	-0,012271  	-0,050003  	0,310150  	0,157155  	-3,435332  	9244,323492  	7160,255131  	1,038507  	-0,047954  
42,543000  	15,287723  	38,287159  	357,499067  	1256,670793  	69,783789  	64,564788  	0,004289  	0,008312  	0,003967  	0,004046  	0,004372  	-0,000002  	-0,000000  	22,319336  	18,909195  	20,195040  	22,832814  	30,093844  	28,191223  	29,794119  	31,501443  	38,872532  	37,159121  	40,709143  	59,392561  	22,401248  	20,965815  	22,096998  	63,642377  	0,044265  	0,022429  	-2158,325414  	16237,275470  	-0,015682  	-0,050021  	0,321088  	0,162698  	-3,555160  	9273,995905  	7146,485999  	1,036510  	-0,047970  
43,546000  	15,295076  	38,286048  	357,499067  	1256,670793  	69,779086  	64,567680  	0,004291  	0,008324  	0,003965  	0,004041  	0,004356  	-0,000000  	-0,000000  	22,315311  	18,911669  	20,191088  	22,833087  	30,089515  	28,188103  	29,790066  	31,487958  	38,866571  	37,152850  	40,705438  	59,383568  	22,384218  	20,953431  	22,089317  	63,644265  	0,039713  	0,020123  	-1935,691171  	16231,936310  	-0,015676  	-0,050003  	0,308196  	0,156165  	-3,407450  	9299,561594  	7198,187324  	1,044009  	-0,047954  
44,546000  	15,297159  	38,286542  	-242,047242  	1256,670793  	69,775410  	64,569546  	0,004292  	0,008319  	0,003967  	0,004047  	0,004356  	0,000001  	-0,000000  	22,307345  	18,903457  	20,190164  	22,829577  	30,089701  	28,177898  	29,776277  	31,480808  	38,859980  	37,152743  	40,697541  	59,375337  	22,370490  	20,940649  	22,083355  	63,638917  	0,044862  	0,022732  	-2186,462245  	35500,358378  	-0,021691  	-0,049986  	0,307942  	0,156036  	-3,401025  	9289,152939  	7210,367710  	1,045775  	-0,047940  
45,547000  	15,290664  	38,282809  	957,045375  	956,927186  	69,777123  	64,566592  	0,004289  	0,008313  	0,003965  	0,004088  	0,004334  	-0,000001  	-0,000000  	22,316121  	18,909133  	20,193845  	22,828840  	30,092660  	28,181982  	29,783193  	31,492677  	38,872496  	37,155673  	40,707463  	59,380026  	22,377899  	20,944872  	22,091543  	63,643831  	0,078243  	0,039646  	-3813,878425  	-1,917688  	-0,013770  	-0,050018  	0,291075  	0,147490  	-3,217627  	9276,351701  	7149,112726  	1,036891  	-0,047967  
46,543000  	15,288090  	38,279601  	357,499067  	357,439972  	69,778120  	64,560684  	0,004291  	0,008320  	0,003963  	0,003994  	0,004331  	-0,000000  	-0,000000  	22,310186  	18,907243  	20,191432  	22,829815  	30,100240  	28,176851  	29,791791  	31,492819  	38,863020  	37,146401  	40,707210  	59,379831  	22,379029  	20,931059  	22,092784  	63,641000  	0,001679  	0,000851  	-81,853207  	-1,685338  	-0,026853  	-0,050003  	0,288112  	0,145988  	-3,189083  	9290,973198  	7200,185614  	1,044299  	-0,047954  
47,545000  	15,289285  	38,282748  	1256,818530  	357,439972  	69,779210  	64,557201  	0,004293  	0,008318  	0,003967  	0,004066  	0,004334  	-0,000001  	-0,000000  	22,300576  	18,908003  	20,185602  	22,828528  	30,098355  	28,180337  	29,785132  	31,487287  	38,857471  	37,148096  	40,698570  	59,380772  	22,375189  	20,920371  	22,092949  	63,637645  	0,059969  	0,030387  	-2923,293793  	-16238,935455  	-0,015680  	-0,050016  	0,291178  	0,147542  	-3,225845  	9287,421111  	7229,136096  	1,048498  	-0,047965  
48,544000  	15,286773  	38,285586  	57,725912  	-242,047242  	69,776345  	64,550795  	0,004290  	0,008311  	0,003966  	0,004028  	0,004333  	-0,000001  	-0,000000  	22,308735  	18,902606  	20,180092  	22,822920  	30,086541  	28,176199  	29,777841  	31,481945  	38,849942  	37,139388  	40,698073  	59,371372  	22,367692  	20,911865  	22,088448  	63,632385  	0,029701  	0,015050  	-1448,183662  	-27703,070575  	-0,093571  	-0,050007  	0,289681  	0,146783  	-3,211431  	9272,305109  	7178,246797  	1,041117  	-0,047957  
49,545000  	15,282483  	38,286542  	57,725912  	-242,047242  	69,777341  	64,559067  	0,004289  	0,008317  	0,003964  	0,004037  	0,004362  	0,000001  	-0,000000  	22,300905  	18,898511  	20,190292  	22,828354  	30,094391  	28,170150  	29,779517  	31,499825  	38,862045  	37,140837  	40,697584  	59,374849  	22,373354  	20,903588  	22,090114  	63,637605  	0,036488  	0,018489  	-1779,485892  	-27696,666762  	-0,093549  	-0,049994  	0,313003  	0,158601  	-3,465164  	9284,962028  	7143,174346  	1,036030  	-0,047946  
50,543000  	15,276846  	38,284938  	1256,818530  	-242,047242  	69,784256  	64,557823  	0,004289  	0,008310  	0,003966  	0,004086  	0,004325  	-0,000002  	-0,000000  	22,312649  	18,916892  	20,205715  	22,835293  	30,105268  	28,197707  	29,794926  	31,498161  	38,868662  	37,163263  	40,713524  	59,381971  	22,382630  	20,905690  	22,111233  	63,649808  	0,076403  	0,038714  	-3726,748324  	-35521,873056  	-0,021702  	-0,050019  	0,283652  	0,143729  	-3,145137  	9270,218143  	7161,448456  	1,038680  	-0,047968  
51,546000  	15,269217  	38,285030  	1256,818530  	-242,047242  	69,786841  	64,553532  	0,004277  	0,008304  	0,003966  	0,004077  	0,004329  	-0,000001  	-0,000000  	22,309967  	18,903359  	20,189083  	22,826677  	30,098115  	28,182677  	29,786550  	31,491183  	38,853316  	37,146999  	40,705860  	59,371349  	22,365698  	20,883514  	22,092429  	63,629501  	0,069407  	0,035169  	-3386,659095  	-35516,001455  	-0,021698  	-0,050010  	0,286732  	0,145289  	-3,183465  	9256,500762  	6892,216029  	0,999631  	-0,047960  
52,542000  	15,266337  	38,283365  	1256,818530  	956,927186  	69,787962  	64,553470  	0,004281  	0,008316  	0,003965  	0,004071  	0,004333  	0,000000  	-0,000000  	22,306602  	18,900876  	20,191184  	22,826332  	30,090941  	28,192356  	29,782988  	31,493042  	38,859315  	37,146659  	40,699138  	59,380659  	22,369294  	20,889559  	22,097135  	63,633633  	0,063833  	0,032345  	-3114,836252  	-4420,198194  	-0,012269  	-0,049994  	0,289637  	0,146761  	-3,216447  	9283,237982  	6972,458293  	1,011270  	-0,047947  
53,543000  	15,278807  	38,284784  	-242,047242  	1256,670793  	69,783664  	64,552786  	0,004288  	0,008297  	0,003964  	0,004049  	0,004383  	-0,000001  	-0,000000  	22,303906  	18,894925  	20,196140  	22,831046  	30,095393  	28,174956  	29,781459  	31,491986  	38,848476  	37,149030  	40,705650  	59,377886  	22,369211  	20,873734  	22,092890  	63,630863  	0,046369  	0,023496  	-2261,568668  	35519,850294  	-0,021703  	-0,050017  	0,329828  	0,167126  	-3,660237  	9241,226293  	7131,205793  	1,034294  	-0,047966  
54,543000  	15,294555  	38,288979  	357,499067  	1256,670793  	69,776874  	64,565783  	0,004290  	0,008291  	0,003964  	0,004034  	0,004325  	-0,000001  	-0,000000  	22,310088  	18,905132  	20,185154  	22,829847  	30,092439  	28,180001  	29,778340  	31,491237  	38,858880  	37,157479  	40,704133  	59,367766  	22,367447  	20,870412  	22,092235  	63,633456  	0,033788  	0,017121  	-1647,112466  	16234,052006  	-0,015679  	-0,050010  	0,283842  	0,143825  	-3,138004  	9228,678320  	7169,074436  	1,039786  	-0,047960  
55,544000  	15,299519  	38,283519  	357,499067  	1256,670793  	69,777155  	64,572531  	0,004291  	0,008305  	0,003966  	0,004079  	0,004338  	0,000001  	-0,000000  	22,326350  	18,909235  	20,192016  	22,831997  	30,099148  	28,189571  	29,794738  	31,505832  	38,868812  	37,167345  	40,716356  	59,377000  	22,381570  	20,877034  	22,097685  	63,643204  	0,070609  	0,035778  	-3440,519228  	16229,082498  	-0,015674  	-0,049993  	0,294110  	0,149027  	-3,247484  	9258,353564  	7202,720546  	1,044666  	-0,047946  
56,544000  	15,293452  	38,280249  	957,045375  	1256,670793  	69,780020  	64,566188  	0,004289  	0,008319  	0,003965  	0,004036  	0,004388  	-0,000001  	-0,000000  	22,304893  	18,904801  	20,194536  	22,824916  	30,096558  	28,180409  	29,773686  	31,495451  	38,857865  	37,151966  	40,693008  	59,370914  	22,369977  	20,853980  	22,092860  	63,636536  	0,035420  	0,017948  	-1726,113733  	4418,039101  	-0,012274  	-0,050016  	0,333486  	0,168980  	-3,688776  	9288,772333  	7153,674192  	1,037553  	-0,047965  
57,547000  	15,297650  	38,291354  	1256,818530  	956,927186  	69,779054  	64,566468  	0,004292  	0,008298  	0,003964  	0,004050  	0,004322  	-0,000000  	-0,000000  	22,317886  	18,910569  	20,192167  	22,831205  	30,096992  	28,194684  	29,786617  	31,492611  	38,870126  	37,162878  	40,710635  	59,384066  	22,381190  	20,860235  	22,097721  	63,640360  	0,047102  	0,023867  	-2296,102368  	-4420,986780  	-0,012271  	-0,050004  	0,281306  	0,142540  	-3,110858  	9245,314624  	7211,024392  	1,045871  	-0,047955  
58,545000  	15,300530  	38,304311  	1256,818530  	357,439972  	69,778182  	64,562425  	0,004287  	0,008314  	0,003967  	0,004059  	0,004362  	0,000001  	-0,000000  	22,310717  	18,912098  	20,193953  	22,830250  	30,101444  	28,178465  	29,780967  	31,495186  	38,864633  	37,149568  	40,705259  	59,380193  	22,381345  	20,842869  	22,087034  	63,635633  	0,054666  	0,027700  	-2665,972789  	-16230,759896  	-0,015672  	-0,049988  	0,312987  	0,158593  	-3,463315  	9279,075369  	7119,329034  	1,032571  	-0,047941  
59,547000  	15,300622  	38,330316  	1256,818530  	1256,670793  	69,777341  	64,560466  	0,004290  	0,008294  	0,003965  	0,004084  	0,004385  	-0,000000  	-0,000000  	22,312847  	18,906304  	20,197676  	22,829297  	30,095869  	28,188117  	29,779436  	31,499008  	38,869850  	37,150624  	40,707643  	59,380662  	22,381707  	20,848872  	22,085917  	63,640584  	0,075003  	0,038004  	-3661,891525  	-1,993682  	-0,011069  	-0,050003  	0,330820  	0,167629  	-3,661421  	9235,623319  	7182,878874  	1,041789  	-0,047954  
60,544000  	15,303195  	38,357155  	1256,818530  	57,696365  	69,782076  	64,560217  	0,004291  	0,008312  	0,003965  	0,004084  	0,004350  	0,000001  	-0,000001  	22,305353  	18,908138  	20,189256  	22,830602  	30,097165  	28,181768  	29,782464  	31,496122  	38,857146  	37,145892  	40,704460  	59,369275  	22,379247  	20,839686  	22,086564  	63,639920  	0,074974  	0,037990  	-3664,333398  	-24489,112412  	-0,018197  	-0,049990  	0,303845  	0,153960  	-3,366081  	9273,906767  	7191,966501  	1,043107  	-0,047943  
61,544000  	15,304084  	38,359129  	1256,818530  	956,927186  	69,785969  	64,555242  	0,004291  	0,008308  	0,003966  	0,004147  	0,004308  	0,000000  	-0,000000  	22,296958  	18,894404  	20,179860  	22,826220  	30,094208  	28,177649  	29,772602  	31,487070  	38,852801  	37,146010  	40,692927  	59,361404  	22,366879  	20,829931  	22,085515  	63,631282  	0,125521  	0,063603  	-6135,131500  	-4420,590221  	-0,012270  	-0,049999  	0,270525  	0,137077  	-3,002048  	9266,211168  	7190,293022  	1,042864  	-0,047951  
62,544000  	15,305187  	38,349011  	1256,818530  	357,439972  	69,788211  	64,552008  	0,004288  	0,008300  	0,003966  	0,004070  	0,004369  	-0,000000  	-0,000000  	22,307864  	18,895472  	20,187391  	22,826116  	30,091607  	28,190557  	29,784829  	31,490855  	38,860932  	37,155540  	40,704190  	59,372384  	22,363759  	20,843476  	22,089573  	63,628975  	0,063648  	0,032251  	-3109,402260  	-16235,354709  	-0,015676  	-0,050004  	0,318129  	0,161198  	-3,534004  	9248,247695  	7126,474860  	1,033608  	-0,047955  
63,543000  	15,307761  	38,337257  	1256,818530  	1256,670793  	69,791451  	64,554838  	0,004290  	0,008294  	0,003966  	0,004064  	0,004376  	0,000000  	-0,000000  	22,312021  	18,902368  	20,196805  	22,832541  	30,095731  	28,191766  	29,791355  	31,504107  	38,861744  	37,160403  	40,713308  	59,372337  	22,366457  	20,854818  	22,094576  	63,637294  	0,058367  	0,029575  	-2849,639649  	-1,993353  	-0,011067  	-0,049994  	0,324210  	0,164280  	-3,601843  	9236,124898  	7166,730153  	1,039446  	-0,047946  
64,545000  	15,314991  	38,327817  	1256,818530  	57,696365  	69,794752  	64,557325  	0,004291  	0,008327  	0,003965  	0,004110  	0,004320  	0,000000  	-0,000000  	22,321574  	18,907089  	20,199097  	22,830538  	30,098424  	28,193890  	29,790684  	31,511069  	38,871464  	37,166508  	40,715338  	59,377414  	22,365988  	20,861608  	22,103948  	63,648746  	0,095613  	0,048448  	-4664,753681  	-24491,022643  	-0,018198  	-0,049995  	0,280071  	0,141914  	-3,111957  	9306,020577  	7196,457356  	1,043758  	-0,047947  
65,547000  	15,322559  	38,319612  	-242,047242  	1256,670793  	69,794627  	64,562021  	0,004289  	0,008306  	0,003967  	0,004006  	0,004429  	0,000000  	-0,000000  	22,324291  	18,913570  	20,199719  	22,837085  	30,103476  	28,193677  	29,796027  	31,510227  	38,874608  	37,171937  	40,715492  	59,387175  	22,370112  	20,867923  	22,112051  	63,655129  	0,011135  	0,005642  	-542,892295  	35506,614721  	-0,021695  	-0,049996  	0,365796  	0,185352  	-4,060744  	9262,455336  	7155,022861  	1,037748  	-0,047948  
66,544000  	15,325623  	38,313380  	357,499067  	1256,670793  	69,800545  	64,561648  	0,004289  	0,008328  	0,003967  	0,004054  	0,004371  	-0,000000  	-0,000000  	22,312271  	18,910308  	20,191307  	22,841782  	30,100098  	28,189007  	29,791475  	31,500141  	38,867651  	37,165954  	40,711771  	59,384254  	22,361555  	20,864133  	22,100495  	63,643498  	0,050584  	0,025631  	-2465,193270  	16232,544870  	-0,015677  	-0,050005  	0,320054  	0,162174  	-3,557222  	9309,124851  	7150,122462  	1,037038  	-0,047956  
67,544000  	15,336010  	38,306439  	1256,818530  	1256,670793  	69,799019  	64,565815  	0,004290  	0,008297  	0,003964  	0,004089  	0,004320  	-0,000000  	-0,000000  	22,311501  	18,910203  	20,189953  	22,836382  	30,096865  	28,190145  	29,793841  	31,495528  	38,868816  	37,164503  	40,716155  	59,379101  	22,352096  	20,862338  	22,092764  	63,637402  	0,078466  	0,039759  	-3821,124600  	-1,993673  	-0,011069  	-0,050003  	0,279837  	0,141795  	-3,106850  	9242,364573  	7171,164520  	1,040089  	-0,047954  
68,541000  	15,343425  	38,298542  	1256,818530  	57,696365  	69,792914  	64,563576  	0,004289  	0,008316  	0,003967  	0,004043  	0,004363  	0,000001  	-0,000000  	22,316775  	18,912377  	20,198547  	22,835527  	30,105124  	28,193735  	29,800347  	31,500328  	38,870560  	37,168822  	40,720176  	59,381276  	22,360311  	20,868433  	22,101794  	63,644918  	0,041496  	0,021026  	-2019,391312  	-24487,435355  	-0,018195  	-0,049986  	0,313898  	0,159054  	-3,482438  	9283,027163  	7162,811247  	1,038878  	-0,047940  
69,545000  	15,342444  	38,291478  	1256,818530  	1256,670793  	69,792260  	64,566126  	0,004290  	0,008289  	0,003966  	0,004079  	0,004326  	-0,000000  	-0,000000  	22,314353  	18,899819  	20,193205  	22,833664  	30,098866  	28,197038  	29,789014  	31,498480  	38,868751  	37,164137  	40,714067  	59,379849  	22,356455  	20,873018  	22,099852  	63,643816  	0,070496  	0,035721  	-3429,787854  	-1,993611  	-0,011069  	-0,050001  	0,284193  	0,144003  	-3,150960  	9224,014835  	7170,493716  	1,039992  	-0,047953  
70,543000  	15,341525  	38,292773  	1256,818530  	1256,670793  	69,790080  	64,569670  	0,004291  	0,008319  	0,003967  	0,004078  	0,004338  	-0,000000  	-0,000000  	22,312032  	18,900162  	20,190602  	22,831659  	30,090851  	28,193037  	29,788986  	31,500013  	38,868598  	37,166173  	40,716128  	59,373623  	22,342866  	20,884229  	22,094549  	63,645561  	0,070204  	0,035573  	-3415,925289  	-1,993696  	-0,011069  	-0,050004  	0,294141  	0,149043  	-3,257678  	9290,020268  	7203,843260  	1,044829  	-0,047955  
71,545000  	15,346489  	38,291848  	1256,818530  	1256,670793  	69,790485  	64,566623  	0,004288  	0,008309  	0,003968  	0,004015  	0,004371  	-0,000000  	-0,000000  	22,308453  	18,906276  	20,191552  	22,827042  	30,101002  	28,187694  	29,786756  	31,499192  	38,866662  	37,168457  	40,713159  	59,375737  	22,334963  	20,896920  	22,094729  	63,638151  	0,019159  	0,009708  	-931,980727  	-1,993568  	-0,011068  	-0,050000  	0,320290  	0,162293  	-3,549629  	9268,968086  	7139,650861  	1,035519  	-0,047952  
72,543000  	15,352310  	38,289565  	57,725912  	57,696365  	69,791482  	64,580492  	0,004288  	0,008291  	0,003966  	0,004042  	0,004339  	-0,000000  	-0,000000  	22,319659  	18,906272  	20,189669  	22,828768  	30,099687  	28,196024  	29,789342  	31,492597  	38,865303  	37,163320  	40,708602  	59,372584  	22,328054  	20,909947  	22,097087  	63,636347  	0,040655  	0,020600  	-1976,941642  	-1,525159  	-0,051184  	-0,050005  	0,295088  	0,149523  	-3,262280  	9228,481650  	7137,122989  	1,035152  	-0,047955  
73,545000  	15,355068  	38,289442  	1256,818530  	-242,047242  	69,785813  	64,568116  	0,004291  	0,008319  	0,003966  	0,004123  	0,004310  	-0,000000  	-0,000000  	22,322187  	18,911914  	20,194546  	22,834032  	30,109148  	28,191805  	29,790980  	31,502375  	38,867265  	37,167346  	40,709923  	59,377660  	22,332680  	20,911190  	22,088634  	63,638977  	0,106579  	0,054005  	-5182,002264  	-35512,472773  	-0,021696  	-0,050005  	0,272022  	0,137836  	-3,011146  	9289,031966  	7193,597614  	1,043343  	-0,047955  
74,544000  	15,354271  	38,288084  	1256,818530  	357,439972  	69,781515  	64,560901  	0,004289  	0,008307  	0,003966  	0,004064  	0,004392  	0,000000  	-0,000000  	22,313236  	18,900712  	20,201493  	22,832679  	30,093113  	28,189783  	29,791092  	31,502061  	38,869539  	37,161123  	40,706044  	59,378211  	22,320374  	20,897535  	22,089942  	63,637626  	0,058790  	0,029789  	-2858,349321  	-16232,683417  	-0,015673  	-0,049995  	0,336495  	0,170504  	-3,726898  	9263,021293  	7144,932558  	1,036285  	-0,047947  
75,553000  	15,351881  	38,289195  	357,499067  	1256,670793  	69,782356  	64,571972  	0,004290  	0,008307  	0,003965  	0,004077  	0,004319  	-0,000001  	-0,000000  	22,315997  	18,900864  	20,197955  	22,839882  	30,096136  	28,193577  	29,785209  	31,503126  	38,868111  	37,161279  	40,715487  	59,368598  	22,311472  	20,880261  	22,089947  	63,639702  	0,068828  	0,034876  	-3346,925863  	16235,868176  	-0,015680  	-0,050017  	0,278667  	0,141203  	-3,080381  	9262,608852  	7182,836507  	1,041782  	-0,047966  
76,545000  	15,354639  	38,295982  	-242,047242  	57,696365  	69,786779  	64,568738  	0,004290  	0,008299  	0,003963  	0,004109  	0,004325  	-0,000000  	-0,000000  	22,318240  	18,905396  	20,197674  	22,839398  	30,100669  	28,193877  	29,781210  	31,502738  	38,863317  	37,170854  	40,712724  	59,376035  	22,322867  	20,874169  	22,092575  	63,641873  	0,094728  	0,047999  	-4607,188784  	27701,151451  	-0,093574  	-0,050004  	0,283930  	0,143870  	-3,143168  	9246,876665  	7181,614938  	1,041605  	-0,047955  
77,548000  	15,349124  	38,297956  	957,045375  	57,696365  	69,789239  	64,561959  	0,004291  	0,008294  	0,003965  	0,004094  	0,004381  	0,000000  	-0,000000  	22,321404  	18,909200  	20,184831  	22,835506  	30,096738  	28,200022  	29,789559  	31,493127  	38,866823  	37,157727  	40,708031  	59,368374  	22,306571  	20,852296  	22,091825  	63,651986  	0,082975  	0,042044  	-4036,875501  	-21305,854301  	-0,021694  	-0,049997  	0,328388  	0,166397  	-3,641756  	9236,623648  	7196,535028  	1,043769  	-0,047949  
78,546000  	15,337971  	38,297092  	-242,047242  	657,183579  	69,790859  	64,559720  	0,004289  	0,008327  	0,003967  	0,004089  	0,004359  	-0,000002  	-0,000000  	22,316954  	18,909634  	20,201107  	22,841316  	30,111104  	28,186324  	29,788446  	31,502633  	38,857684  	37,157112  	40,703349  	59,375389  	22,316237  	20,835970  	22,086618  	63,629939  	0,078348  	0,039699  	-3813,475214  	32756,684237  	-0,035239  	-0,050022  	0,310900  	0,157535  	-3,450362  	9305,725572  	7157,621343  	1,038125  	-0,047971  
79,546000  	15,329882  	38,304866  	-242,047242  	657,183579  	69,795406  	64,564446  	0,004291  	0,008306  	0,003964  	0,004046  	0,004360  	-0,000000  	-0,000000  	22,312824  	18,905956  	20,181764  	22,831725  	30,086426  	28,192795  	29,783197  	31,499995  	38,856886  	37,165206  	40,703122  	59,375838  	22,309994  	20,808420  	22,086387  	63,643837  	0,043585  	0,022085  	-2122,931744  	32746,402459  	-0,035228  	-0,050005  	0,311530  	0,157855  	-3,457242  	9261,679975  	7199,274733  	1,044167  	-0,047955  
80,544000  	15,323999  	38,308074  	-242,047242  	1256,670793  	69,792541  	64,567307  	0,004290  	0,008308  	0,003965  	0,004058  	0,004411  	0,000001  	-0,000000  	22,321767  	18,921158  	20,201934  	22,852957  	30,109059  	28,189768  	29,803761  	31,510713  	38,871903  	37,166236  	40,721047  	59,383412  	22,322233  	20,799561  	22,105733  	63,642361  	0,053309  	0,027012  	-2597,555883  	35503,535956  	-0,021693  	-0,049991  	0,351758  	0,178238  	-3,899396  	9265,038930  	7167,542179  	1,039564  	-0,047944  
81,542000  	15,324857  	38,306748  	1256,818530  	57,696365  	69,791419  	64,564851  	0,004289  	0,008325  	0,003964  	0,004065  	0,004324  	0,000001  	-0,000000  	22,322915  	18,904649  	20,198255  	22,837639  	30,104890  	28,193164  	29,785953  	31,500993  	38,873324  	37,176935  	40,704090  	59,374917  	22,325157  	20,790533  	22,099804  	63,642990  	0,059162  	0,029978  	-2882,511815  	-24486,054250  	-0,018194  	-0,049983  	0,282517  	0,143153  	-3,132632  	9303,271441  	7159,930321  	1,038460  	-0,047937  
82,543000  	15,328963  	38,302552  	657,272221  	1256,670793  	69,796278  	64,566965  	0,004290  	0,008326  	0,003966  	0,004081  	0,004353  	-0,000001  	-0,000000  	22,320763  	18,912360  	20,195363  	22,834551  	30,099545  	28,192274  	29,792229  	31,505101  	38,862522  	37,161556  	40,717204  	59,368470  	22,317685  	20,772920  	22,100694  	63,643690  	0,072071  	0,036519  	-3510,156469  	9724,147555  	-0,013768  	-0,050009  	0,306081  	0,155093  	-3,395696  	9305,589742  	7179,447183  	1,041291  	-0,047959  
83,544000  	15,331445  	38,301719  	657,272221  	1256,670793  	69,799517  	64,571008  	0,004291  	0,008288  	0,003965  	0,004104  	0,004356  	-0,000000  	-0,000000  	22,315770  	18,911248  	20,197036  	22,842737  	30,097787  	28,185514  	29,779197  	31,508929  	38,862062  	37,152694  	40,701633  	59,374106  	22,309644  	20,747670  	22,091763  	63,642458  	0,090853  	0,046036  	-4424,300201  	9722,641717  	-0,013766  	-0,050000  	0,308567  	0,156353  	-3,422756  	9222,592869  	7200,990578  	1,044415  	-0,047952  
84,543000  	15,331200  	38,301041  	1256,818530  	1256,670793  	69,801137  	64,570386  	0,004291  	0,008297  	0,003966  	0,004040  	0,004310  	0,000001  	-0,000000  	22,320369  	18,907587  	20,189996  	22,840632  	30,095181  	28,193584  	29,785087  	31,499248  	38,859514  	37,154703  	40,700341  	59,370891  	22,297824  	20,730017  	22,099329  	63,635625  	0,039305  	0,019916  	-1914,019161  	-1,993279  	-0,011067  	-0,049992  	0,271449  	0,137545  	-3,012321  	9241,197287  	7199,204122  	1,044156  	-0,047945  
85,543000  	15,335642  	38,301596  	-242,047242  	57,696365  	69,801573  	64,568085  	0,004288  	0,008328  	0,003967  	0,004070  	0,004362  	-0,000000  	-0,000000  	22,315512  	18,910934  	20,208104  	22,855055  	30,097791  	28,200206  	29,786105  	31,504239  	38,860281  	37,159750  	40,705924  	59,381444  	22,300535  	20,714792  	22,098553  	63,635061  	0,063512  	0,032182  	-3092,287269  	27701,159565  	-0,093574  	-0,050004  	0,313030  	0,158615  	-3,475564  	9309,736792  	7126,171233  	1,033564  	-0,047955  
86,545000  	15,338951  	38,301473  	357,499067  	1256,670793  	69,802445  	64,574739  	0,004291  	0,008317  	0,003964  	0,004093  	0,004326  	0,000000  	-0,000000  	22,335326  	18,922068  	20,210563  	22,848413  	30,101607  	28,206667  	29,796635  	31,504142  	38,870076  	37,172898  	40,708171  	59,379944  	22,301210  	20,704355  	22,099895  	63,642333  	0,081703  	0,041400  	-3977,388736  	16230,203341  	-0,015675  	-0,049997  	0,284172  	0,143992  	-3,151677  	9285,260570  	7204,344598  	1,044902  	-0,047949  
87,544000  	15,330311  	38,302768  	1256,818530  	1256,670793  	69,802539  	64,561959  	0,004288  	0,008322  	0,003968  	0,004032  	0,004342  	0,000001  	-0,000000  	22,328302  	18,914449  	20,201530  	22,842081  	30,098191  	28,191678  	29,793131  	31,502107  	38,860259  	37,162783  	40,714766  	59,367706  	22,286988  	20,678777  	22,094199  	63,638328  	0,032857  	0,016649  	-1600,181026  	-1,993259  	-0,011067  	-0,049992  	0,297350  	0,150669  	-3,305940  	9295,444965  	7137,857343  	1,035259  	-0,047944  
88,545000  	15,318668  	38,304002  	57,725912  	57,696365  	69,803722  	64,563638  	0,004289  	0,008315  	0,003963  	0,004053  	0,004336  	0,000000  	-0,000000  	22,323015  	18,911669  	20,196692  	22,841692  	30,102579  	28,199224  	29,791628  	31,504435  	38,862280  	37,165099  	40,712885  	59,368579  	22,288553  	20,671898  	22,096948  	63,645583  	0,049805  	0,025237  	-2426,963853  	-1,525029  	-0,051180  	-0,050000  	0,292144  	0,148032  	-3,247756  	9281,497664  	7151,499375  	1,037237  	-0,047951  
89,543000  	15,310273  	38,307519  	957,045375  	-242,047242  	69,803566  	64,577973  	0,004289  	0,008312  	0,003965  	0,004056  	0,004367  	-0,000000  	-0,000000  	22,326708  	18,915011  	20,201768  	22,836107  	30,102624  	28,205684  	29,795654  	31,507781  	38,856149  	37,165745  	40,705572  	59,367526  	22,283445  	20,664448  	22,102246  	63,646925  	0,052184  	0,026442  	-2544,231218  	-34196,445827  	-0,026853  	-0,050004  	0,316580  	0,160413  	-3,509683  	9273,896863  	7156,639851  	1,037983  	-0,047955  
90,546000  	15,300407  	38,306223  	-242,047242  	-242,047242  	69,799829  	64,578222  	0,004291  	0,008328  	0,003967  	0,004049  	0,004364  	-0,000000  	-0,000000  	22,333979  	18,919761  	20,202185  	22,843511  	30,102449  	28,202227  	29,791357  	31,511439  	38,855739  	37,166721  	40,699980  	59,368720  	22,287894  	20,660475  	22,107732  	63,646683  	0,046384  	0,023503  	-2262,298916  	-0,000000  	-0,544443  	-0,050001  	0,314659  	0,159440  	-3,485720  	9308,165554  	7199,818437  	1,044245  	-0,047952  
91,543000  	15,295903  	38,300485  	-242,047242  	657,183579  	69,794409  	64,581114  	0,004289  	0,008304  	0,003966  	0,004072  	0,004335  	0,000000  	-0,000000  	22,329222  	18,918784  	20,195956  	22,839875  	30,093200  	28,197128  	29,785558  	31,503477  	38,854315  	37,165340  	40,696748  	59,368097  	22,272703  	20,655858  	22,105526  	63,637381  	0,064692  	0,032780  	-3155,032206  	32743,237359  	-0,035225  	-0,049999  	0,291448  	0,147679  	-3,223463  	9256,983948  	7153,229343  	1,037488  	-0,047951  
92,546000  	15,293697  	38,295735  	957,045375  	1256,670793  	69,791357  	64,582109  	0,004289  	0,008310  	0,003965  	0,004107  	0,004336  	0,000000  	-0,000000  	22,324715  	18,920275  	20,200008  	22,841256  	30,098428  	28,197391  	29,785821  	31,502756  	38,856331  	37,169549  	40,701553  	59,370364  	22,262053  	20,660976  	22,104198  	63,638785  	0,093086  	0,047167  	-4539,317000  	4416,424824  	-0,012270  	-0,049996  	0,292684  	0,148305  	-3,234616  	9270,509611  	7162,705330  	1,038863  	-0,047948  
93,544000  	15,280676  	38,300794  	1256,818530  	57,696365  	69,788616  	64,580212  	0,004289  	0,008317  	0,003965  	0,004014  	0,004377  	-0,000000  	-0,000000  	22,326079  	18,920687  	20,206926  	22,850118  	30,105430  	28,200109  	29,792576  	31,506678  	38,865317  	37,173650  	40,706065  	59,372629  	22,256625  	20,674166  	22,101989  	63,647609  	0,017939  	0,009090  	-875,497474  	-24493,926551  	-0,018200  	-0,050001  	0,325232  	0,164797  	-3,593741  	9284,802145  	7159,436044  	1,038388  	-0,047952  
94,544000  	15,272587  	38,306840  	1256,818530  	657,183579  	69,790610  	64,577289  	0,004290  	0,008306  	0,003966  	0,004069  	0,004337  	-0,000001  	-0,000000  	22,326599  	18,915644  	20,202192  	22,846837  	30,096937  	28,198217  	29,799541  	31,501643  	38,859662  	37,167074  	40,703008  	59,363287  	22,239032  	20,680962  	22,095383  	63,641707  	0,062587  	0,031713  	-3056,343350  	-9727,506845  	-0,013767  	-0,050007  	0,293000  	0,148465  	-3,240645  	9260,903199  	7170,105356  	1,039936  	-0,047958  
95,544000  	15,274149  	38,309246  	357,499067  	657,183579  	69,794254  	64,573246  	0,004290  	0,008308  	0,003966  	0,004079  	0,004324  	0,000001  	-0,000000  	22,329025  	18,918550  	20,194594  	22,851043  	30,100289  	28,202424  	29,798175  	31,506311  	38,855254  	37,167667  	40,704022  	59,363454  	22,243920  	20,691942  	22,099828  	63,640287  	0,070718  	0,035833  	-3453,510333  	7099,216781  	-0,021693  	-0,049993  	0,282599  	0,143195  	-3,130208  	9266,656859  	7165,678051  	1,039294  	-0,047945  
96,546000  	15,283525  	38,306779  	957,045375  	1256,670793  	69,794752  	64,569515  	0,004288  	0,008317  	0,003966  	0,004053  	0,004383  	0,000001  	-0,000000  	22,326913  	18,922664  	20,197173  	22,848661  	30,103873  	28,208049  	29,798135  	31,509450  	38,861067  	37,166630  	40,711437  	59,373795  	22,239846  	20,703422  	22,105743  	63,641286  	0,049882  	0,025275  	-2434,711992  	4416,104621  	-0,012269  	-0,049992  	0,329957  	0,167191  	-3,657726  	9284,976177  	7122,683053  	1,033058  	-0,047944  
97,544000  	15,287937  	38,308352  	-242,047242  	57,696365  	69,791264  	64,567743  	0,004287  	0,008318  	0,003965  	0,004037  	0,004328  	-0,000000  	-0,000000  	22,334476  	18,930083  	20,213574  	22,851574  	30,122054  	28,203338  	29,801495  	31,513064  	38,861287  	37,167753  	40,718767  	59,374326  	22,249716  	20,727438  	22,111674  	63,646882  	0,036404  	0,018446  	-1776,652744  	27699,346166  	-0,093568  	-0,050000  	0,286109  	0,144974  	-3,170617  	9286,995228  	7101,831645  	1,030034  	-0,047951  
98,546000  	15,297987  	38,309339  	-242,047242  	657,183579  	69,795500  	64,569919  	0,004276  	0,008296  	0,003966  	0,004076  	0,004334  	0,000000  	-0,000000  	22,328477  	18,933527  	20,214026  	22,858570  	30,117158  	28,206257  	29,797190  	31,520499  	38,868945  	37,180403  	40,710832  	59,379474  	22,270778  	20,754141  	22,112980  	63,646750  	0,068339  	0,034628  	-3333,875505  	32740,719666  	-0,035222  	-0,049995  	0,290773  	0,147337  	-3,223572  	9239,454140  	6868,285983  	0,996161  	-0,047947  
99,543000  	15,309568  	38,306378  	657,272221  	-242,047242  	69,799486  	64,577693  	0,004283  	0,008326  	0,003965  	0,004050  	0,004366  	0,000000  	-0,000000  	22,329343  	18,920900  	20,201092  	22,839592  	30,091716  	28,200624  	29,793586  	31,500693  	38,862588  	37,165216  	40,696969  	59,370030  	22,261376  	20,758951  	22,097102  	63,634587  	0,047367  	0,024001  	-2309,310280  	-32744,061253  	-0,035222  	-0,050000  	0,316464  	0,160355  	-3,505844  	9303,630117  	7028,304480  	1,019369  	-0,047951  
100,548000  	15,313490  	38,306501  	1256,818530  	956,927186  	69,798614  	64,575827  	0,004290  	0,008325  	0,003965  	0,004065  	0,004347  	-0,000000  	-0,000000  	22,330614  	18,917722  	20,209119  	22,848820  	30,106648  	28,200895  	29,793269  	31,508013  	38,856962  	37,171111  	40,707395  	59,378208  	22,270871  	20,786166  	22,101899  	63,638017  	0,059206  	0,030000  	-2886,021234  	-4421,120153  	-0,012272  	-0,050006  	0,301248  	0,152645  	-3,337913  	9302,588048  	7168,318899  	1,039677  	-0,047957  
101,544000  	15,317749  	38,306470  	1256,818530  	956,927186  	69,795375  	64,582762  	0,004291  	0,008319  	0,003964  	0,004074  	0,004331  	0,000001  	-0,000000  	22,346170  	18,934465  	20,224104  	22,859556  	30,113428  	28,220755  	29,805549  	31,519075  	38,875408  	37,188217  	40,728583  	59,378524  	22,289537  	20,819691  	22,103723  	63,653262  	0,066923  	0,033911  	-3261,614153  	-4419,695130  	-0,012268  	-0,049988  	0,288798  	0,146336  	-3,193735  	9289,145864  	7187,475646  	1,042455  	-0,047941  
102,544000  	15,322100  	38,306655  	1256,818530  	-242,047242  	69,795500  	64,577102  	0,004290  	0,008330  	0,003967  	0,004086  	0,004338  	-0,000000  	-0,000000  	22,347003  	18,937861  	20,207539  	22,857671  	30,108268  	28,209037  	29,803254  	31,519754  	38,867923  	37,182070  	40,721266  	59,377763  	22,297244  	20,846614  	22,117092  	63,653201  	0,076176  	0,038599  	-3711,887126  	-35513,146265  	-0,021697  	-0,050006  	0,294222  	0,149084  	-3,257320  	9313,652506  	7172,146012  	1,040232  	-0,047956  
103,553000  	15,327155  	38,307303  	1256,818530  	657,183579  	69,794036  	64,581922  	0,004290  	0,008294  	0,003966  	0,004034  	0,004307  	0,000002  	-0,000000  	22,328726  	18,934334  	20,206990  	22,857059  	30,104731  	28,213974  	29,804905  	31,513792  	38,880152  	37,180235  	40,725379  	59,380568  	22,309529  	20,862702  	22,107771  	63,644202  	0,034255  	0,017357  	-1668,864156  	-9722,835218  	-0,013760  	-0,049981  	0,269251  	0,136432  	-2,977287  	9236,061936  	7179,588404  	1,041311  	-0,047935  
104,544000  	15,324949  	38,316434  	1256,818530  	1256,670793  	69,796029  	64,584037  	0,004291  	0,008299  	0,003964  	0,004137  	0,004359  	-0,000001  	-0,000000  	22,328358  	18,920608  	20,206123  	22,854641  	30,102990  	28,209854  	29,803216  	31,514474  	38,858971  	37,168435  	40,723741  	59,363647  	22,308307  	20,880814  	22,103663  	63,641081  	0,117729  	0,059654  	-5738,373779  	-1,994026  	-0,011071  	-0,050013  	0,310647  	0,157407  	-3,434949  	9246,609958  	7189,735195  	1,042783  	-0,047963  
105,543000  	15,321855  	38,337165  	-242,047242  	1256,670793  	69,796278  	64,579839  	0,004291  	0,008318  	0,003964  	0,004067  	0,004280  	0,000000  	-0,000000  	22,334243  	18,920249  	20,211425  	22,845372  	30,099063  	28,200071  	29,795054  	31,510782  	38,870559  	37,170235  	40,701963  	59,370203  	22,318757  	20,897297  	22,104171  	63,654574  	0,061300  	0,031061  	-2990,980316  	35508,276319  	-0,021696  	-0,049999  	0,247693  	0,125508  	-2,741178  	9287,347536  	7203,038295  	1,044712  	-0,047950  
106,544000  	15,323080  	38,354625  	357,499067  	1256,670793  	69,798022  	64,580336  	0,004293  	0,008305  	0,003965  	0,004031  	0,004324  	-0,000000  	-0,000000  	22,337294  	18,935107  	20,209858  	22,851351  	30,111173  	28,211273  	29,803595  	31,512971  	38,881915  	37,171100  	40,721341  	59,371021  	22,309611  	20,917697  	22,108343  	63,650441  	0,031573  	0,015998  	-1541,641829  	16231,061505  	-0,015676  	-0,050000  	0,283018  	0,143407  	-3,132857  	9258,449776  	7231,974656  	1,048909  	-0,047951  
107,542000  	15,321793  	38,367859  	357,499067  	357,439972  	69,800794  	64,573588  	0,004290  	0,008317  	0,003967  	0,004030  	0,004326  	-0,000000  	-0,000000  	22,331124  	18,927491  	20,208822  	22,857010  	30,103746  	28,201669  	29,804668  	31,523491  	38,864676  	37,173537  	40,723935  	59,371787  	22,316366  	20,936127  	22,110335  	63,647495  	0,031234  	0,015826  	-1526,024948  	-1,685382  	-0,026854  	-0,050005  	0,284159  	0,143986  	-3,151228  	9285,961649  	7165,007247  	1,039196  	-0,047955  
108,546000  	15,320200  	38,368600  	957,045375  	956,927186  	69,802414  	64,578128  	0,004289  	0,008305  	0,003966  	0,004042  	0,004380  	-0,000000  	-0,000000  	22,333425  	18,927183  	20,199218  	22,849610  	30,110591  	28,214351  	29,795840  	31,516590  	38,865199  	37,176615  	40,714078  	59,375990  	22,316366  	20,945387  	22,104582  	63,650400  	0,040802  	0,020675  	-1993,733195  	-1,917183  	-0,013766  	-0,050003  	0,327297  	0,165844  	-3,627585  	9259,118313  	7156,470385  	1,037958  	-0,047954  
109,544000  	15,318668  	38,366348  	1256,818530  	956,927186  	69,796060  	64,574490  	0,004290  	0,008316  	0,003964  	0,004066  	0,004330  	0,000000  	-0,000000  	22,334094  	18,922650  	20,204252  	22,859125  	30,110567  	28,205662  	29,798764  	31,515438  	38,865585  	37,171364  	40,712932  	59,365078  	22,318641  	20,949970  	22,104193  	63,640312  	0,060503  	0,030657  	-2956,243757  	-4420,328977  	-0,012269  	-0,049996  	0,287337  	0,145596  	-3,183034  	9282,082015  	7174,921022  	1,040634  	-0,047948  
110,543000  	15,320261  	38,360240  	1256,818530  	357,439972  	69,792011  	64,574490  	0,004290  	0,008295  	0,003966  	0,004035  	0,004336  	-0,000000  	-0,000000  	22,332399  	18,929669  	20,209979  	22,856039  	30,113194  	28,212586  	29,802591  	31,519529  	38,872052  	37,184044  	40,718601  	59,378867  	22,324259  	20,959335  	22,108147  	63,650134  	0,034741  	0,017604  	-1696,945548  	-16234,946942  	-0,015676  	-0,050002  	0,292502  	0,148213  	-3,237735  	9237,226392  	7178,056147  	1,041089  	-0,047954  
111,544000  	15,316493  	38,349412  	357,499067  	1256,670793  	69,792385  	64,570448  	0,004291  	0,008340  	0,003966  	0,004106  	0,004292  	0,000001  	-0,000000  	22,335335  	18,924980  	20,199604  	22,841001  	30,113664  	28,208736  	29,806527  	31,516661  	38,870488  	37,175290  	40,719637  	59,361166  	22,327106  	20,949871  	22,103992  	63,642162  	0,092812  	0,047028  	-4532,011333  	16227,147468  	-0,015672  	-0,049987  	0,257870  	0,130665  	-2,856806  	9335,881171  	7193,915363  	1,043389  	-0,047940  
112,546000  	15,314348  	38,337689  	957,045375  	1256,670793  	69,791264  	64,570386  	0,004290  	0,008312  	0,003965  	0,004082  	0,004350  	-0,000001  	-0,000000  	22,335309  	18,924120  	20,202166  	22,850324  	30,114110  	28,214009  	29,812398  	31,519582  	38,865903  	37,180166  	40,722211  	59,363601  	22,337160  	20,962771  	22,113605  	63,645401  	0,073127  	0,037054  	-3569,310543  	4417,257353  	-0,012272  	-0,050006  	0,303738  	0,153907  	-3,364277  	9273,661283  	7177,307671  	1,040980  	-0,047957  
113,543000  	15,314409  	38,334635  	1256,818530  	956,927186  	69,793226  	64,577071  	0,004290  	0,008328  	0,003964  	0,004051  	0,004338  	0,000000  	-0,000000  	22,347211  	18,931919  	20,213506  	22,856849  	30,113328  	28,225000  	29,814509  	31,522863  	38,872359  	37,187078  	40,723953  	59,371715  	22,344573  	20,978739  	22,120881  	63,653412  	0,047916  	0,024280  	-2338,474088  	-4420,610615  	-0,012270  	-0,050000  	0,293875  	0,148909  	-3,252085  	9309,460180  	7173,727697  	1,040461  	-0,047951  
114,545000  	15,317351  	38,330254  	1256,818530  	357,439972  	69,795842  	64,577880  	0,004290  	0,008309  	0,003966  	0,004091  	0,004362  	-0,000000  	-0,000000  	22,336601  	18,925285  	20,208420  	22,857765  	30,113357  	28,210473  	29,807278  	31,521351  	38,866485  	37,180904  	40,717624  	59,367835  	22,337026  	20,973183  	22,106894  	63,647673  	0,080737  	0,040910  	-3938,970128  	-16234,675890  	-0,015675  	-0,050002  	0,313062  	0,158631  	-3,465617  	9267,631012  	7165,296752  	1,039238  	-0,047953  
115,543000  	15,320843  	38,328218  	357,499067  	1256,670793  	69,796995  	64,578595  	0,004290  	0,008317  	0,003966  	0,004044  	0,004313  	0,000000  	-0,000000  	22,333681  	18,932068  	20,212362  	22,863223  	30,112938  	28,207101  	29,809559  	31,527755  	38,875305  	37,183744  	40,724048  	59,374369  	22,339371  	20,985392  	22,109711  	63,655192  	0,042645  	0,021608  	-2080,040079  	16230,481472  	-0,015675  	-0,049998  	0,274097  	0,138887  	-3,034524  	9285,792570  	7183,980404  	1,041948  	-0,047950  
116,548000  	15,319128  	38,325072  	-242,047242  	57,696365  	69,796496  	64,572189  	0,004288  	0,008336  	0,003966  	0,004077  	0,004362  	-0,000000  	-0,000000  	22,338983  	18,936791  	20,213743  	22,860201  	30,113444  	28,208841  	29,807072  	31,523071  	38,874514  	37,183025  	40,728364  	59,376529  	22,339062  	20,991675  	22,113934  	63,648831  	0,069034  	0,034980  	-3366,981945  	27699,514524  	-0,093568  	-0,050000  	0,312962  	0,158580  	-3,468712  	9326,054037  	7135,527182  	1,034921  	-0,047952  
117,544000  	15,317841  	38,315632  	1256,818530  	1256,670793  	69,797680  	64,569764  	0,004290  	0,008322  	0,003964  	0,004033  	0,004351  	-0,000000  	-0,000000  	22,341411  	18,937242  	20,218658  	22,860436  	30,117864  	28,213859  	29,806544  	31,524615  	38,873989  	37,186330  	40,731184  	59,375516  	22,340414  	21,000047  	22,118616  	63,646224  	0,033344  	0,016895  	-1625,691400  	-1,993742  	-0,011069  	-0,050005  	0,304471  	0,154278  	-3,376939  	9296,264187  	7168,255350  	1,039668  	-0,047956  
118,544000  	15,323907  	38,309894  	1256,818530  	1256,670793  	69,799112  	64,570199  	0,004290  	0,008313  	0,003966  	0,004099  	0,004332  	-0,000001  	-0,000000  	22,340473  	18,933630  	20,217534  	22,858982  	30,114547  	28,217453  	29,811014  	31,524823  	38,879114  	37,189712  	40,734484  	59,373494  	22,339997  	21,004852  	22,118865  	63,656794  	0,086497  	0,043829  	-4215,056713  	-1,993826  	-0,011070  	-0,050008  	0,288980  	0,146428  	-3,205735  	9276,815786  	7167,076147  	1,039497  	-0,047958  
119,543000  	15,329422  	38,310912  	1256,818530  	1256,670793  	69,803629  	64,577631  	0,004290  	0,008307  	0,003965  	0,004043  	0,004338  	-0,000001  	-0,000000  	22,332675  	18,928369  	20,212038  	22,855264  	30,113930  	28,211692  	29,805189  	31,516166  	38,875697  	37,183672  	40,726480  	59,371076  	22,336914  	20,993784  	22,107883  	63,653832  	0,041288  	0,020921  	-2011,592209  	-1,994039  	-0,011071  	-0,050014  	0,293838  	0,148890  	-3,257816  	9263,761282  	7175,951941  	1,040784  	-0,047963  
120,552000  	15,330342  	38,308938  	1256,818530  	1256,670793  	69,804065  	64,579745  	0,004289  	0,008312  	0,003966  	0,004096  	0,004334  	0,000001  	-0,000000  	22,329867  	18,931675  	20,214704  	22,852433  	30,118151  	28,211126  	29,806093  	31,517648  	38,872963  	37,179255  	40,719543  	59,369650  	22,334558  	20,987332  	22,105544  	63,647836  	0,084082  	0,042605  	-4096,038196  	-1,993335  	-0,011067  	-0,049994  	0,290608  	0,147253  	-3,220970  	9273,507767  	7160,219825  	1,038502  	-0,047946  
121,543000  	15,326910  	38,312609  	1256,818530  	1256,670793  	69,806837  	64,590567  	0,004289  	0,008326  	0,003964  	0,004033  	0,004354  	0,000001  	-0,000000  	22,337113  	18,936743  	20,214352  	22,852387  	30,115819  	28,214359  	29,815879  	31,521096  	38,871551  	37,178772  	40,725629  	59,368736  	22,329538  	20,989168  	22,111401  	63,651576  	0,033593  	0,017022  	-1637,004653  	-1,993176  	-0,011066  	-0,049989  	0,306967  	0,155542  	-3,397041  	9305,511216  	7154,408546  	1,037659  	-0,047942  
122,546000  	15,325133  	38,314583  	1256,818530  	657,183579  	69,805342  	64,600082  	0,004290  	0,008307  	0,003966  	0,004082  	0,004336  	0,000000  	-0,000000  	22,341051  	18,941732  	20,218384  	22,868981  	30,119741  	28,214081  	29,809723  	31,524646  	38,874202  	37,183251  	40,730254  	59,378980  	22,337794  	20,997878  	22,113443  	63,656066  	0,073248  	0,037115  	-3569,943751  	-9725,702724  	-0,013765  	-0,049997  	0,292574  	0,148249  	-3,230930  	9263,650920  	7168,022334  	1,039634  	-0,047949  
123,543000  	15,314746  	38,314306  	1256,818530  	-242,047242  	69,801168  	64,592401  	0,004291  	0,008295  	0,003965  	0,004082  	0,004318  	-0,000000  	-0,000000  	22,342011  	18,936387  	20,213797  	22,864072  	30,113699  	28,215376  	29,807195  	31,524985  	38,876287  	37,185002  	40,728063  	59,376978  	22,337804  	20,996323  	22,109910  	63,657483  	0,072870  	0,036924  	-3553,122580  	-35510,519907  	-0,021695  	-0,050001  	0,278504  	0,141120  	-3,077624  	9237,182530  	7195,701819  	1,043648  	-0,047953  
124,547000  	15,305922  	38,310295  	57,725912  	-242,047242  	69,800670  	64,584317  	0,004289  	0,008304  	0,003969  	0,004075  	0,004333  	0,000001  	-0,000000  	22,336117  	18,930309  	20,217915  	22,859196  	30,116403  	28,215144  	29,806192  	31,525540  	38,869024  	37,187579  	40,730062  	59,372378  	22,333788  	20,993691  	22,111887  	63,655419  	0,067107  	0,034004  	-3272,792500  	-27696,508543  	-0,093549  	-0,049993  	0,289775  	0,146831  	-3,206836  	9257,635506  	7153,518848  	1,037530  	-0,047946  
125,543000  	15,286865  	38,310604  	1256,818530  	1256,670793  	69,801386  	64,578564  	0,004289  	0,008333  	0,003965  	0,004062  	0,004326  	0,000001  	-0,000000  	22,333394  	18,929368  	20,217369  	22,854214  	30,117166  	28,212518  	29,806105  	31,525375  	38,876493  	37,186166  	40,727642  	59,378322  	22,333269  	20,996227  	22,120951  	63,655776  	0,056671  	0,028716  	-2766,172248  	-1,993295  	-0,011067  	-0,049993  	0,284825  	0,144323  	-3,155970  	9319,559681  	7150,468456  	1,037088  	-0,047945  
126,554000  	15,275651  	38,312516  	1256,818530  	1256,670793  	69,801386  	64,570479  	0,004290  	0,008305  	0,003966  	0,004014  	0,004340  	0,000001  	-0,000000  	22,340494  	18,943984  	20,219608  	22,861032  	30,110790  	28,216048  	29,814736  	31,520805  	38,875524  	37,173155  	40,726719  	59,368178  	22,317791  	20,984658  	22,114536  	63,658238  	0,018051  	0,009147  	-881,610516  	-1,993303  	-0,011067  	-0,049993  	0,295764  	0,149866  	-3,282240  	9260,387471  	7165,134346  	1,039215  	-0,047945  
127,544000  	15,274640  	38,309925  	1256,818530  	1256,670793  	69,806432  	64,570417  	0,004290  	0,008314  	0,003964  	0,004100  	0,004383  	-0,000000  	-0,000000  	22,339032  	18,934920  	20,210523  	22,858320  	30,112640  	28,218042  	29,804246  	31,519490  	38,867797  	37,179426  	40,721722  	59,378411  	22,324778  	20,984569  	22,112145  	63,647796  	0,087541  	0,044357  	-4275,084125  	-1,993629  	-0,011069  	-0,050002  	0,329920  	0,167173  	-3,664864  	9278,009247  	7174,313768  	1,040546  	-0,047953  
128,544000  	15,272679  	38,307272  	57,725912  	1256,670793  	69,807989  	64,565752  	0,004289  	0,008299  	0,003965  	0,004104  	0,004390  	-0,000002  	-0,000000  	22,334255  	18,941464  	20,213450  	22,859501  	30,109407  	28,223649  	29,806630  	31,521836  	38,874407  	37,184478  	40,718301  	59,364543  	22,322316  	20,977104  	22,111217  	63,659844  	0,090927  	0,046073  	-4440,311774  	24500,930643  	-0,018208  	-0,050022  	0,335221  	0,169859  	-3,728170  	9245,619533  	7155,877253  	1,037872  	-0,047971  
129,544000  	15,261434  	38,301689  	1256,818530  	1256,670793  	69,806650  	64,573029  	0,004291  	0,008302  	0,003967  	0,004039  	0,004361  	0,000002  	-0,000000  	22,340234  	18,930218  	20,211762  	22,858640  	30,113804  	28,205164  	29,811125  	31,516204  	38,862584  	37,184413  	40,724844  	59,370771  	22,337923  	20,975137  	22,116273  	63,657061  	0,037907  	0,019208  	-1851,614902  	-1,992771  	-0,011064  	-0,049978  	0,311971  	0,158078  	-3,463902  	9252,817798  	7186,451787  	1,042307  	-0,047932  
130,548000  	15,252549  	38,295951  	1256,818530  	1256,670793  	69,807647  	64,576263  	0,004290  	0,008303  	0,003966  	0,004048  	0,004342  	-0,000001  	-0,000000  	22,335927  	18,931909  	20,218601  	22,859695  	30,119258  	28,218762  	29,812799  	31,524072  	38,866683  	37,184140  	40,735066  	59,380221  	22,338554  	20,977769  	22,113796  	63,653369  	0,045663  	0,023138  	-2230,742894  	-1,993932  	-0,011070  	-0,050010  	0,297025  	0,150505  	-3,296541  	9255,670220  	7181,996237  	1,041660  	-0,047960  
131,545000  	15,247586  	38,296599  	357,499067  	1256,670793  	69,803006  	64,566188  	0,004289  	0,008330  	0,003963  	0,004057  	0,004365  	0,000001  	-0,000000  	22,332262  	18,930088  	20,219711  	22,861958  	30,103142  	28,208448  	29,801582  	31,518523  	38,864587  	37,169726  	40,727724  	59,373419  	22,315133  	20,959644  	22,115346  	63,647026  	0,052586  	0,026646  	-2569,618490  	16228,552385  	-0,015673  	-0,049991  	0,315134  	0,159681  	-3,501156  	9312,199412  	7150,623800  	1,037110  	-0,047944  
132,547000  	15,250098  	38,300177  	-242,047242  	1256,670793  	69,800140  	64,574397  	0,004292  	0,008314  	0,003965  	0,004070  	0,004356  	-0,000000  	-0,000000  	22,332183  	18,934906  	20,211193  	22,856787  	30,105499  	28,215876  	29,804810  	31,520216  	38,870422  	37,171411  	40,716528  	59,375508  	22,334154  	20,962020  	22,112170  	63,656428  	0,063562  	0,032207  	-3106,059155  	35509,820902  	-0,021697  	-0,050001  	0,308125  	0,156129  	-3,416047  	9278,527805  	7208,694231  	1,045533  	-0,047953  
133,542000  	15,249455  	38,302120  	57,725912  	57,696365  	69,797773  	64,575516  	0,004288  	0,008300  	0,003968  	0,004020  	0,004396  	-0,000001  	-0,000000  	22,339911  	18,943928  	20,213182  	22,865077  	30,112355  	28,214143  	29,808609  	31,523240  	38,870456  	37,179453  	40,727417  	59,375244  	22,325863  	20,950469  	22,126569  	63,661006  	0,023093  	0,011701  	-1128,608481  	-1,525242  	-0,051187  	-0,050008  	0,339995  	0,172278  	-3,766854  	9249,374657  	7128,070668  	1,033839  	-0,047958  
134,546000  	15,255153  	38,295395  	1256,818530  	1256,670793  	69,796154  	64,576636  	0,004291  	0,008307  	0,003966  	0,004099  	0,004330  	0,000000  	-0,000000  	22,330857  	18,942082  	20,235165  	22,869648  	30,124223  	28,214410  	29,820890  	31,528306  	38,870005  	37,183727  	40,735145  	59,377128  	22,330912  	20,957950  	22,125328  	63,660323  	0,086850  	0,044008  	-4242,298316  	-1,993433  	-0,011068  	-0,049996  	0,287924  	0,145893  	-3,188284  	9264,365441  	7185,929266  	1,042231  	-0,047948  
135,544000  	15,258187  	38,295581  	357,499067  	1256,670793  	69,799330  	64,587799  	0,004287  	0,008307  	0,003964  	0,004092  	0,004366  	-0,000001  	-0,000000  	22,332133  	18,934207  	20,215826  	22,850243  	30,108089  	28,211071  	29,813339  	31,528451  	38,874412  	37,177578  	40,725894  	59,369232  	22,314761  	20,950891  	22,119109  	63,653166  	0,081125  	0,041106  	-3962,132754  	16234,055571  	-0,015679  	-0,050010  	0,315839  	0,160038  	-3,492051  	9262,932155  	7102,290616  	1,030100  	-0,047960  
136,546000  	15,259902  	38,298974  	-242,047242  	1256,670793  	69,801012  	64,583259  	0,004290  	0,008313  	0,003964  	0,004088  	0,004365  	-0,000001  	-0,000000  	22,332489  	18,933192  	20,219035  	22,863872  	30,114501  	28,213044  	29,806309  	31,516846  	38,866928  	37,182744  	40,728369  	59,371855  	22,321569  	20,947151  	22,124142  	63,654565  	0,078263  	0,039657  	-3822,661877  	35514,238827  	-0,021700  	-0,050008  	0,315344  	0,159787  	-3,490741  	9277,126354  	7176,248507  	1,040827  	-0,047959  
137,544000  	15,266980  	38,300794  	1256,818530  	1256,670793  	69,804906  	64,574273  	0,004290  	0,008323  	0,003966  	0,004049  	0,004347  	-0,000002  	-0,000000  	22,344393  	18,941392  	20,221728  	22,865366  	30,119685  	28,224175  	29,811610  	31,534475  	38,871023  	37,190019  	40,735248  	59,378434  	22,331184  	20,948444  	22,129975  	63,668271  	0,046428  	0,023525  	-2267,188319  	-1,994438  	-0,011073  	-0,050025  	0,301306  	0,152674  	-3,343576  	9298,019361  	7174,942205  	1,040637  	-0,047973  
138,542000  	15,268696  	38,298696  	1256,818530  	657,183579  	69,808020  	64,570044  	0,004290  	0,008303  	0,003967  	0,004070  	0,004359  	0,000000  	-0,000000  	22,336659  	18,937086  	20,213357  	22,862838  	30,113483  	28,205776  	29,808723  	31,527126  	38,868751  	37,178713  	40,732637  	59,368204  	22,319760  	20,919339  	22,120825  	63,659779  	0,063246  	0,032047  	-3087,962774  	-9726,033206  	-0,013765  	-0,049999  	0,310881  	0,157526  	-3,454666  	9255,496896  	7179,906154  	1,041357  	-0,047951  
139,543000  	15,262170  	38,296105  	357,499067  	-242,047242  	69,802134  	64,569608  	0,004289  	0,008329  	0,003966  	0,004021  	0,004362  	0,000000  	-0,000000  	22,331329  	18,937027  	20,219064  	22,866535  	30,114254  	28,206647  	29,807030  	31,531032  	38,874470  	37,179132  	40,728909  	59,374544  	22,323885  	20,910163  	22,119262  	63,661895  	0,023576  	0,011946  	-1151,276159  	-30941,752249  	-0,051175  	-0,049998  	0,312583  	0,158388  	-3,469960  	9311,906529  	7149,331620  	1,036923  	-0,047949  
140,545000  	15,260515  	38,295488  	957,045375  	-242,047242  	69,795780  	64,576263  	0,004290  	0,008325  	0,003967  	0,004057  	0,004349  	-0,000001  	-0,000000  	22,340233  	18,933342  	20,212247  	22,859735  	30,114330  	28,211455  	29,821824  	31,522672  	38,867041  	37,177968  	40,729639  	59,372320  	22,324406  	20,903350  	22,120967  	63,659817  	0,052693  	0,026700  	-2573,265174  	-34199,513228  	-0,026855  	-0,050009  	0,302785  	0,153423  	-3,352840  	9302,497495  	7180,026192  	1,041375  	-0,047959  
141,544000  	15,270810  	38,292311  	1256,818530  	57,696365  	69,794378  	64,578657  	0,004289  	0,008309  	0,003965  	0,004052  	0,004360  	-0,000001  	-0,000000  	22,335001  	18,931769  	20,212802  	22,858208  	30,113558  	28,205010  	29,809216  	31,514803  	38,857750  	37,173369  	40,727729  	59,372346  	22,329150  	20,892238  	22,123353  	63,656804  	0,049149  	0,024904  	-2398,767830  	-24497,553299  	-0,018203  	-0,050009  	0,311201  	0,157688  	-3,443529  	9268,985064  	7152,360829  	1,037362  	-0,047959  
142,546000  	15,284414  	38,285771  	1256,818530  	1256,670793  	69,794939  	64,583135  	0,004290  	0,008299  	0,003966  	0,004067  	0,004341  	-0,000000  	-0,000000  	22,333895  	18,932997  	20,216173  	22,863365  	30,109663  	28,208583  	29,803452  	31,514985  	38,865089  	37,174535  	40,727438  	59,378112  	22,330888  	20,878162  	22,128071  	63,661413  	0,060799  	0,030807  	-2964,784671  	-1,993734  	-0,011069  	-0,050005  	0,296438  	0,150207  	-3,277711  	9246,393479  	7172,950977  	1,040349  	-0,047956  
143,544000  	15,299304  	38,284105  	1256,818530  	1256,670793  	69,795468  	64,580647  	0,004290  	0,008329  	0,003965  	0,004100  	0,004361  	-0,000001  	-0,000000  	22,340725  	18,930015  	20,216181  	22,866284  	30,112462  	28,207649  	29,807994  	31,515809  	38,864769  	37,177416  	40,727863  	59,377049  	22,334853  	20,860102  	22,128382  	63,664665  	0,087616  	0,044396  	-4269,366636  	-1,993811  	-0,011070  	-0,050007  	0,312196  	0,158192  	-3,453945  	9310,050190  	7178,140880  	1,041101  	-0,047957  
144,544000  	15,310579  	38,282994  	1256,818530  	1256,670793  	69,800514  	64,569328  	0,004291  	0,008307  	0,003965  	0,004097  	0,004341  	0,000002  	-0,000000  	22,337477  	18,927537  	20,212450  	22,856794  	30,111189  	28,207841  	29,802785  	31,517509  	38,860774  	37,174728  	40,728217  	59,373088  	22,346755  	20,848016  	22,121194  	63,662431  	0,084939  	0,043039  	-4136,673870  	-1,992789  	-0,011064  	-0,049978  	0,296437  	0,150207  	-3,289886  	9263,742181  	7186,557703  	1,042322  	-0,047933  
145,544000  	15,312663  	38,290244  	57,725912  	1256,670793  	69,802071  	64,567929  	0,004290  	0,008319  	0,003968  	0,004033  	0,004370  	0,000001  	-0,000000  	22,332516  	18,930992  	20,208839  	22,848097  	30,101991  	28,210393  	29,801081  	31,516640  	38,861104  	37,170370  	40,731065  	59,370342  	22,351501  	20,830359  	22,117154  	63,658228  	0,033512  	0,016981  	-1632,481834  	24488,024808  	-0,018199  	-0,049993  	0,319445  	0,161865  	-3,547238  	9289,810864  	7164,272893  	1,039090  	-0,047945  
146,543000  	15,315543  	38,291848  	1256,818530  	1256,670793  	69,800389  	64,571598  	0,004289  	0,008295  	0,003965  	0,004035  	0,004327  	0,000000  	-0,000000  	22,328399  	18,927234  	20,211079  	22,846505  	30,100372  	28,197339  	29,800042  	31,513464  	38,856056  	37,168161  	40,728787  	59,365308  	22,350202  	20,808073  	22,113282  	63,653991  	0,034731  	0,017599  	-1691,764997  	-1,993371  	-0,011067  	-0,049995  	0,285048  	0,144436  	-3,162046  	9236,928557  	7156,011414  	1,037892  	-0,047947  
147,544000  	15,324919  	38,294717  	357,499067  	1256,670793  	69,799985  	64,573620  	0,004288  	0,008305  	0,003966  	0,004065  	0,004349  	-0,000001  	-0,000000  	22,323872  	18,920941  	20,208684  	22,844282  	30,102297  	28,191871  	29,796952  	31,513598  	38,854440  	37,163121  	40,720004  	59,361968  	22,352006  	20,803323  	22,110147  	63,653051  	0,058939  	0,029865  	-2870,127584  	16233,151052  	-0,015678  	-0,050007  	0,302642  	0,153351  	-3,355660  	9258,836749  	7137,045317  	1,035141  	-0,047958  
148,544000  	15,327676  	38,293915  	957,045375  	1256,670793  	69,796247  	64,568893  	0,004291  	0,008331  	0,003965  	0,004064  	0,004363  	-0,000001  	-0,000000  	22,331836  	18,929077  	20,209561  	22,855585  	30,106251  	28,202000  	29,802069  	31,516153  	38,857488  	37,162380  	40,719949  	59,369601  	22,360162  	20,805415  	22,121709  	63,656080  	0,058364  	0,029573  	-2841,663538  	4417,417454  	-0,012272  	-0,050008  	0,313703  	0,158955  	-3,478952  	9314,604021  	7192,418411  	1,043172  	-0,047959  
149,542000  	15,319465  	38,281884  	957,045375  	956,927186  	69,795562  	64,567680  	0,004291  	0,008283  	0,003966  	0,004058  	0,004317  	0,000000  	-0,000000  	22,333367  	18,925909  	20,215688  	22,854552  	30,108641  	28,202989  	29,801825  	31,514313  	38,860669  	37,168886  	40,724943  	59,378871  	22,371761  	20,805334  	22,124236  	63,654271  	0,053296  	0,027006  	-2594,501900  	-1,917031  	-0,013765  	-0,049999  	0,277500  	0,140611  	-3,077780  	9212,108517  	7202,805279  	1,044679  	-0,047950  
150,545000  	15,327860  	38,270840  	-242,047242  	357,439972  	69,793693  	64,577880  	0,004290  	0,008325  	0,003967  	0,004070  	0,004345  	0,000001  	-0,000000  	22,330337  	18,923594  	20,202437  	22,841941  	30,105316  	28,200913  	29,801406  	31,505545  	38,855950  	37,165418  	40,720967  	59,368047  	22,366664  	20,796506  	22,125742  	63,652342  	0,063511  	0,032181  	-3089,119136  	30936,249099  	-0,051171  	-0,049988  	0,299192  	0,151603  	-3,310704  	9302,073735  	7174,949266  	1,040638  	-0,047942  
151,543000  	15,339350  	38,268804  	-242,047242  	1256,670793  	69,794877  	64,569297  	0,004290  	0,008316  	0,003965  	0,004029  	0,004351  	0,000001  	-0,000000  	22,344114  	18,934091  	20,220139  	22,863818  	30,115824  	28,212096  	29,809679  	31,522294  	38,863277  	37,183191  	40,731166  	59,368871  	22,387718  	20,804986  	22,140123  	63,667231  	0,030115  	0,015259  	-1463,890297  	35500,295971  	-0,021691  	-0,049986  	0,304280  	0,154181  	-3,373313  	9282,171860  	7174,553845  	1,040581  	-0,047940  
152,547000  	15,341801  	38,270964  	-242,047242  	1256,670793  	69,798427  	64,569235  	0,004289  	0,008302  	0,003968  	0,004060  	0,004338  	0,000001  	-0,000000  	22,322705  	18,918593  	20,204305  	22,846208  	30,091612  	28,200811  	29,788197  	31,502332  	38,850081  	37,163262  	40,709359  	59,366336  	22,364171  	20,793408  	22,127633  	63,644688  	0,055253  	0,027997  	-2685,854075  	35504,199034  	-0,021694  	-0,049992  	0,293976  	0,148960  	-3,261331  	9252,398282  	7150,496700  	1,037092  	-0,047945  
153,543000  	15,323693  	38,278799  	1256,818530  	1256,670793  	69,796995  	64,572314  	0,004291  	0,008320  	0,003963  	0,004067  	0,004324  	0,000001  	-0,000000  	22,332460  	18,912404  	20,199364  	22,849182  	30,084677  	28,202345  	29,797224  	31,505144  	38,837792  	37,153909  	40,706063  	59,369843  	22,369890  	20,778715  	22,116704  	63,647006  	0,060691  	0,030753  	-2953,547787  	-1,993286  	-0,011067  	-0,049992  	0,282712  	0,143252  	-3,133663  	9291,722383  	7189,869356  	1,042802  	-0,047945  
154,544000  	15,311008  	38,284413  	1256,818530  	657,183579  	69,799112  	64,575734  	0,004288  	0,008322  	0,003964  	0,004062  	0,004404  	-0,000000  	-0,000000  	22,330329  	18,920321  	20,212317  	22,855099  	30,107320  	28,201734  	29,799626  	31,513966  	38,860470  	37,168340  	40,720051  	59,378646  	22,388204  	20,790591  	22,129898  	63,671809  	0,057217  	0,028992  	-2786,682396  	-9727,138613  	-0,013767  	-0,050005  	0,345876  	0,175258  	-3,832844  	9296,901596  	7135,145883  	1,034865  	-0,047956  
155,544000  	15,299978  	38,285524  	357,499067  	657,183579  	69,802632  	64,572749  	0,004289  	0,008306  	0,003966  	0,004043  	0,004335  	-0,000001  	-0,000000  	22,330505  	18,920962  	20,204515  	22,852935  	30,106961  	28,207235  	29,809326  	31,508729  	38,867254  	37,170245  	40,720231  	59,370976  	22,374562  	20,767955  	22,134003  	63,662510  	0,041360  	0,020957  	-2015,462384  	7101,119771  	-0,021699  	-0,050008  	0,291498  	0,147704  	-3,234269  	9260,935035  	7146,337716  	1,036489  	-0,047958  
156,546000  	15,289990  	38,284475  	957,045375  	57,696365  	69,800701  	64,570012  	0,004290  	0,008304  	0,003964  	0,004086  	0,004343  	-0,000001  	-0,000000  	22,327051  	18,913268  	20,208817  	22,849240  	30,090510  	28,194527  	29,791126  	31,506824  	38,851374  	37,162878  	40,722816  	59,368571  	22,377191  	20,764809  	22,123534  	63,665273  	0,076480  	0,038753  	-3728,320671  	-21310,975171  	-0,021699  	-0,050011  	0,297765  	0,150880  	-3,304315  	9257,546368  	7180,880584  	1,041499  	-0,047961  
157,543000  	15,290388  	38,280835  	1256,818530  	-242,047242  	69,797742  	64,578844  	0,004292  	0,008302  	0,003964  	0,004077  	0,004303  	0,000000  	-0,000000  	22,327431  	18,927330  	20,202063  	22,853133  	30,086342  	28,205024  	29,805281  	31,517334  	38,854070  	37,164667  	40,727680  	59,373824  	22,361792  	20,764438  	22,128714  	63,651913  	0,069063  	0,034995  	-3366,149166  	-35506,525762  	-0,021693  	-0,049995  	0,266226  	0,134899  	-2,947662  	9251,955421  	7209,711028  	1,045680  	-0,047947  
158,545000  	15,297190  	38,289473  	1256,818530  	357,439972  	69,793444  	64,582140  	0,004289  	0,008312  	0,003966  	0,004069  	0,004350  	-0,000001  	-0,000000  	22,316533  	18,915065  	20,199139  	22,849328  	30,092700  	28,186899  	29,796001  	31,504537  	38,836551  	37,156753  	40,715262  	59,361775  	22,378238  	20,756458  	22,119633  	63,646985  	0,062528  	0,031683  	-3047,865059  	-16236,579201  	-0,015677  	-0,050008  	0,303091  	0,153578  	-3,350950  	9274,541346  	7145,448018  	1,036360  	-0,047958  
159,544000  	15,301786  	38,296599  	1256,818530  	1256,670793  	69,790765  	64,571101  	0,004291  	0,008316  	0,003967  	0,004131  	0,004288  	-0,000001  	-0,000000  	22,321768  	18,920259  	20,215319  	22,842471  	30,097927  	28,207881  	29,796616  	31,506006  	38,858967  	37,163660  	40,720201  	59,374925  	22,384686  	20,756997  	22,123742  	63,649480  	0,113115  	0,057316  	-5514,287598  	-1,993883  	-0,011070  	-0,050009  	0,254129  	0,128769  	-2,814142  	9284,000609  	7202,692302  	1,044662  	-0,047959  
160,546000  	15,300867  	38,293205  	1256,818530  	1256,670793  	69,792696  	64,572096  	0,004288  	0,008328  	0,003965  	0,004056  	0,004353  	-0,000000  	-0,000000  	22,330399  	18,920958  	20,210294  	22,845630  	30,103691  	28,199246  	29,802966  	31,510699  	38,854247  	37,164169  	40,717497  	59,368032  	22,389685  	20,769116  	22,121305  	63,658217  	0,052284  	0,026492  	-2548,521437  	-1,993695  	-0,011069  	-0,050004  	0,306107  	0,155107  	-3,390336  	9309,025101  	7138,104481  	1,035295  	-0,047955  
161,544000  	15,297343  	38,289534  	1256,818530  	57,696365  	69,797773  	64,569826  	0,004292  	0,008315  	0,003965  	0,004040  	0,004340  	-0,000000  	-0,000000  	22,318458  	18,909844  	20,200853  	22,842644  	30,090918  	28,194296  	29,784686  	31,506691  	38,846442  	37,153423  	40,703521  	59,372227  	22,390509  	20,766106  	22,122878  	63,666171  	0,039215  	0,019870  	-1911,472798  	-24494,448502  	-0,018201  	-0,050002  	0,295380  	0,149671  	-3,276127  	9281,927791  	7213,728791  	1,046263  	-0,047953  
162,546000  	15,296485  	38,296136  	1256,818530  	657,183579  	69,799081  	64,566779  	0,004290  	0,008304  	0,003965  	0,004049  	0,004350  	0,000001  	-0,000000  	22,321325  	18,922923  	20,200769  	22,837421  	30,083820  	28,199319  	29,791869  	31,501656  	38,848654  	37,156551  	40,714436  	59,371116  	22,387256  	20,762479  	22,124213  	63,658714  	0,046707  	0,023667  	-2277,407298  	-9724,306720  	-0,013763  	-0,049989  	0,303234  	0,153651  	-3,366041  	9257,098554  	7183,140134  	1,041826  	-0,047942  
163,544000  	15,296026  	38,298912  	1256,818530  	657,183579  	69,798521  	64,576947  	0,004288  	0,008317  	0,003965  	0,004103  	0,004318  	-0,000000  	-0,000000  	22,334393  	18,922274  	20,217510  	22,847329  	30,102210  	28,197378  	29,801339  	31,511403  	38,842250  	37,163893  	40,719501  	59,368333  	22,400278  	20,761933  	22,126175  	63,657513  	0,090315  	0,045763  	-4404,362836  	-9726,650724  	-0,013766  	-0,050003  	0,278062  	0,140896  	-3,080291  	9284,251752  	7133,246449  	1,034590  	-0,047954  
164,545000  	15,300744  	38,296876  	1256,818530  	57,696365  	69,802570  	64,585716  	0,004288  	0,008332  	0,003964  	0,004103  	0,004366  	-0,000001  	-0,000000  	22,320643  	18,915384  	20,203385  	22,840391  	30,092564  	28,193856  	29,792422  	31,510573  	38,844267  	37,163068  	40,709649  	59,366739  	22,391590  	20,756234  	22,113489  	63,655653  	0,090410  	0,045812  	-4407,717144  	-24496,884270  	-0,018203  	-0,050008  	0,316312  	0,160278  	-3,500855  	9316,506344  	7140,575864  	1,035653  	-0,047958  
165,545000  	15,304543  	38,295395  	1256,818530  	-242,047242  	69,807366  	64,578160  	0,004291  	0,008300  	0,003966  	0,004076  	0,004320  	-0,000000  	-0,000000  	22,321047  	18,916206  	20,202925  	22,843204  	30,092925  	28,203650  	29,798546  	31,507788  	38,848533  	37,164284  	40,711183  	59,368541  	22,393437  	20,762352  	22,116529  	63,655426  	0,068552  	0,034736  	-3341,288415  	-35513,328290  	-0,021697  	-0,050006  	0,279792  	0,141773  	-3,103986  	9249,130588  	7201,837909  	1,044538  	-0,047956  
166,545000  	15,306995  	38,295581  	1256,818530  	-242,047242  	69,808238  	64,577911  	0,004288  	0,008316  	0,003965  	0,004068  	0,004359  	-0,000001  	-0,000000  	22,321440  	18,915042  	20,202710  	22,846762  	30,085881  	28,196903  	29,794895  	31,510069  	38,852839  	37,164802  	40,714641  	59,367790  	22,400357  	20,762688  	22,123599  	63,653528  	0,061402  	0,031113  	-2992,510347  	-35518,588808  	-0,021700  	-0,050014  	0,310807  	0,157488  	-3,448803  	9282,964200  	7130,259606  	1,034157  	-0,047964  
167,544000  	15,305248  	38,294748  	1256,818530  	-242,047242  	69,807148  	64,576729  	0,004288  	0,008318  	0,003966  	0,004000  	0,004380  	0,000001  	-0,000000  	22,326264  	18,921800  	20,201961  	22,854972  	30,092576  	28,199493  	29,791998  	31,511364  	38,849097  	37,164201  	40,718629  	59,364212  	22,399059  	20,764250  	22,132179  	63,658456  	0,006860  	0,003476  	-334,357958  	-35502,804654  	-0,021690  	-0,049989  	0,327398  	0,165895  	-3,632968  	9286,409463  	7141,613845  	1,035804  	-0,047942  
168,546000  	15,300285  	38,295611  	57,725912  	956,927186  	69,810886  	64,577849  	0,004292  	0,008318  	0,003964  	0,004076  	0,004320  	-0,000001  	-0,000000  	22,333541  	18,928523  	20,216341  	22,860518  	30,103852  	28,203677  	29,793751  	31,514830  	38,851756  	37,170331  	40,719956  	59,367013  	22,409896  	20,772602  	22,133067  	63,661934  	0,068308  	0,034612  	-3330,076345  	21306,906919  	-0,021699  	-0,050007  	0,279941  	0,141848  	-3,107915  	9287,632637  	7210,290038  	1,045764  	-0,047957  
169,544000  	15,303195  	38,296136  	57,725912  	956,927186  	69,813689  	64,578595  	0,004289  	0,008329  	0,003966  	0,004057  	0,004346  	-0,000000  	-0,000000  	22,332225  	18,929615  	20,212458  	22,852540  	30,105192  	28,205100  	29,799837  	31,515361  	38,851310  	37,175338  	40,719492  	59,372302  	22,411736  	20,782446  	22,129117  	63,659674  	0,052755  	0,026731  	-2571,574840  	21305,002026  	-0,021697  	-0,050002  	0,300383  	0,152207  	-3,336179  	9310,511445  	7144,198205  	1,036178  	-0,047953  
170,545000  	15,309323  	38,290830  	1256,818530  	-242,047242  	69,809204  	64,576791  	0,004293  	0,008318  	0,003963  	0,004077  	0,004323  	0,000001  	-0,000000  	22,325743  	18,925340  	20,198252  	22,850014  	30,100039  	28,200750  	29,799131  	31,512196  	38,841826  	37,170109  	40,720375  	59,367894  	22,409305  	20,785902  	22,125686  	63,656133  	0,068968  	0,034946  	-3360,186075  	-35502,375596  	-0,021690  	-0,049989  	0,282265  	0,143026  	-3,133339  	9286,656361  	7239,755980  	1,050038  	-0,047942  
171,543000  	15,317871  	38,284352  	1256,818530  	657,183579  	69,805653  	64,582855  	0,004291  	0,008331  	0,003964  	0,004092  	0,004244  	0,000002  	-0,000000  	22,328414  	18,921999  	20,203735  	22,850854  	30,095005  	28,199810  	29,795143  	31,515972  	38,848601  	37,169843  	40,721591  	59,370369  	22,413778  	20,798845  	22,121437  	63,658695  	0,080892  	0,040989  	-3938,591245  	-9721,545339  	-0,013759  	-0,049973  	0,219558  	0,111252  	-2,432774  	9316,279254  	7194,254295  	1,043438  	-0,047928  
172,544000  	15,324551  	38,283118  	1256,818530  	57,696365  	69,805342  	64,583228  	0,004291  	0,008307  	0,003965  	0,004036  	0,004299  	0,000001  	-0,000000  	22,330984  	18,920180  	20,210757  	22,844658  	30,095095  	28,199680  	29,799716  	31,518556  	38,856468  	37,173909  	40,719870  	59,374417  	22,415949  	20,826634  	22,119797  	63,663489  	0,036069  	0,018276  	-1755,552989  	-24487,838925  	-0,018196  	-0,049987  	0,263360  	0,133446  	-2,917726  	9263,853250  	7205,770938  	1,045109  	-0,047940  
173,543000  	15,324122  	38,289904  	57,725912  	956,927186  	69,801075  	64,588266  	0,004288  	0,008343  	0,003967  	0,004050  	0,004371  	-0,000001  	-0,000000  	22,326324  	18,920460  	20,214877  	22,847077  	30,098737  	28,193803  	29,800902  	31,516554  	38,853032  	37,172931  	40,712629  	59,368748  	22,421985  	20,856070  	22,122699  	63,658932  	0,047268  	0,023951  	-2301,391845  	21306,799271  	-0,021699  	-0,050006  	0,320046  	0,162170  	-3,539430  	9342,134288  	7139,036545  	1,035430  	-0,047957  
174,546000  	15,322958  	38,297370  	1256,818530  	357,439972  	69,797773  	64,587271  	0,004291  	0,008315  	0,003965  	0,004012  	0,004353  	0,000000  	-0,000000  	22,334011  	18,930692  	20,220801  	22,849660  	30,100128  	28,205865  	29,802144  	31,517209  	38,859948  	37,175625  	40,709359  	59,378522  	22,421322  	20,890744  	22,125070  	63,654990  	0,016490  	0,008356  	-803,179451  	-16232,692927  	-0,015674  	-0,049995  	0,306191  	0,155149  	-3,384713  	9280,972739  	7206,759491  	1,045252  	-0,047947  
175,543000  	15,315696  	38,296537  	1256,818530  	1256,670793  	69,798552  	64,578626  	0,004291  	0,008304  	0,003966  	0,004016  	0,004356  	0,000001  	-0,000000  	22,337247  	18,929587  	20,212977  	22,847557  	30,098773  	28,203536  	29,804191  	31,509896  	38,848359  	37,168086  	40,713210  	59,374989  	22,418960  	20,917547  	22,121866  	63,659397  	0,019995  	0,010132  	-974,146260  	-1,993250  	-0,011067  	-0,049991  	0,308171  	0,156152  	-3,412750  	9256,695310  	7198,752212  	1,044091  	-0,047944  
176,543000  	15,315328  	38,297030  	57,725912  	1256,670793  	69,802725  	64,579124  	0,004290  	0,008322  	0,003965  	0,004039  	0,004393  	-0,000001  	-0,000000  	22,329929  	18,926590  	20,211737  	22,851756  	30,106360  	28,202771  	29,792570  	31,515712  	38,848178  	37,166209  	40,704965  	59,365337  	22,416179  	20,953376  	22,119306  	63,661704  	0,038420  	0,019468  	-1871,867674  	24493,882292  	-0,018203  	-0,050006  	0,337761  	0,171146  	-3,743076  	9295,938762  	7178,529240  	1,041158  	-0,047957  
177,544000  	15,322314  	38,295704  	-242,047242  	1256,670793  	69,804501  	64,580989  	0,004289  	0,008310  	0,003966  	0,004095  	0,004407  	-0,000000  	-0,000000  	22,321668  	18,927255  	20,201154  	22,835864  	30,089665  	28,205639  	29,788536  	31,501304  	38,845526  	37,165779  	40,699311  	59,367359  	22,409050  	20,993026  	22,111833  	63,653259  	0,083737  	0,042430  	-4078,318236  	35510,509984  	-0,021698  	-0,050002  	0,348972  	0,176827  	-3,867245  	9270,554180  	7154,182591  	1,037626  	-0,047953  
178,547000  	15,326665  	38,293174  	357,499067  	1256,670793  	69,805497  	64,583415  	0,004290  	0,008335  	0,003966  	0,004090  	0,004288  	0,000002  	-0,000000  	22,332727  	18,922467  	20,209141  	22,843980  	30,102098  	28,202362  	29,788423  	31,506238  	38,842995  	37,163790  	40,699170  	59,371602  	22,413420  	21,042622  	22,121569  	63,648996  	0,079506  	0,040287  	-3871,119781  	16225,569017  	-0,015670  	-0,049981  	0,254234  	0,128822  	-2,816612  	9324,252879  	7168,424816  	1,039692  	-0,047935  
179,543000  	15,334754  	38,291046  	1256,818530  	1256,670793  	69,804345  	64,582606  	0,004290  	0,008322  	0,003967  	0,004044  	0,004380  	0,000000  	-0,000000  	22,336382  	18,932254  	20,206525  	22,848636  	30,092509  	28,209805  	29,797261  	31,510664  	38,855123  	37,172243  	40,698972  	59,369790  	22,406172  	21,076196  	22,120674  	63,650092  	0,042413  	0,021491  	-2064,156590  	-1,993477  	-0,011068  	-0,049998  	0,326916  	0,165651  	-3,621595  	9296,057613  	7171,630552  	1,040157  	-0,047949  
180,544000  	15,339840  	38,288331  	57,725912  	1256,670793  	69,803971  	64,586835  	0,004290  	0,008335  	0,003966  	0,004050  	0,004356  	-0,000001  	-0,000000  	22,336271  	18,932291  	20,212415  	22,839684  	30,098933  	28,207395  	29,803011  	31,507157  	38,855866  	37,174648  	40,706404  	59,371293  	22,409717  	21,102373  	22,127753  	63,647127  	0,047474  	0,024055  	-2309,659386  	24495,164626  	-0,018204  	-0,050009  	0,308191  	0,156163  	-3,411156  	9324,018007  	7170,027684  	1,039925  	-0,047959  
181,544000  	15,345263  	38,289719  	1256,818530  	956,927186  	69,807148  	64,589914  	0,004287  	0,008326  	0,003964  	0,004101  	0,004355  	-0,000001  	-0,000000  	22,320542  	18,927387  	20,204716  	22,850825  	30,086823  	28,202385  	29,789622  	31,514980  	38,841113  	37,167343  	40,694263  	59,379859  	22,404407  	21,128202  	22,118881  	63,645583  	0,088570  	0,044879  	-4308,283935  	-4421,818097  	-0,012274  	-0,050015  	0,307548  	0,155837  	-3,404100  	9304,495323  	7118,262809  	1,032417  	-0,047964  
182,545000  	15,344160  	38,296444  	1256,818530  	-242,047242  	69,808519  	64,578346  	0,004291  	0,008320  	0,003965  	0,004067  	0,004343  	-0,000000  	-0,000000  	22,319066  	18,920564  	20,192074  	22,835771  	30,083329  	28,197163  	29,785951  	31,498507  	38,832183  	37,156429  	40,695298  	59,358682  	22,390589  	21,125923  	22,111498  	63,634554  	0,061047  	0,030933  	-2970,475125  	-35511,658862  	-0,021696  	-0,050003  	0,297947  	0,150972  	-3,306004  	9292,591835  	7192,926810  	1,043246  	-0,047954  
183,543000  	15,348113  	38,300979  	1256,818530  	657,183579  	69,809796  	64,580150  	0,004291  	0,008326  	0,003964  	0,004094  	0,004340  	0,000001  	-0,000000  	22,335216  	18,920761  	20,218375  	22,857159  	30,109394  	28,207017  	29,790510  	31,512387  	38,845514  	37,175253  	40,696640  	59,369211  	22,410449  	21,164090  	22,129282  	63,658964  	0,083027  	0,042071  	-4040,132429  	-9724,692046  	-0,013763  	-0,049991  	0,295675  	0,149821  	-3,280464  	9304,073685  	7196,605639  	1,043779  	-0,047944  
184,543000  	15,354547  	38,298264  	57,725912  	1256,670793  	69,808363  	64,586991  	0,004291  	0,008330  	0,003966  	0,004050  	0,004340  	-0,000000  	-0,000000  	22,323197  	18,917166  	20,203444  	22,843814  	30,091071  	28,192856  	29,787611  	31,501571  	38,846137  	37,167558  	40,688030  	59,360277  	22,389041  	21,161989  	22,131845  	63,648753  	0,047321  	0,023978  	-2301,744498  	24493,598923  	-0,018203  	-0,050006  	0,295288  	0,149625  	-3,270995  	9313,102113  	7188,365343  	1,042584  	-0,047956  
185,544000  	15,363923  	38,300640  	-242,047242  	1256,670793  	69,808986  	64,594827  	0,004289  	0,008335  	0,003966  	0,004053  	0,004381  	0,000001  	-0,000000  	22,327141  	18,931287  	20,203565  	22,850378  	30,096112  	28,200071  	29,794228  	31,506917  	38,836420  	37,161466  	40,693641  	59,366214  	22,401240  	21,172664  	22,123770  	63,649677  	0,049461  	0,025062  	-2405,114111  	35504,971326  	-0,021694  	-0,049994  	0,327831  	0,166114  	-3,626469  	9324,363948  	7160,777652  	1,038583  	-0,047946  
186,546000  	15,368457  	38,304095  	357,499067  	1256,670793  	69,812100  	64,592775  	0,004289  	0,008344  	0,003967  	0,004029  	0,004396  	-0,000001  	-0,000000  	22,329990  	18,921327  	20,200400  	22,837810  	30,092811  	28,199759  	29,796048  	31,508664  	38,842016  	37,166413  	40,686208  	59,358316  	22,384728  	21,185464  	22,119243  	63,645306  	0,030247  	0,015326  	-1470,700622  	16233,032193  	-0,015678  	-0,050007  	0,339778  	0,172168  	-3,762349  	9343,693499  	7146,704893  	1,036542  	-0,047957  
187,543000  	15,372410  	38,306686  	1256,818530  	1256,670793  	69,811789  	64,590411  	0,004288  	0,008324  	0,003968  	0,004040  	0,004386  	0,000000  	-0,000000  	22,334053  	18,925680  	20,207265  	22,846213  	30,092590  	28,200627  	29,802232  	31,509708  	38,843573  	37,169368  	40,694879  	59,364159  	22,392826  	21,190404  	22,127481  	63,655444  	0,039301  	0,019914  	-1910,865939  	-1,993525  	-0,011068  	-0,049999  	0,332141  	0,168298  	-3,679226  	9299,529759  	7122,202899  	1,032988  	-0,047951  
188,544000  	15,375780  	38,307797  	1256,818530  	1256,670793  	69,814717  	64,588172  	0,004290  	0,008331  	0,003964  	0,004071  	0,004292  	0,000000  	-0,000000  	22,328271  	18,920474  	20,207989  	22,851002  	30,091985  	28,203375  	29,790685  	31,512149  	38,845596  	37,161105  	40,683818  	59,378057  	22,397594  	21,210470  	22,123037  	63,655870  	0,063880  	0,032369  	-3105,592744  	-1,993436  	-0,011068  	-0,049997  	0,257346  	0,130399  	-2,853520  	9314,550963  	7182,017420  	1,041664  	-0,047948  
189,544000  	15,381081  	38,308414  	-242,047242  	57,696365  	69,818454  	64,594485  	0,004288  	0,008325  	0,003967  	0,004030  	0,004414  	0,000000  	-0,000000  	22,348832  	18,934797  	20,213640  	22,857167  	30,101772  	28,206505  	29,812335  	31,512726  	38,856115  	37,167435  	40,703825  	59,374116  	22,389587  	21,224738  	22,130735  	63,661682  	0,030584  	0,015497  	-1486,566220  	27697,624045  	-0,093562  	-0,049997  	0,354526  	0,179641  	-3,929151  	9303,533904  	7126,312455  	1,033584  	-0,047948  
190,544000  	15,378936  	38,308290  	357,499067  	657,183579  	69,817208  	64,595480  	0,004287  	0,008334  	0,003965  	0,004109  	0,004383  	-0,000001  	-0,000000  	22,344310  	18,931931  	20,221414  	22,858323  	30,103526  	28,205429  	29,808395  	31,514642  	38,855450  	37,172516  	40,696996  	59,376478  	22,399899  	21,245447  	22,131558  	63,665009  	0,095210  	0,048244  	-4628,195852  	7101,789976  	-0,021701  	-0,050013  	0,329254  	0,166836  	-3,647500  	9321,055223  	7119,703272  	1,032626  	-0,047962  
191,544000  	15,374616  	38,305514  	357,499067  	657,183579  	69,815931  	64,604840  	0,004290  	0,008327  	0,003964  	0,004044  	0,004298  	0,000000  	-0,000000  	22,331816  	18,928399  	20,205460  	22,852454  	30,093161  	28,200647  	29,796483  	31,506666  	38,844057  	37,169580  	40,685975  	59,367480  	22,390568  	21,244845  	22,125611  	63,652636  	0,042247  	0,021407  	-2053,778860  	7099,469993  	-0,021694  	-0,049995  	0,262365  	0,132942  	-2,900582  	9306,188242  	7180,478102  	1,041440  	-0,047947  
192,546000  	15,369101  	38,306624  	-242,047242  	1256,670793  	69,815869  	64,606021  	0,004290  	0,008354  	0,003968  	0,003992  	0,004353  	-0,000000  	-0,000000  	22,331915  	18,926865  	20,215884  	22,862707  	30,101802  	28,202437  	29,796434  	31,513315  	38,844395  	37,167656  	40,697465  	59,369991  	22,397371  	21,254617  	22,130565  	63,654282  	-0,000028  	-0,000014  	1,385032  	35511,591713  	-0,021698  	-0,050004  	0,305505  	0,154801  	-3,376704  	9364,725873  	7168,897909  	1,039761  	-0,047955  
193,543000  	15,369101  	38,307426  	-242,047242  	57,696365  	69,813533  	64,604156  	0,004290  	0,008308  	0,003964  	0,004086  	0,004318  	0,000001  	-0,000000  	22,334126  	18,932839  	20,217242  	22,854133  	30,102761  	28,205933  	29,799347  	31,517409  	38,848134  	37,168801  	40,693363  	59,370061  	22,404157  	21,248747  	22,131915  	63,655778  	0,076549  	0,038788  	-3722,553957  	27694,776156  	-0,093552  	-0,049991  	0,278306  	0,141020  	-3,075808  	9266,762976  	7183,246051  	1,041842  	-0,047944  
194,543000  	15,372900  	38,309401  	357,499067  	657,183579  	69,812225  	64,609007  	0,004290  	0,008335  	0,003965  	0,004044  	0,004386  	-0,000001  	-0,000000  	22,333741  	18,930283  	20,210296  	22,852176  	30,096300  	28,208531  	29,802565  	31,513982  	38,844985  	37,172598  	40,693029  	59,363032  	22,402468  	21,234447  	22,128541  	63,657188  	0,042505  	0,021538  	-2066,850977  	7102,346315  	-0,021702  	-0,050017  	0,332225  	0,168341  	-3,667368  	9324,333528  	7168,777871  	1,039743  	-0,047966  
195,544000  	15,371889  	38,312547  	1256,818530  	-242,047242  	69,814405  	64,605897  	0,004290  	0,008329  	0,003965  	0,004089  	0,004353  	-0,000000  	-0,000000  	22,338710  	18,927410  	20,213139  	22,857046  	30,098126  	28,204569  	29,803017  	31,517952  	38,839456  	37,172852  	40,695359  	59,366087  	22,409840  	21,234856  	22,124306  	63,654850  	0,079033  	0,040047  	-3843,730402  	-35513,031849  	-0,021697  	-0,050005  	0,306189  	0,155148  	-3,383399  	9310,855972  	7173,501742  	1,040428  	-0,047956  
196,547000  	15,364106  	38,313041  	57,725912  	956,927186  	69,818205  	64,596071  	0,004290  	0,008324  	0,003966  	0,004069  	0,004368  	0,000001  	-0,000000  	22,343216  	18,929146  	20,214895  	22,853474  	30,094798  	28,201434  	29,803084  	31,518149  	38,840635  	37,168780  	40,692282  	59,366605  	22,410262  	21,223947  	22,122397  	63,647405  	0,062471  	0,031654  	-3039,329830  	21300,346661  	-0,021692  	-0,049989  	0,317697  	0,160980  	-3,519747  	9299,968375  	7165,904006  	1,039327  	-0,047942  
197,543000  	15,343792  	38,309216  	1256,818530  	57,696365  	69,816243  	64,590722  	0,004289  	0,008334  	0,003965  	0,004058  	0,004261  	0,000002  	-0,000000  	22,342858  	18,927814  	20,217465  	22,862166  	30,095471  	28,209826  	29,805667  	31,518776  	38,844883  	37,167369  	40,689158  	59,364939  	22,415186  	21,205039  	22,126638  	63,654241  	0,053754  	0,027238  	-2617,121338  	-24484,615748  	-0,018193  	-0,049980  	0,232835  	0,117979  	-2,581239  	9320,925052  	7146,789626  	1,036554  	-0,047934  
198,547000  	15,329085  	38,316558  	657,272221  	1256,670793  	69,815682  	64,598185  	0,004291  	0,008331  	0,003967  	0,004078  	0,004305  	0,000001  	-0,000000  	22,338872  	18,925355  	20,214653  	22,863613  	30,098451  	28,211895  	29,800202  	31,516268  	38,843722  	37,164382  	40,684708  	59,363399  	22,417411  	21,192584  	22,124775  	63,662173  	0,069854  	0,035396  	-3404,269562  	9720,163315  	-0,013762  	-0,049986  	0,267718  	0,135655  	-2,963396  	9314,389665  	7186,444726  	1,042306  	-0,047940  
199,544000  	15,317228  	38,325905  	657,272221  	1256,670793  	69,814872  	64,606177  	0,004289  	0,008323  	0,003964  	0,004077  	0,004351  	0,000000  	-0,000000  	22,338080  	18,924951  	20,214110  	22,854253  	30,098189  	28,203823  	29,798892  	31,512045  	38,843954  	37,164204  	40,690531  	59,360286  	22,405633  	21,175404  	22,121014  	63,657800  	0,069230  	0,035079  	-3376,933700  	9721,991679  	-0,013765  	-0,049997  	0,304015  	0,154047  	-3,359498  	9298,658185  	7149,253948  	1,036912  	-0,047949  
200,543000  	15,311039  	38,329977  	57,725912  	57,696365  	69,811322  	64,610033  	0,004290  	0,008329  	0,003968  	0,004024  	0,004369  	-0,000001  	-0,000000  	22,345312  	18,930868  	20,228904  	22,869161  	30,109985  	28,207778  	29,810410  	31,528960  	38,852011  	37,177382  	40,698358  	59,370891  	22,413815  	21,163377  	22,128754  	63,657341  	0,026482  	0,013419  	-1292,360016  	-1,525390  	-0,051192  	-0,050013  	0,318749  	0,161513  	-3,517312  	9310,132962  	7168,975581  	1,039772  	-0,047963  
201,543000  	15,314961  	38,328589  	-242,047242  	956,927186  	69,809142  	64,595387  	0,004290  	0,008340  	0,003965  	0,004062  	0,004375  	0,000001  	-0,000000  	22,343105  	18,933330  	20,217912  	22,864498  	30,097301  	28,210559  	29,805857  	31,523015  	38,855806  	37,180461  	40,692361  	59,366638  	22,394436  	21,143254  	22,124568  	63,651105  	0,057045  	0,028905  	-2783,199539  	34183,774947  	-0,026846  	-0,049984  	0,323021  	0,163677  	-3,572988  	9334,198157  	7171,679980  	1,040164  	-0,047938  
202,542000  	15,314287  	38,330193  	357,499067  	357,439972  	69,810200  	64,597190  	0,004291  	0,008314  	0,003964  	0,004024  	0,004304  	0,000001  	-0,000000  	22,348087  	18,933373  	20,221690  	22,859726  	30,101706  	28,212920  	29,816261  	31,525928  	38,848481  	37,176847  	40,688505  	59,367895  	22,390515  	21,124553  	22,124586  	63,664841  	0,026304  	0,013329  	-1283,503760  	-1,684815  	-0,026845  	-0,049986  	0,267145  	0,135365  	-2,954515  	9277,898886  	7202,671118  	1,044659  	-0,047939  
203,542000  	15,313459  	38,333895  	1256,818530  	1256,670793  	69,808955  	64,602694  	0,004291  	0,008334  	0,003964  	0,004041  	0,004245  	0,000001  	-0,000000  	22,347067  	18,946050  	20,226455  	22,867300  	30,110836  	28,225198  	29,817434  	31,533817  	38,850906  	37,182751  	40,685170  	59,370457  	22,393375  	21,115889  	22,130009  	63,664332  	0,039567  	0,020049  	-1931,023422  	-1,992897  	-0,011065  	-0,049981  	0,220375  	0,111666  	-2,434103  	9322,356216  	7205,601472  	1,045084  	-0,047935  
204,544000  	15,309660  	38,335992  	1256,818530  	1256,670793  	69,803971  	64,600517  	0,004291  	0,008329  	0,003965  	0,004108  	0,004308  	-0,000000  	-0,000000  	22,356462  	18,939407  	20,226935  	22,865228  	30,109108  	28,218941  	29,817102  	31,530514  	38,855786  	37,181363  	40,699011  	59,369146  	22,386402  	21,106576  	22,127623  	63,656317  	0,094114  	0,047688  	-4594,307820  	-1,993751  	-0,011069  	-0,050005  	0,270219  	0,136922  	-2,983034  	9310,085563  	7187,849884  	1,042509  	-0,047956  
205,546000  	15,301878  	38,334913  	957,045375  	1256,670793  	69,800794  	64,595604  	0,004291  	0,008329  	0,003967  	0,004062  	0,004384  	-0,000000  	-0,000000  	22,348336  	18,940551  	20,231751  	22,871946  	30,119692  	28,218613  	29,810713  	31,535803  	38,852678  	37,177155  	40,692390  	59,368615  	22,389046  	21,098474  	22,132405  	63,657455  	0,057044  	0,028904  	-2785,472819  	4416,824593  	-0,012271  	-0,050001  	0,330725  	0,167581  	-3,652192  	9311,998497  	7198,639234  	1,044074  	-0,047952  
206,547000  	15,295260  	38,328866  	357,499067  	1256,670793  	69,801791  	64,597532  	0,004290  	0,008333  	0,003965  	0,004077  	0,004368  	0,000001  	-0,000000  	22,340719  	18,933543  	20,211456  	22,857152  	30,099691  	28,221689  	29,798482  	31,509941  	38,842456  	37,162157  	40,683850  	59,358780  	22,355224  	21,059984  	22,114911  	63,655220  	0,068881  	0,034902  	-3363,566701  	16227,853493  	-0,015673  	-0,049989  	0,318074  	0,161170  	-3,511855  	9320,487143  	7174,264340  	1,040539  	-0,047942  
207,546000  	15,291032  	38,325905  	1256,818530  	1256,670793  	69,804656  	64,593148  	0,004291  	0,008329  	0,003967  	0,004088  	0,004277  	0,000001  	-0,000000  	22,355623  	18,944326  	20,227035  	22,872196  	30,114202  	28,210619  	29,813394  	31,528825  	38,841895  	37,166657  	40,693769  	59,370777  	22,365988  	21,054992  	22,118119  	63,661370  	0,078317  	0,039684  	-3824,585664  	-1,993300  	-0,011067  	-0,049993  	0,245339  	0,124315  	-2,712566  	9310,294259  	7200,538668  	1,044350  	-0,047945  
208,545000  	15,290909  	38,324424  	57,725912  	57,696365  	69,807771  	64,585996  	0,004292  	0,008321  	0,003964  	0,004086  	0,004345  	-0,000000  	-0,000000  	22,344747  	18,940987  	20,219118  	22,862522  	30,109442  	28,213048  	29,810308  	31,528253  	38,865371  	37,185790  	40,691149  	59,371422  	22,354000  	21,042769  	22,134102  	63,660723  	0,076556  	0,038792  	-3738,358978  	-1,525132  	-0,051183  	-0,050004  	0,299342  	0,151679  	-3,316158  	9292,879058  	7221,107633  	1,047333  	-0,047955  
209,544000  	15,291767  	38,324208  	1256,818530  	956,927186  	69,807522  	64,590411  	0,004290  	0,008325  	0,003968  	0,004076  	0,004363  	0,000001  	-0,000000  	22,339567  	18,929994  	20,217612  	22,861713  	30,107490  	28,214105  	29,814348  	31,520801  	38,845902  	37,174501  	40,695002  	59,354123  	22,343122  	21,009657  	22,123915  	63,658694  	0,068565  	0,034742  	-3347,973101  	-4419,883860  	-0,012268  	-0,049990  	0,313391  	0,158797  	-3,468691  	9303,269319  	7179,814359  	1,041344  	-0,047943  
210,544000  	15,283739  	38,321802  	657,272221  	357,439972  	69,805965  	64,594267  	0,004287  	0,008324  	0,003967  	0,004069  	0,004346  	-0,000000  	-0,000000  	22,343663  	18,935883  	20,233422  	22,872827  	30,105528  	28,212660  	29,801884  	31,522584  	38,859476  	37,190941  	40,686348  	59,363466  	22,340092  	21,013289  	22,124658  	63,656832  	0,062581  	0,031710  	-3056,520517  	-7104,253671  	-0,021698  	-0,050006  	0,300159  	0,152093  	-3,318797  	9300,641864  	7112,084352  	1,031521  	-0,047956  
211,543000  	15,272066  	38,318748  	657,272221  	357,439972  	69,801978  	64,585156  	0,004291  	0,008327  	0,003967  	0,004045  	0,004306  	0,000001  	-0,000000  	22,351915  	18,941247  	20,226673  	22,870365  	30,114789  	28,220849  	29,820375  	31,526716  	38,852970  	37,180138  	40,704506  	59,372230  	22,334976  	21,013131  	22,126933  	63,666353  	0,042883  	0,021729  	-2095,262031  	-7101,943506  	-0,021690  	-0,049987  	0,268997  	0,136303  	-2,977163  	9307,238799  	7200,383324  	1,044327  	-0,047941  
212,543000  	15,260668  	38,316033  	1256,818530  	-242,047242  	69,800296  	64,587271  	0,004290  	0,008333  	0,003966  	0,004052  	0,004348  	-0,000001  	-0,000000  	22,349352  	18,944131  	20,232053  	22,877341  	30,115511  	28,224794  	29,819997  	31,536258  	38,853467  	37,177645  	40,700145  	59,375951  	22,337828  	20,999079  	22,123902  	63,660905  	0,049041  	0,024849  	-2397,013866  	-35513,905569  	-0,021697  	-0,050007  	0,301651  	0,152849  	-3,336141  	9320,663297  	7173,784186  	1,040469  	-0,047957  
213,544000  	15,249761  	38,314182  	1256,818530  	-242,047242  	69,795095  	64,586400  	0,004290  	0,008334  	0,003965  	0,004090  	0,004304  	0,000000  	-0,000000  	22,349926  	18,943927  	20,230160  	22,866107  	30,107217  	28,220839  	29,811282  	31,531744  	38,858410  	37,180899  	40,696705  	59,367919  	22,318514  	20,990604  	22,123122  	63,659530  	0,079800  	0,040435  	-3902,024978  	-35506,983424  	-0,021693  	-0,049996  	0,267354  	0,135470  	-2,954365  	9321,856052  	7170,783221  	1,040034  	-0,047948  
214,544000  	15,245349  	38,317946  	1256,818530  	357,439972  	69,790049  	64,589074  	0,004289  	0,008346  	0,003966  	0,004080  	0,004358  	-0,000000  	-0,000000  	22,352886  	18,940848  	20,225760  	22,878022  	30,109137  	28,211162  	29,820319  	31,540006  	38,855687  	37,184119  	40,693803  	59,363760  	22,323590  	20,992834  	22,115434  	63,663698  	0,071242  	0,036099  	-3484,783930  	-16235,417717  	-0,015676  	-0,050004  	0,309546  	0,156849  	-3,415535  	9347,052453  	7143,626256  	1,036095  	-0,047955  
215,545000  	15,240110  	38,322203  	1256,818530  	1256,670793  	69,788710  	64,585467  	0,004290  	0,008313  	0,003965  	0,004047  	0,004343  	-0,000000  	-0,000000  	22,349642  	18,947964  	20,240580  	22,873979  	30,115542  	28,229506  	29,817502  	31,542120  	38,867186  	37,195626  	40,698351  	59,372985  	22,320494  	21,007039  	22,132474  	63,663709  	0,045003  	0,022803  	-2202,210319  	-1,993680  	-0,011069  	-0,050003  	0,298227  	0,151114  	-3,292079  	9276,607089  	7180,117986  	1,041388  	-0,047954  
216,544000  	15,242255  	38,320044  	1256,818530  	1256,670793  	69,791139  	64,585778  	0,004288  	0,008334  	0,003964  	0,004103  	0,004368  	-0,000001  	-0,000000  	22,352694  	18,942399  	20,227163  	22,868857  	30,110454  	28,220897  	29,811275  	31,521855  	38,854654  	37,184880  	40,698414  	59,364049  	22,316064  	21,008993  	22,130708  	63,655379  	0,090002  	0,045604  	-4403,392986  	-1,993932  	-0,011070  	-0,050010  	0,317804  	0,161034  	-3,509620  	9321,891424  	7121,906333  	1,032945  	-0,047960  
217,546000  	15,233523  	38,316126  	957,045375  	57,696365  	69,788834  	64,577724  	0,004293  	0,008334  	0,003962  	0,004117  	0,004335  	-0,000000  	-0,000000  	22,351770  	18,949597  	20,230906  	22,865788  	30,108140  	28,220262  	29,812570  	31,523074  	38,857886  	37,180483  	40,690571  	59,370689  	22,323041  	21,016172  	22,131655  	63,662816  	0,101792  	0,051579  	-4981,309964  	-21309,020129  	-0,021697  	-0,050006  	0,291940  	0,147928  	-3,227543  	9322,349142  	7244,091492  	1,050667  	-0,047956  
218,543000  	15,222064  	38,311622  	357,499067  	1256,670793  	69,784910  	64,584254  	0,004291  	0,008314  	0,003966  	0,004090  	0,004316  	0,000001  	-0,000000  	22,343705  	18,940173  	20,219511  	22,859744  	30,098831  	28,213271  	29,809999  	31,517886  	38,845301  	37,175687  	40,692593  	59,367011  	22,313852  	21,015565  	22,125128  	63,655916  	0,079832  	0,040451  	-3907,824437  	16227,329323  	-0,015672  	-0,049987  	0,276313  	0,140010  	-3,048654  	9278,832007  	7199,055839  	1,044135  	-0,047940  
219,544000  	15,212137  	38,310141  	357,499067  	1256,670793  	69,786280  	64,582078  	0,004291  	0,008330  	0,003964  	0,004088  	0,004342  	-0,000001  	-0,000000  	22,350774  	18,948793  	20,228334  	22,869267  	30,114350  	28,221295  	29,815282  	31,531046  	38,853618  	37,189024  	40,696130  	59,375219  	22,318697  	21,033027  	22,136024  	63,666531  	0,077992  	0,039519  	-3819,164574  	16233,187899  	-0,015678  	-0,050007  	0,297490  	0,150740  	-3,284543  	9313,454421  	7194,437884  	1,043465  	-0,047958  
220,544000  	15,206438  	38,308475  	957,045375  	57,696365  	69,787775  	64,574739  	0,004290  	0,008315  	0,003964  	0,004137  	0,004313  	-0,000000  	-0,000000  	22,352989  	18,956375  	20,236156  	22,873410  	30,114903  	28,232237  	29,819650  	31,532093  	38,860123  	37,196998  	40,695981  	59,378700  	22,318805  	21,057115  	22,139998  	63,675332  	0,117873  	0,059727  	-5773,108798  	-21307,097852  	-0,021695  	-0,050001  	0,274131  	0,138904  	-3,031774  	9280,931707  	7172,033035  	1,040215  	-0,047952  
221,544000  	15,209502  	38,305853  	57,725912  	57,696365  	69,791201  	64,571661  	0,004291  	0,008303  	0,003966  	0,004090  	0,004337  	0,000001  	-0,000000  	22,349785  	18,949805  	20,228813  	22,868830  	30,104991  	28,229833  	29,820262  	31,528100  	38,852140  	37,184726  	40,696042  	59,370120  	22,317054  	21,072416  	22,131772  	63,674666  	0,079873  	0,040472  	-3911,009091  	-1,524761  	-0,051171  	-0,049990  	0,293420  	0,148678  	-3,249155  	9253,968105  	7187,567440  	1,042469  	-0,047943  
222,544000  	15,220103  	38,298264  	1256,818530  	1256,670793  	69,795749  	64,574521  	0,004290  	0,008323  	0,003966  	0,004092  	0,004362  	0,000000  	-0,000000  	22,345352  	18,947473  	20,218746  	22,862003  	30,103058  	28,221449  	29,812001  	31,527710  	38,852955  	37,174924  	40,688631  	59,363125  	22,312958  	21,081093  	22,123235  	63,668865  	0,080968  	0,041027  	-3961,492065  	-1,993344  	-0,011067  	-0,049994  	0,313001  	0,158600  	-3,467108  	9298,208957  	7173,833613  	1,040477  	-0,047946  
223,545000  	15,226353  	38,297524  	357,499067  	1256,670793  	69,796932  	64,583477  	0,004290  	0,008321  	0,003966  	0,004048  	0,004385  	-0,000000  	-0,000000  	22,347942  	18,946334  	20,218417  	22,864854  	30,103779  	28,216612  	29,805793  	31,523991  	38,853579  	37,178659  	40,687149  	59,360772  	22,306409  	21,086398  	22,122217  	63,666014  	0,045730  	0,023172  	-2236,725419  	16231,885200  	-0,015676  	-0,050003  	0,331568  	0,168008  	-3,667311  	9292,991542  	7180,972379  	1,041512  	-0,047954  
224,544000  	15,221267  	38,302151  	-242,047242  	57,696365  	69,797244  	64,571225  	0,004289  	0,008328  	0,003965  	0,004078  	0,004380  	-0,000001  	-0,000000  	22,349456  	18,942416  	20,229323  	22,870485  	30,105093  	28,216719  	29,807774  	31,526752  	38,853589  	37,181150  	40,690736  	59,367511  	22,309835  	21,093827  	22,126698  	63,668833  	0,069692  	0,035313  	-3410,188541  	27708,374623  	-0,093598  	-0,050018  	0,327599  	0,165997  	-3,632138  	9308,921106  	7160,904751  	1,038601  	-0,047967  
225,545000  	15,216212  	38,302244  	957,045375  	956,927186  	69,798272  	64,570230  	0,004290  	0,008331  	0,003967  	0,004055  	0,004338  	-0,000000  	-0,000000  	22,338166  	18,942864  	20,227049  	22,859952  	30,099038  	28,216142  	29,808934  	31,527336  	38,857556  	37,179514  	40,687024  	59,373680  	22,310666  	21,099158  	22,125475  	63,670365  	0,051590  	0,026141  	-2525,005788  	-1,917231  	-0,013767  	-0,050004  	0,293588  	0,148763  	-3,256313  	9315,864690  	7176,693356  	1,040891  	-0,047955  
226,545000  	15,214557  	38,293730  	357,499067  	-242,047242  	69,800576  	64,578564  	0,004289  	0,008325  	0,003968  	0,004059  	0,004356  	0,000000  	-0,000000  	22,340045  	18,944600  	20,222139  	22,857789  	30,099094  	28,213743  	29,816899  	31,528858  	38,852073  	37,181904  	40,693232  	59,368459  	22,315575  	21,101035  	22,128979  	63,681651  	0,054470  	0,027600  	-2665,155544  	-30942,937339  	-0,051177  	-0,050000  	0,308355  	0,156246  	-3,416157  	9302,440192  	7158,518102  	1,038255  	-0,047951  
227,544000  	15,212168  	38,287529  	357,499067  	-242,047242  	69,800234  	64,583228  	0,004288  	0,008307  	0,003966  	0,004077  	0,004339  	0,000000  	-0,000000  	22,340248  	18,939842  	20,232219  	22,856837  	30,104869  	28,209318  	29,813932  	31,531499  	38,854797  	37,176440  	40,690123  	59,366637  	22,322836  	21,104212  	22,131468  	63,678415  	0,069349  	0,035140  	-3392,609739  	-30940,030129  	-0,051172  	-0,049995  	0,295139  	0,149549  	-3,266608  	9264,206266  	7142,468237  	1,035927  	-0,047947  
228,544000  	15,219214  	38,285493  	957,045375  	956,927186  	69,797306  	64,583415  	0,004289  	0,008328  	0,003968  	0,004050  	0,004357  	0,000000  	-0,000000  	22,347129  	18,932940  	20,224362  	22,849774  	30,104024  	28,206613  	29,814978  	31,522732  	38,854669  	37,178775  	40,690227  	59,366955  	22,319945  	21,095373  	22,133183  	63,674967  	0,047067  	0,023849  	-2301,654886  	-1,916959  	-0,013765  	-0,049996  	0,308783  	0,156463  	-3,415584  	9307,962517  	7161,504944  	1,038688  	-0,047948  
229,546000  	15,224331  	38,280218  	1256,818530  	-242,047242  	69,796278  	64,579901  	0,004288  	0,008340  	0,003966  	0,004079  	0,004353  	0,000000  	-0,000000  	22,338923  	18,929024  	20,220165  	22,857974  	30,100241  	28,205415  	29,807142  	31,518927  	38,849505  	37,180664  	40,690695  	59,364238  	22,326349  	21,092165  	22,128414  	63,679956  	0,070965  	0,035958  	-3468,710858  	-35509,178124  	-0,021694  	-0,049999  	0,305968  	0,155036  	-3,386053  	9334,054545  	7125,302719  	1,033438  	-0,047951  
230,542000  	15,219613  	38,280033  	657,272221  	357,439972  	69,798272  	64,575858  	0,004289  	0,008302  	0,003965  	0,004059  	0,004364  	0,000001  	-0,000000  	22,343774  	18,933703  	20,221324  	22,851956  	30,087873  	28,217672  	29,801195  	31,522568  	38,854214  	37,179323  	40,680973  	59,367999  	22,323341  	21,088265  	22,136210  	63,676430  	0,054346  	0,027538  	-2656,948793  	-7102,117250  	-0,021691  	-0,049989  	0,314605  	0,159412  	-3,485659  	9253,747382  	7155,093472  	1,037759  	-0,047942  
231,545000  	15,216580  	38,282161  	657,272221  	357,439972  	69,798240  	64,570759  	0,004289  	0,008305  	0,003964  	0,004074  	0,004375  	0,000001  	-0,000000  	22,333852  	18,924643  	20,210908  	22,839818  	30,087220  	28,203003  	29,805725  	31,507968  	38,842801  	37,172435  	40,685088  	59,362715  	22,327888  	21,081762  	22,128547  	63,670482  	0,066351  	0,033621  	-3244,585377  	-7101,902931  	-0,021690  	-0,049987  	0,323259  	0,163797  	-3,585014  	9258,411574  	7158,468674  	1,038248  	-0,047940  
232,542000  	15,219398  	38,282161  	1256,818530  	956,927186  	69,796372  	64,571505  	0,004288  	0,008316  	0,003966  	0,004047  	0,004351  	-0,000001  	-0,000000  	22,342476  	18,932291  	20,225129  	22,860458  	30,105482  	28,209060  	29,817099  	31,528039  	38,845103  	37,168630  	40,691615  	59,374316  	22,334989  	21,077761  	22,130359  	63,674766  	0,044816  	0,022709  	-2191,239239  	-4421,203673  	-0,012272  	-0,050007  	0,304463  	0,154274  	-3,374884  	9283,125498  	7130,746822  	1,034227  	-0,047958  
233,543000  	15,221574  	38,276917  	57,725912  	1256,670793  	69,797399  	64,576636  	0,004290  	0,008320  	0,003964  	0,004093  	0,004346  	-0,000000  	-0,000000  	22,343107  	18,928814  	20,218358  	22,845920  	30,095347  	28,210892  	29,808357  	31,513599  	38,850689  	37,189247  	40,684529  	59,372284  	22,319643  	21,062269  	22,133631  	63,677221  	0,082068  	0,041585  	-4011,362137  	24491,710396  	-0,018202  	-0,050001  	0,300463  	0,152247  	-3,327923  	9290,970368  	7173,304031  	1,040400  	-0,047953  
234,544000  	15,226292  	38,275868  	1256,818530  	657,183579  	69,797088  	64,578688  	0,004288  	0,008326  	0,003967  	0,004000  	0,004350  	-0,000000  	-0,000000  	22,342164  	18,936773  	20,235124  	22,859541  	30,105792  	28,208409  	29,810727  	31,526671  	38,844218  	37,180796  	40,683339  	59,376281  	22,332416  	21,046391  	22,143964  	63,679920  	0,006258  	0,003171  	-305,816068  	-9727,204140  	-0,013767  	-0,050006  	0,303742  	0,153908  	-3,362726  	9304,260451  	7139,333111  	1,035473  	-0,047956  
235,547000  	15,232083  	38,279848  	1256,818530  	-242,047242  	69,802071  	64,571661  	0,004290  	0,008310  	0,003965  	0,004059  	0,004316  	0,000000  	-0,000000  	22,329587  	18,929724  	20,214231  	22,845629  	30,087382  	28,204638  	29,801681  	31,515622  	38,841668  	37,172313  	40,669904  	59,373340  	22,319908  	21,002850  	22,132378  	63,674743  	0,054456  	0,027594  	-2660,861369  	-35509,180724  	-0,021694  	-0,049999  	0,276804  	0,140259  	-3,071543  	9270,810275  	7184,291093  	1,041993  	-0,047951  
236,543000  	15,237352  	38,280835  	1256,818530  	-242,047242  	69,803442  	64,572096  	0,004290  	0,008310  	0,003966  	0,004070  	0,004407  	-0,000002  	-0,000000  	22,333824  	18,926851  	20,212063  	22,851009  	30,091403  	28,196490  	29,796411  	31,507754  	38,840629  	37,171054  	40,677475  	59,365084  	22,341814  	20,975449  	22,134974  	63,686082  	0,063020  	0,031933  	-3078,723188  	-35522,988608  	-0,021703  	-0,050021  	0,348711  	0,176694  	-3,870146  	9271,192296  	7177,914925  	1,041069  	-0,047969  
237,544000  	15,244062  	38,273061  	1256,818530  	956,927186  	69,801262  	64,576387  	0,004290  	0,008314  	0,003965  	0,004079  	0,004383  	0,000000  	-0,000000  	22,330865  	18,927212  	20,219486  	22,836829  	30,094793  	28,198955  	29,799203  	31,517814  	38,833936  	37,173153  	40,672070  	59,369831  	22,343502  	20,955703  	22,124369  	63,678438  	0,070329  	0,035636  	-3433,644201  	-4420,361997  	-0,012270  	-0,049996  	0,329507  	0,166964  	-3,652496  	9278,856060  	7179,101189  	1,041241  	-0,047948  
238,544000  	15,240447  	38,265596  	1256,818530  	-242,047242  	69,802071  	64,575268  	0,004290  	0,008306  	0,003965  	0,004063  	0,004366  	0,000000  	-0,000000  	22,335078  	18,922775  	20,203178  	22,833704  	30,084931  	28,201232  	29,804324  	31,514036  	38,831513  	37,165473  	40,681895  	59,361699  	22,336978  	20,920596  	22,131294  	63,681008  	0,057925  	0,029351  	-2827,569081  	-35506,481556  	-0,021693  	-0,049995  	0,316213  	0,160228  	-3,506430  	9260,722801  	7177,201755  	1,040965  	-0,047947  
239,545000  	15,237322  	38,261802  	1256,818530  	657,183579  	69,803784  	64,572469  	0,004289  	0,008328  	0,003964  	0,004034  	0,004372  	0,000001  	-0,000000  	22,319047  	18,919692  	20,203375  	22,841195  	30,082372  	28,193263  	29,798295  	31,507024  	38,840615  	37,158059  	40,669420  	59,361906  	22,345071  	20,909086  	22,131063  	63,681322  	0,033853  	0,017154  	-1652,479260  	-9724,621533  	-0,013763  	-0,049991  	0,320831  	0,162567  	-3,560698  	9309,757308  	7147,813484  	1,036703  	-0,047944  
240,543000  	15,234197  	38,260444  	1256,818530  	57,696365  	69,805591  	64,571909  	0,004290  	0,008311  	0,003964  	0,004053  	0,004377  	-0,000000  	-0,000000  	22,313701  	18,905908  	20,187258  	22,830920  	30,071027  	28,190080  	29,781818  	31,498189  	38,833188  	37,149453  	40,663156  	59,348536  	22,336074  	20,883521  	22,123988  	63,663382  	0,049636  	0,025151  	-2423,045405  	-24494,574057  	-0,018201  	-0,050003  	0,324454  	0,164403  	-3,602543  	9271,843854  	7164,258771  	1,039088  	-0,047954  
241,547000  	15,237996  	38,264023  	957,045375  	1256,670793  	69,804843  	64,571598  	0,004290  	0,008315  	0,003964  	0,004044  	0,004377  	0,000000  	-0,000000  	22,321188  	18,912045  	20,209200  	22,838031  	30,085032  	28,191023  	29,788436  	31,506076  	38,834036  	37,156998  	40,667996  	59,357626  	22,349957  	20,889996  	22,125137  	63,667464  	0,042518  	0,021544  	-2075,559411  	4416,752790  	-0,012270  	-0,050000  	0,325120  	0,164741  	-3,609631  	9281,324340  	7185,590334  	1,042182  	-0,047951  
242,543000  	15,244675  	38,262233  	357,499067  	1256,670793  	69,805217  	64,580181  	0,004291  	0,008312  	0,003966  	0,004080  	0,004337  	0,000000  	-0,000000  	22,320013  	18,919658  	20,202787  	22,833906  	30,081100  	28,200340  	29,790189  	31,506716  	38,842267  	37,158182  	40,675923  	59,358558  	22,359407  	20,892345  	22,127928  	63,675226  	0,071734  	0,036348  	-3500,481830  	16230,172438  	-0,015675  	-0,049997  	0,292770  	0,148349  	-3,245372  	9274,550543  	7204,415208  	1,044912  	-0,047949  
243,545000  	15,242745  	38,264177  	357,499067  	1256,670793  	69,801604  	64,576885  	0,004290  	0,008333  	0,003966  	0,004030  	0,004366  	-0,000001  	-0,000000  	22,312004  	18,905413  	20,190181  	22,829676  	30,074879  	28,186948  	29,786195  	31,484740  	38,834266  	37,153325  	40,668785  	59,351346  	22,350899  	20,879669  	22,113480  	63,669488  	0,030549  	0,015479  	-1490,966108  	16235,497335  	-0,015680  	-0,050015  	0,316235  	0,160238  	-3,505269  	9320,040037  	7178,472752  	1,041149  	-0,047965  
244,544000  	15,240294  	38,265658  	957,045375  	1256,670793  	69,802414  	64,573962  	0,004292  	0,008309  	0,003965  	0,004063  	0,004301  	0,000001  	-0,000000  	22,305897  	18,909379  	20,196173  	22,828629  	30,078834  	28,186319  	29,783950  	31,490451  	38,829664  	37,153897  	40,664810  	59,359203  	22,354180  	20,884140  	22,118242  	63,668796  	0,057353  	0,029061  	-2799,673330  	4415,596177  	-0,012267  	-0,049985  	0,264480  	0,134014  	-2,933688  	9269,041660  	7226,198681  	1,048072  	-0,047939  
245,544000  	15,251232  	38,260660  	1256,818530  	57,696365  	69,803504  	64,569111  	0,004291  	0,008332  	0,003966  	0,004087  	0,004325  	0,000000  	-0,000000  	22,313001  	18,906180  	20,193429  	22,828664  	30,078979  	28,184416  	29,787368  	31,497831  	38,829371  	37,156395  	40,665773  	59,358754  	22,351498  	20,875537  	22,121470  	63,668159  	0,076746  	0,038888  	-3743,719849  	-24492,477287  	-0,018199  	-0,049998  	0,283467  	0,143635  	-3,147875  	9317,583784  	7198,900495  	1,044112  	-0,047950  
246,544000  	15,259872  	38,256095  	657,272221  	657,183579  	69,801511  	64,578191  	0,004291  	0,008330  	0,003965  	0,004111  	0,004370  	-0,000000  	-0,000000  	22,316221  	18,905643  	20,196279  	22,835798  	30,078902  	28,184472  	29,790988  	31,505860  	38,827182  	37,151338  	40,669219  	59,362175  	22,357500  	20,872157  	22,119222  	63,669334  	0,096576  	0,048936  	-4708,344129  	-1,810680  	-0,018201  	-0,050000  	0,319385  	0,161835  	-3,539240  	9312,927374  	7190,264777  	1,042860  	-0,047952  
247,544000  	15,264743  	38,257946  	-242,047242  	657,183579  	69,804034  	64,587861  	0,004290  	0,008307  	0,003967  	0,004088  	0,004354  	-0,000001  	-0,000000  	22,311837  	18,911237  	20,196735  	22,827045  	30,072972  	28,185255  	29,789923  	31,503203  	38,829388  	37,147116  	40,664631  	59,363149  	22,354849  	20,868364  	22,120391  	63,670207  	0,077726  	0,039385  	-3788,875529  	32749,656277  	-0,035232  	-0,050010  	0,306285  	0,155197  	-3,389433  	9264,434063  	7166,716031  	1,039444  	-0,047960  
248,544000  	15,276999  	38,255848  	957,045375  	1256,670793  	69,807148  	64,585063  	0,004289  	0,008325  	0,003964  	0,004093  	0,004344  	0,000001  	-0,000000  	22,309135  	18,906857  	20,190303  	22,819518  	30,073099  	28,182236  	29,780847  	31,494636  	38,829076  	37,147242  	40,662355  	59,356590  	22,347651  	20,863379  	22,122072  	63,665488  	0,082039  	0,041570  	-3996,604233  	4416,152813  	-0,012269  	-0,049992  	0,298489  	0,151246  	-3,306901  	9303,465282  	7157,331838  	1,038083  	-0,047945  
249,544000  	15,287048  	38,252547  	1256,818530  	1256,670793  	69,808176  	64,577973  	0,004291  	0,008320  	0,003964  	0,004033  	0,004326  	0,000000  	-0,000000  	22,309426  	18,905145  	20,190023  	22,823381  	30,074833  	28,182488  	29,776277  	31,492461  	38,825941  	37,151108  	40,666138  	59,353016  	22,340429  	20,866111  	22,122887  	63,662817  	0,033539  	0,016994  	-1632,908713  	-1,993394  	-0,011067  	-0,049995  	0,284456  	0,144136  	-3,156331  	9290,859299  	7191,641691  	1,043059  	-0,047947  
250,544000  	15,293238  	38,255879  	1256,818530  	1256,670793  	69,809235  	64,569639  	0,004290  	0,008306  	0,003965  	0,004043  	0,004348  	-0,000001  	-0,000000  	22,309018  	18,903531  	20,183887  	22,820346  	30,068788  	28,182157  	29,780795  	31,490405  	38,818944  	37,151926  	40,665796  	59,348314  	22,328077  	20,864170  	22,123852  	63,661009  	0,041472  	0,021014  	-2018,900578  	-1,993902  	-0,011070  	-0,050010  	0,301573  	0,152809  	-3,352271  	9262,064826  	7179,842604  	1,041348  	-0,047960  
251,546000  	15,296271  	38,262449  	357,499067  	1256,670793  	69,804999  	64,572500  	0,004291  	0,008335  	0,003965  	0,004029  	0,004386  	-0,000001  	-0,000000  	22,305177  	18,898537  	20,178578  	22,822731  	30,069559  	28,182199  	29,780976  	31,494889  	38,813807  	37,148123  	40,664342  	59,352697  	22,328845  	20,865828  	22,123455  	63,657988  	0,030021  	0,015212  	-1461,701607  	16233,023873  	-0,015678  	-0,050007  	0,332232  	0,168345  	-3,688073  	9323,667821  	7201,145922  	1,044438  	-0,047957  
252,543000  	15,297619  	38,265596  	957,045375  	1256,670793  	69,805684  	64,578222  	0,004290  	0,008325  	0,003966  	0,004056  	0,004381  	-0,000001  	-0,000000  	22,302073  	18,904626  	20,187190  	22,823262  	30,066047  	28,184043  	29,783331  	31,496736  	38,821179  	37,148282  	40,659449  	59,363599  	22,323646  	20,868328  	22,119366  	63,659762  	0,052232  	0,026466  	-2543,325325  	4417,318806  	-0,012272  	-0,050007  	0,327854  	0,166126  	-3,635973  	9303,111559  	7180,979440  	1,041513  	-0,047957  
253,543000  	15,299304  	38,268619  	1256,818530  	1256,670793  	69,806681  	64,578035  	0,004290  	0,008310  	0,003966  	0,004071  	0,004363  	-0,000000  	-0,000000  	22,303140  	18,898442  	20,187965  	22,817490  	30,064611  	28,179493  	29,786760  	31,493037  	38,814773  	37,141045  	40,657878  	59,357629  	22,321216  	20,861311  	22,121283  	63,659962  	0,064288  	0,032575  	-3130,542376  	-1,993744  	-0,011069  	-0,050005  	0,313896  	0,159053  	-3,481959  	9269,836122  	7171,905935  	1,040197  	-0,047956  
254,544000  	15,305861  	38,270840  	1256,818530  	657,183579  	69,807491  	64,579901  	0,004290  	0,008355  	0,003966  	0,004056  	0,004350  	0,000000  	-0,000000  	22,307833  	18,895358  	20,188587  	22,822161  	30,065945  	28,182174  	29,777809  	31,494974  	38,822271  	37,144559  	40,657336  	59,361620  	22,330598  	20,861314  	22,127613  	63,666475  	0,051974  	0,026336  	-2530,431267  	-9725,472668  	-0,013764  	-0,049996  	0,303712  	0,153893  	-3,368309  	9367,816705  	7180,901768  	1,041502  	-0,047948  
255,545000  	15,311744  	38,270285  	1256,818530  	657,183579  	69,814966  	64,582451  	0,004288  	0,008312  	0,003965  	0,004072  	0,004358  	-0,000001  	-0,000000  	22,305134  	18,888272  	20,174326  	22,812286  	30,059176  	28,177373  	29,773126  	31,485161  	38,812643  	37,137680  	40,655463  	59,352792  	22,321221  	20,848137  	22,114127  	63,654900  	0,064816  	0,032843  	-3154,751039  	-9727,715533  	-0,013767  	-0,050009  	0,309722  	0,156938  	-3,438203  	9274,046134  	7137,751426  	1,035243  	-0,047959  
256,543000  	15,312540  	38,265226  	1256,818530  	57,696365  	69,811291  	64,584752  	0,004289  	0,008336  	0,003963  	0,004077  	0,004427  	-0,000000  	-0,000000  	22,300482  	18,894701  	20,190299  	22,822306  	30,075005  	28,177677  	29,785443  	31,494330  	38,814026  	37,148114  	40,663080  	59,355609  	22,335293  	20,838411  	22,125650  	63,653229  	0,068877  	0,034901  	-3351,588263  	-24494,904087  	-0,018201  	-0,050003  	0,364768  	0,184831  	-4,044643  	9326,807467  	7160,163337  	1,038494  	-0,047954  
257,546000  	15,305003  	38,256496  	957,045375  	1256,670793  	69,803566  	64,587364  	0,004289  	0,008314  	0,003966  	0,004033  	0,004379  	0,000001  	-0,000000  	22,293306  	18,895129  	20,178335  	22,813143  	30,064829  	28,182186  	29,772778  	31,487799  	38,808550  	37,140085  	40,656336  	59,352855  	22,325993  	20,833459  	22,129834  	63,658818  	0,033043  	0,016743  	-1607,813130  	4416,091360  	-0,012269  	-0,049992  	0,326189  	0,165282  	-3,609711  	9279,528842  	7160,184520  	1,038497  	-0,047944  
258,544000  	15,289622  	38,255077  	357,499067  	657,183579  	69,804376  	64,585747  	0,004289  	0,008324  	0,003965  	0,004031  	0,004350  	-0,000000  	-0,000001  	22,304554  	18,892997  	20,182292  	22,815668  	30,059366  	28,168316  	29,777556  	31,481940  	38,806010  	37,142904  	40,656979  	59,357244  	22,323669  	20,817871  	22,124771  	63,654431  	0,031554  	0,015989  	-1536,279513  	7100,199993  	-0,021696  	-0,050000  	0,303722  	0,153898  	-3,362650  	9301,258757  	7162,535864  	1,038838  	-0,047952  
259,546000  	15,282269  	38,261740  	1256,818530  	-242,047242  	69,807304  	64,589323  	0,004291  	0,008335  	0,003964  	0,004114  	0,004347  	-0,000000  	-0,000000  	22,305902  	18,901899  	20,201071  	22,830197  	30,073046  	28,186159  	29,781751  	31,493116  	38,818167  	37,156439  	40,656883  	59,372174  	22,346553  	20,845527  	22,141842  	63,659905  	0,099177  	0,050254  	-4831,627896  	-35512,392162  	-0,021696  	-0,050004  	0,301295  	0,152668  	-3,335368  	9324,853501  	7189,509240  	1,042750  	-0,047955  
260,543000  	15,279634  	38,268095  	1256,818530  	-242,047242  	69,806681  	64,592806  	0,004293  	0,008322  	0,003964  	0,004078  	0,004278  	0,000000  	-0,000000  	22,302518  	18,895388  	20,175643  	22,816143  	30,066358  	28,177715  	29,770895  	31,482476  	38,812844  	37,143446  	40,664664  	59,358736  	22,324058  	20,829448  	22,117567  	63,662627  	0,070230  	0,035586  	-3422,730619  	-35506,148710  	-0,021692  	-0,049995  	0,246233  	0,124768  	-2,723687  	9296,233767  	7230,611865  	1,048712  	-0,047947  
261,544000  	15,276907  	38,272475  	1256,818530  	1256,670793  	69,806370  	64,586089  	0,004288  	0,008308  	0,003964  	0,004070  	0,004390  	-0,000001  	-0,000000  	22,294297  	18,887144  	20,182175  	22,818962  	30,066863  	28,179427  	29,768242  	31,488023  	38,808336  	37,146228  	40,655060  	59,359578  	22,338336  	20,843513  	22,119822  	63,645984  	0,063719  	0,032287  	-3106,384921  	-1,993833  	-0,011070  	-0,050008  	0,334935  	0,169714  	-3,709397  	9265,796604  	7141,543234  	1,035793  	-0,047958  
262,545000  	15,275988  	38,281421  	657,272221  	1256,670793  	69,812536  	64,580616  	0,004291  	0,008334  	0,003965  	0,004035  	0,004356  	-0,000001  	-0,000000  	22,304207  	18,898418  	20,172768  	22,807579  	30,060184  	28,183323  	29,772132  	31,484215  	38,817012  	37,143972  	40,655015  	59,358456  	22,316982  	20,844578  	22,123994  	63,652826  	0,035099  	0,017785  	-1711,837767  	9724,598239  	-0,013768  	-0,050012  	0,308155  	0,156145  	-3,420422  	9322,711354  	7190,469549  	1,042889  	-0,047961  
263,543000  	15,273138  	38,276146  	657,272221  	1256,670793  	69,817395  	64,586680  	0,004290  	0,008327  	0,003965  	0,004055  	0,004342  	-0,000000  	-0,000000  	22,297313  	18,895400  	20,177298  	22,819033  	30,063728  	28,177699  	29,774333  	31,483444  	38,801055  	37,134458  	40,647525  	59,346057  	22,320601  	20,841044  	22,125274  	63,646759  	0,051199  	0,025943  	-2496,824260  	9723,345866  	-0,013767  	-0,050004  	0,297011  	0,150498  	-3,295965  	9306,800183  	7166,002861  	1,039341  	-0,047955  
264,543000  	15,273629  	38,266768  	57,725912  	57,696365  	69,816025  	64,588856  	0,004291  	0,008318  	0,003966  	0,004020  	0,004316  	-0,000001  	-0,000000  	22,305823  	18,907329  	20,186194  	22,823230  	30,061543  	28,183458  	29,770255  	31,488543  	38,823789  	37,157426  	40,661337  	59,363416  	22,330617  	20,869927  	22,125634  	63,658101  	0,023073  	0,011691  	-1124,719827  	-1,525388  	-0,051192  	-0,050013  	0,276677  	0,140194  	-3,068242  	9287,459313  	7197,389421  	1,043893  	-0,047963  
265,544000  	15,282054  	38,265072  	57,725912  	1256,670793  	69,810574  	64,590318  	0,004289  	0,008325  	0,003967  	0,004094  	0,004328  	-0,000000  	-0,000000  	22,307069  	18,898283  	20,184100  	22,817314  	30,068586  	28,170983  	29,784141  	31,485838  	38,820829  	37,138125  	40,659126  	59,355009  	22,325732  	20,869842  	22,126465  	63,651079  	0,083134  	0,042125  	-4050,673484  	24492,510285  	-0,018202  	-0,050003  	0,286424  	0,145133  	-3,172133  	9303,300447  	7151,068648  	1,037175  	-0,047954  
266,545000  	15,281625  	38,272969  	1256,818530  	657,183579  	69,803535  	64,590131  	0,004288  	0,008332  	0,003967  	0,004061  	0,004372  	-0,000000  	-0,000000  	22,291328  	18,890845  	20,179292  	22,819136  	30,055925  	28,164010  	29,770346  	31,476825  	38,811877  	37,138829  	40,643552  	59,353423  	22,310263  	20,876985  	22,119540  	63,651001  	0,055993  	0,028372  	-2729,220997  	-9726,240470  	-0,013765  	-0,050000  	0,320623  	0,162462  	-3,546216  	9317,770550  	7126,714938  	1,033643  	-0,047952  
267,546000  	15,281901  	38,278336  	357,499067  	657,183579  	69,796558  	64,586307  	0,004288  	0,008318  	0,003966  	0,004044  	0,004339  	0,000000  	-0,000000  	22,298173  	18,896429  	20,171960  	22,809583  	30,054030  	28,174498  	29,773249  	31,480013  	38,812757  	37,142903  	40,652462  	59,353879  	22,309493  	20,884058  	22,123387  	63,647978  	0,042544  	0,021558  	-2074,164062  	7100,081966  	-0,021696  	-0,049999  	0,295021  	0,149489  	-3,261071  	9286,335888  	7137,440738  	1,035198  	-0,047951  
268,544000  	15,283127  	38,278706  	-242,047242  	57,696365  	69,793132  	64,582700  	0,004289  	0,008319  	0,003967  	0,004079  	0,004322  	0,000001  	-0,000000  	22,301235  	18,900446  	20,188095  	22,819747  	30,063905  	28,177157  	29,775298  	31,493010  	38,814082  	37,148170  	40,661262  	59,357613  	22,327267  	20,892241  	22,124069  	63,652298  	0,070435  	0,035690  	-3433,801206  	27694,940457  	-0,093553  	-0,049991  	0,281543  	0,142660  	-3,112203  	9289,182652  	7145,264430  	1,036333  	-0,047944  
269,547000  	15,299794  	38,273925  	57,725912  	57,696365  	69,796901  	64,577413  	0,004289  	0,008333  	0,003966  	0,004087  	0,004322  	-0,000000  	-0,000000  	22,309018  	18,903419  	20,189716  	22,823481  	30,068725  	28,179948  	29,783872  	31,492826  	38,818671  	37,151818  	40,663855  	59,366298  	22,328276  	20,911114  	22,132866  	63,659830  	0,076943  	0,038988  	-3747,557783  	-1,525141  	-0,051183  	-0,050004  	0,280921  	0,142345  	-3,110720  	9319,461346  	7150,284867  	1,037061  	-0,047955  
270,544000  	15,314930  	38,274604  	657,272221  	1256,670793  	69,798334  	64,578160  	0,004290  	0,008332  	0,003966  	0,004046  	0,004350  	0,000001  	-0,000000  	22,301659  	18,894406  	20,181306  	22,816791  	30,064504  	28,178075  	29,774286  	31,482082  	38,806834  	37,140255  	40,656685  	59,359719  	22,318320  	20,917666  	22,127941  	63,645229  	0,044004  	0,022297  	-2141,914147  	9719,746094  	-0,013762  	-0,049984  	0,303521  	0,153796  	-3,361413  	9317,443003  	7173,699453  	1,040457  	-0,047937  
271,544000  	15,322284  	38,277565  	657,272221  	1256,670793  	69,799922  	64,578595  	0,004287  	0,008335  	0,003965  	0,004073  	0,004357  	-0,000000  	-0,000000  	22,299523  	18,891179  	20,173654  	22,816561  	30,059428  	28,173633  	29,765855  	31,476105  	38,804149  	37,135649  	40,651936  	59,352363  	22,311714  	20,932470  	22,124692  	63,637211  	0,065859  	0,033371  	-3205,060107  	9722,956413  	-0,013766  	-0,050002  	0,308856  	0,156500  	-3,421259  	9324,724746  	7110,382629  	1,031274  	-0,047953  
272,544000  	15,322467  	38,280465  	1256,818530  	57,696365  	69,803598  	64,583135  	0,004291  	0,008309  	0,003967  	0,004013  	0,004350  	0,000001  	-0,000000  	22,306594  	18,892742  	20,174219  	22,820305  	30,061144  	28,173288  	29,770305  	31,482625  	38,808693  	37,143868  	40,650109  	59,350755  	22,309726  	20,960314  	22,126829  	63,640861  	0,017300  	0,008766  	-842,019038  	-24489,718664  	-0,018197  	-0,049992  	0,303162  	0,153614  	-3,357628  	9267,526310  	7192,305433  	1,043156  	-0,047944  
273,559000  	15,317381  	38,282748  	57,725912  	-242,047242  	69,805217  	64,583228  	0,004290  	0,008346  	0,003966  	0,004051  	0,004292  	0,000000  	-0,000000  	22,305457  	18,895006  	20,180480  	22,819360  	30,064981  	28,178320  	29,775770  	31,493040  	38,811861  	37,148035  	40,656152  	59,360900  	22,314865  	20,984450  	22,127834  	63,644381  	0,047905  	0,024274  	-2332,370162  	-27699,638440  	-0,093559  	-0,050000  	0,257242  	0,130346  	-2,849880  	9348,509085  	7185,336134  	1,042145  	-0,047951  
274,545000  	15,317259  	38,284043  	657,272221  	357,439972  	69,801542  	64,590069  	0,004289  	0,008324  	0,003967  	0,004039  	0,004354  	-0,000001  	-0,000000  	22,310561  	18,898567  	20,188485  	22,818361  	30,067404  	28,187591  	29,780729  	31,493259  	38,816232  	37,148143  	40,665437  	59,365759  	22,320535  	20,996682  	22,133394  	63,650954  	0,037836  	0,019172  	-1842,232147  	-7104,808714  	-0,021699  	-0,050010  	0,306743  	0,155429  	-3,391441  	9299,990306  	7146,782565  	1,036553  	-0,047960  
275,548000  	15,315604  	38,283118  	657,272221  	357,439972  	69,796060  	64,587364  	0,004289  	0,008329  	0,003966  	0,004048  	0,004346  	-0,000000  	-0,000000  	22,310234  	18,895493  	20,188036  	22,820659  	30,066390  	28,184433  	29,777832  	31,487615  	38,810080  	37,145193  	40,659930  	59,360167  	22,319992  	21,009509  	22,133610  	63,649701  	0,045860  	0,023238  	-2233,018201  	-7104,287484  	-0,021698  	-0,050006  	0,300022  	0,152023  	-3,315361  	9310,640200  	7148,230089  	1,036763  	-0,047956  
276,544000  	15,319771  	38,280465  	57,725912  	956,927186  	69,794254  	64,579590  	0,004288  	0,008321  	0,003966  	0,004093  	0,004347  	0,000001  	-0,000000  	22,303172  	18,896647  	20,181761  	22,821276  	30,064432  	28,178917  	29,774713  	31,487934  	38,803693  	37,141442  	40,657330  	59,361641  	22,317755  	21,025510  	22,131335  	63,647371  	0,081840  	0,041469  	-3983,753886  	21301,468379  	-0,021693  	-0,049992  	0,300866  	0,152451  	-3,328499  	9293,928200  	7138,810590  	1,035397  	-0,047945  
277,546000  	15,331414  	38,281699  	957,045375  	57,696365  	69,796154  	64,582513  	0,004289  	0,008324  	0,003967  	0,004063  	0,004350  	0,000000  	-0,000000  	22,318735  	18,903491  	20,187098  	22,826101  	30,068729  	28,186422  	29,783529  	31,492749  	38,813475  	37,146587  	40,668842  	59,363500  	22,320447  	21,035010  	22,137441  	63,656517  	0,057435  	0,029103  	-2794,510039  	-21305,793450  	-0,021694  	-0,049997  	0,303463  	0,153767  	-3,356570  	9299,367046  	7151,619414  	1,037255  	-0,047949  
278,543000  	15,344405  	38,281082  	357,499067  	1256,670793  	69,803816  	64,587115  	0,004291  	0,008345  	0,003966  	0,004064  	0,004366  	0,000001  	-0,000000  	22,323743  	18,900573  	20,192109  	22,830657  	30,071344  	28,185957  	29,785123  	31,494700  	38,817235  	37,150060  	40,664350  	59,359279  	22,323572  	21,041175  	22,139086  	63,652230  	0,058793  	0,029791  	-2858,851467  	16228,721166  	-0,015673  	-0,049992  	0,316369  	0,160306  	-3,501374  	9344,611057  	7199,959659  	1,044266  	-0,047945  
279,543000  	15,350012  	38,281452  	1256,818530  	357,439972  	69,806120  	64,588825  	0,004290  	0,008332  	0,003966  	0,004089  	0,004362  	0,000001  	-0,000000  	22,310877  	18,907473  	20,187676  	22,821177  	30,067585  	28,189276  	29,789365  	31,492816  	38,814553  	37,146946  	40,663118  	59,355009  	22,318352  	21,036792  	22,143883  	63,647816  	0,078555  	0,039804  	-3818,920784  	-16232,073549  	-0,015673  	-0,049993  	0,313133  	0,158667  	-3,465958  	9316,550913  	7184,813613  	1,042069  	-0,047945  
280,544000  	15,351054  	38,284537  	1256,818530  	-242,047242  	69,805497  	64,582171  	0,004291  	0,008323  	0,003967  	0,004062  	0,004347  	-0,000000  	-0,000000  	22,311684  	18,906501  	20,192598  	22,830082  	30,069598  	28,182463  	29,795236  	31,497192  	38,814801  	37,149930  	40,676748  	59,358986  	22,320339  	21,036337  	22,135714  	63,653669  	0,057021  	0,028893  	-2772,333252  	-35510,356084  	-0,021695  	-0,050001  	0,301285  	0,152663  	-3,338672  	9298,460100  	7193,456392  	1,043323  	-0,047952  
281,545000  	15,348511  	38,290552  	1256,818530  	956,927186  	69,806961  	64,585654  	0,004287  	0,008332  	0,003966  	0,004051  	0,004363  	-0,000000  	-0,000000  	22,314201  	18,909285  	20,202363  	22,828380  	30,068964  	28,184138  	29,786953  	31,495257  	38,812287  	37,153423  	40,671857  	59,364628  	22,313478  	21,040209  	22,128122  	63,650936  	0,047691  	0,024166  	-2319,578084  	-4420,924949  	-0,012271  	-0,050004  	0,313624  	0,158916  	-3,474069  	9316,862189  	7109,535298  	1,031151  	-0,047954  
282,543000  	15,355619  	38,293267  	657,272221  	-242,047242  	69,805653  	64,586586  	0,004290  	0,008315  	0,003967  	0,004062  	0,004330  	0,000001  	-0,000000  	22,319552  	18,903707  	20,191739  	22,831684  	30,064385  	28,188062  	29,792487  	31,490978  	38,814085  	37,150371  	40,679254  	59,363024  	22,318782  	21,037000  	22,132501  	63,658982  	0,056886  	0,028825  	-2766,259326  	-32737,965953  	-0,035215  	-0,049990  	0,287376  	0,145616  	-3,181950  	9280,785266  	7182,462269  	1,041728  	-0,047942  
283,544000  	15,365455  	38,297987  	657,272221  	-242,047242  	69,800888  	64,593739  	0,004291  	0,008334  	0,003966  	0,004097  	0,004362  	-0,000001  	-0,000000  	22,302802  	18,903381  	20,196455  	22,828956  	30,071179  	28,180592  	29,779077  	31,497267  	38,810413  	37,144970  	40,662871  	59,361689  	22,323067  	21,032263  	22,128018  	63,645411  	0,085269  	0,043206  	-4145,521853  	-32748,696271  	-0,035227  	-0,050008  	0,313305  	0,158754  	-3,461125  	9321,251185  	7186,218771  	1,042273  	-0,047958  
284,544000  	15,369438  	38,297678  	1256,818530  	956,927186  	69,797275  	64,599149  	0,004289  	0,008328  	0,003963  	0,004052  	0,004348  	-0,000000  	-0,000000  	22,316748  	18,902286  	20,190449  	22,824296  	30,064548  	28,187287  	29,786442  	31,489178  	38,805384  	37,144641  	40,668502  	59,355898  	22,304211  	21,033274  	22,130656  	63,647609  	0,048615  	0,024633  	-2363,066617  	-4420,837868  	-0,012271  	-0,050002  	0,301546  	0,152796  	-3,325450  	9309,141830  	7150,807388  	1,037137  	-0,047954  
285,546000  	15,360859  	38,298018  	1256,818530  	1256,670793  	69,794721  	64,580585  	0,004292  	0,008338  	0,003966  	0,004070  	0,004357  	0,000001  	-0,000000  	22,316690  	18,900308  	20,188965  	22,826845  	30,071571  	28,177185  	29,781094  	31,489369  	38,805564  	37,134349  	40,663340  	59,352031  	22,296112  	21,031990  	22,127403  	63,640923  	0,063274  	0,032061  	-3076,812963  	-1,993243  	-0,011067  	-0,049991  	0,308794  	0,156468  	-3,415861  	9330,122560  	7213,057987  	1,046166  	-0,047944  
286,545000  	15,349154  	38,298943  	1256,818530  	1256,670793  	69,798521  	64,580958  	0,004290  	0,008327  	0,003966  	0,004060  	0,004358  	-0,000000  	-0,000000  	22,321174  	18,909924  	20,190407  	22,838268  	30,074102  	28,189371  	29,775186  	31,510384  	38,826219  	37,155473  	40,671947  	59,360315  	22,282447  	21,033865  	22,138156  	63,665549  	0,055563  	0,028154  	-2703,339926  	-1,993621  	-0,011069  	-0,050002  	0,309988  	0,157073  	-3,431327  	9307,821735  	7172,287234  	1,040252  	-0,047953  
287,544000  	15,347867  	38,297925  	1256,818530  	1256,670793  	69,799362  	64,590784  	0,004289  	0,008336  	0,003963  	0,004070  	0,004350  	-0,000000  	-0,000000  	22,315057  	18,908196  	20,184096  	22,836824  	30,068307  	28,188117  	29,789318  	31,483734  	38,808402  	37,148803  	40,663535  	59,353580  	22,260712  	21,022060  	22,138619  	63,653893  	0,063450  	0,032151  	-3087,117890  	-1,993668  	-0,011069  	-0,050003  	0,303388  	0,153729  	-3,352489  	9326,112048  	7144,600687  	1,036237  	-0,047954  
288,544000  	15,354302  	38,292496  	1256,818530  	57,696365  	69,797617  	64,586804  	0,004292  	0,008313  	0,003965  	0,004060  	0,004365  	0,000000  	-0,000000  	22,305934  	18,916188  	20,206144  	22,839964  	30,075391  	28,185887  	29,787312  	31,494551  	38,818052  	37,149492  	40,670137  	59,369152  	22,263431  	21,026115  	22,140672  	63,648136  	0,055495  	0,028120  	-2698,665127  	-24491,693465  	-0,018199  	-0,049996  	0,315590  	0,159912  	-3,488819  	9275,742590  	7219,024611  	1,047031  	-0,047948  
289,546000  	15,362176  	38,290707  	1256,818530  	956,927186  	69,792260  	64,591593  	0,004288  	0,008345  	0,003967  	0,004062  	0,004347  	-0,000001  	-0,000000  	22,323261  	18,907185  	20,190440  	22,826487  	30,073997  	28,189230  	29,790026  	31,495423  	38,815103  	37,148052  	40,664189  	59,367167  	22,245941  	21,011003  	22,137832  	63,654753  	0,056866  	0,028814  	-2764,176270  	-4421,267123  	-0,012272  	-0,050008  	0,301187  	0,152614  	-3,323115  	9346,111550  	7123,650423  	1,033198  	-0,047958  
290,544000  	15,367691  	38,291509  	1256,818530  	357,439972  	69,795313  	64,591469  	0,004290  	0,008328  	0,003965  	0,004048  	0,004414  	-0,000001  	-0,000000  	22,325554  	18,910190  	20,197780  	22,842204  	30,075486  	28,184612  	29,781722  	31,497497  	38,807818  	37,153965  	40,666688  	59,358284  	22,244043  	21,004012  	22,125814  	63,656966  	0,045668  	0,023140  	-2219,408792  	-16238,988952  	-0,015680  	-0,050016  	0,353940  	0,179344  	-3,907546  	9308,788106  	7169,942951  	1,039912  	-0,047965  
291,544000  	15,366404  	38,294655  	1256,818530  	357,439972  	69,802975  	64,592153  	0,004289  	0,008324  	0,003965  	0,004045  	0,004359  	-0,000000  	-0,000000  	22,322868  	18,920964  	20,196000  	22,840372  	30,071408  	28,196815  	29,792447  	31,506574  	38,817899  	37,155496  	40,671790  	59,358527  	22,229726  	21,010929  	22,139079  	63,660302  	0,043271  	0,021926  	-2103,314542  	-16235,628140  	-0,015676  	-0,050005  	0,310960  	0,157566  	-3,437644  	9300,958093  	7149,465780  	1,036942  	-0,047956  
292,544000  	15,361502  	38,294717  	57,725912  	-242,047242  	69,805591  	64,583384  	0,004289  	0,008342  	0,003966  	0,004061  	0,004339  	0,000001  	-0,000000  	22,330143  	18,916462  	20,200787  	22,848069  	30,082873  	28,199672  	29,801177  	31,511165  	38,816156  	37,158348  	40,675930  	59,359669  	22,253433  	21,015514  	22,147619  	63,659434  	0,056449  	0,028603  	-2744,461694  	-27695,620082  	-0,093546  	-0,049991  	0,294942  	0,149449  	-3,267678  	9338,270217  	7151,322848  	1,037212  	-0,047944  
293,545000  	15,350472  	38,288455  	1256,818530  	57,696365  	69,808269  	64,586929  	0,004289  	0,008330  	0,003966  	0,004009  	0,004370  	-0,000001  	-0,000000  	22,322621  	18,925085  	20,203921  	22,842146  	30,077082  	28,202760  	29,801064  	31,510709  	38,819556  	37,155422  	40,669285  	59,364979  	22,255267  	21,024183  	22,149018  	63,665516  	0,014154  	0,007172  	-688,314367  	-24500,808762  	-0,018205  	-0,050017  	0,319426  	0,161856  	-3,538360  	9313,523043  	7145,511568  	1,036369  	-0,047966  
294,543000  	15,339687  	38,289257  	657,272221  	1256,670793  	69,814810  	64,581518  	0,004291  	0,008317  	0,003966  	0,004067  	0,004349  	0,000000  	-0,000000  	22,318906  	18,911564  	20,198023  	22,838148  	30,072670  	28,196692  	29,794675  	31,499975  	38,809660  	37,154815  	40,666888  	59,364121  	22,249889  	21,005298  	22,135647  	63,659764  	0,060619  	0,030716  	-2949,340108  	9722,447347  	-0,013765  	-0,049999  	0,302577  	0,153318  	-3,359384  	9284,458326  	7206,236971  	1,045176  	-0,047951  
295,543000  	15,336561  	38,294624  	657,272221  	357,439972  	69,814094  	64,587955  	0,004291  	0,008336  	0,003966  	0,004115  	0,004318  	-0,000001  	-0,000000  	22,313592  	18,902209  	20,188462  	22,834164  	30,066775  	28,186614  	29,786623  	31,500819  	38,806400  	37,151030  	40,663897  	59,358239  	22,253061  	20,997891  	22,125222  	63,652429  	0,099857  	0,050598  	-4860,174424  	-7105,045401  	-0,021700  	-0,050012  	0,278412  	0,141074  	-3,086873  	9326,229484  	7206,653575  	1,045237  	-0,047961  
296,544000  	15,335213  	38,298758  	57,725912  	-242,047242  	69,813471  	64,596662  	0,004289  	0,008329  	0,003966  	0,004081  	0,004319  	-0,000001  	-0,000000  	22,316233  	18,909607  	20,190704  	22,832333  	30,068629  	28,195054  	29,788585  	31,497463  	38,812247  	37,151267  	40,667145  	59,345856  	22,253183  	21,002902  	22,128083  	63,649105  	0,071856  	0,036410  	-3498,181502  	-27705,342438  	-0,093579  	-0,050011  	0,278693  	0,141216  	-3,084474  	9312,175359  	7144,007555  	1,036151  	-0,047961  
297,547000  	15,334049  	38,295241  	1256,818530  	57,696365  	69,813502  	64,594547  	0,004292  	0,008333  	0,003963  	0,004051  	0,004308  	0,000002  	-0,000000  	22,323288  	18,914874  	20,200549  	22,836970  	30,076761  	28,197408  	29,792533  	31,507261  	38,820067  	37,156745  	40,669977  	59,354689  	22,264305  	20,995147  	22,128938  	63,655986  	0,048204  	0,024425  	-2346,478202  	-24484,777176  	-0,018194  	-0,049980  	0,269835  	0,136727  	-2,987662  	9320,426303  	7221,686643  	1,047417  	-0,047934  
298,544000  	15,338277  	38,299066  	1256,818530  	1256,670793  	69,815620  	64,605368  	0,004292  	0,008339  	0,003963  	0,004128  	0,004308  	-0,000000  	-0,000000  	22,324584  	18,916953  	20,203322  	22,841807  	30,076167  	28,200334  	29,792791  	31,506136  	38,823266  	37,157414  	40,673986  	59,357228  	22,272803  	20,985581  	22,129889  	63,655330  	0,110138  	0,055808  	-5361,223689  	-1,993650  	-0,011069  	-0,050003  	0,270570  	0,137100  	-2,990809  	9333,513349  	7213,065048  	1,046167  	-0,047954  
299,547000  	15,344620  	38,304156  	1256,818530  	1256,670793  	69,817489  	64,602570  	0,004291  	0,008326  	0,003967  	0,004083  	0,004363  	-0,000001  	-0,000000  	22,329526  	18,920704  	20,209202  	22,849116  	30,080350  	28,205636  	29,797929  	31,507508  	38,822652  	37,159955  	40,677719  	59,356640  	22,278320  	20,985753  	22,141003  	63,663055  	0,074114  	0,037554  	-3607,461191  	-1,993877  	-0,011070  	-0,050009  	0,313429  	0,158817  	-3,467661  	9304,262573  	7204,803569  	1,044968  	-0,047959  
300,543000  	15,348664  	38,306316  	1256,818530  	1256,670793  	69,817177  	64,594796  	0,004289  	0,008333  	0,003964  	0,004077  	0,004369  	-0,000000  	-0,000000  	22,332556  	18,925189  	20,211208  	22,850452  	30,082449  	28,201805  	29,799395  	31,512244  	38,822438  	37,161930  	40,680909  	59,358283  	22,282453  	20,980001  	22,140586  	63,666954  	0,069071  	0,034999  	-3361,739225  	-1,993713  	-0,011069  	-0,050004  	0,318744  	0,161510  	-3,531506  	9319,604958  	7154,881639  	1,037728  	-0,047955  
301,544000  	15,341709  	38,314522  	-242,047242  	1256,670793  	69,816772  	64,591126  	0,004290  	0,008316  	0,003963  	0,004076  	0,004334  	0,000000  	-0,000000  	22,330721  	18,929795  	20,203307  	22,846711  	30,078200  	28,198352  	29,797995  	31,504489  	38,821403  	37,161513  	40,680297  	59,353700  	22,277918  	20,971322  	22,133359  	63,656218  	0,068588  	0,034754  	-3340,425455  	35506,003649  	-0,021695  	-0,049995  	0,290947  	0,147425  	-3,225551  	9282,128706  	7182,412842  	1,041721  	-0,047947  
302,543000  	15,338032  	38,313164  	357,499067  	1256,670793  	69,820510  	64,601015  	0,004291  	0,008344  	0,003965  	0,004083  	0,004286  	-0,000001  	-0,000000  	22,332943  	18,928592  	20,203145  	22,848342  	30,081124  	28,198042  	29,801708  	31,507538  	38,818201  	37,162265  	40,673770  	59,357581  	22,278198  	20,973824  	22,138670  	63,653226  	0,074242  	0,037619  	-3616,151571  	16234,892341  	-0,015679  	-0,050013  	0,252979  	0,128186  	-2,801324  	9343,547058  	7206,032199  	1,045147  	-0,047963  
