06/18/2020 15:32:48
Tempo T_f_e T_f_s AR AR T_q_e T_q_s Corrente_P_f Corrente_P_q Corrente_P_RESERVA Corrente_eletromag_f Corrente_eletromag_q AR AR T_1 T_2 T_3 T_4 T_5 T_6 T_7 T_8 T_9 T_10 T_11 T_12 T_13 T_14 T_15 T_16 Velocidade_f_(m/s) Vazao_f_(L/s) q_f_(W) AR AR AR Velocidade_q_(m/s) Vazao_q_(L/s) q_q_(W) DeltaP_q_(Pa) DeltaP_f_(Pa) DeltaP_f_(Psi) AR
0,007000  	24,423860  	30,165740  	23,042261  	1256,670793  	70,474553  	65,472250  	0,010618  	0,011766  	0,003961  	0,004417  	0,004458  	0,000001  	-0,000000  	26,262815  	25,560146  	26,482448  	26,338939  	29,175586  	27,783186  	28,928703  	28,450466  	31,208090  	30,216542  	32,562196  	59,448522  	25,362867  	24,128121  	28,388365  	64,793941  	0,344768  	0,174696  	-4193,586363  	25590,826253  	-0,018541  	-0,049983  	0,389262  	0,197242  	-4,131510  	16722,562619  	143518,842797  	20,815648  	-0,047937  
2,547000  	24,473016  	30,144198  	23,043121  	1256,670793  	70,472497  	65,463541  	0,010622  	0,011765  	0,003963  	0,004356  	0,004453  	-0,000000  	-0,000000  	26,272267  	25,579120  	26,504548  	26,363253  	29,196748  	27,790416  	28,937911  	28,463918  	31,203895  	30,224022  	32,571615  	59,451290  	25,389836  	24,138058  	28,389876  	64,804663  	0,294758  	0,149356  	-3541,135786  	25600,439302  	-0,018548  	-0,050004  	0,384978  	0,195071  	-4,091477  	16720,288887  	143613,002477  	20,829305  	-0,047955  
3,550000  	24,491634  	30,137551  	23,044595  	1256,670793  	70,470628  	65,468455  	0,010629  	0,011766  	0,003965  	0,004430  	0,004459  	0,000000  	-0,000000  	26,262911  	25,564428  	26,492576  	26,356035  	29,197663  	27,777172  	28,942734  	28,470646  	31,195315  	30,213598  	32,573782  	59,453971  	25,388504  	24,122634  	28,380932  	64,795919  	0,355223  	0,179994  	-4248,530126  	25598,027594  	-0,018546  	-0,049999  	0,389510  	0,197367  	-4,134033  	16723,507767  	143756,653359  	20,850140  	-0,047950  
4,547000  	24,504415  	30,145922  	23,047543  	1256,670793  	70,467575  	65,464723  	0,010621  	0,011773  	0,003963  	0,004450  	0,004461  	0,000000  	-0,000000  	26,262960  	25,567225  	26,495626  	26,342867  	29,182417  	27,782557  	28,937138  	28,455518  	31,202369  	30,211368  	32,563414  	59,456128  	25,393929  	24,119589  	28,396090  	64,791529  	0,371005  	0,187991  	-4433,823409  	25598,108078  	-0,018546  	-0,049999  	0,391109  	0,198178  	-4,151572  	16738,358476  	143576,390708  	20,823995  	-0,047951  
5,547000  	24,515107  	30,159308  	23,052579  	1256,670793  	70,467638  	65,464194  	0,010617  	0,011767  	0,003964  	0,004481  	0,004478  	0,000001  	-0,000001  	26,263856  	25,565272  	26,503425  	26,344337  	29,183304  	27,778621  	28,930725  	28,460792  	31,195412  	30,210491  	32,568824  	59,445186  	25,391711  	24,097562  	28,381573  	64,793972  	0,396126  	0,200720  	-4736,294531  	25591,160525  	-0,018542  	-0,049984  	0,404980  	0,205206  	-4,299312  	16725,451829  	143502,574038  	20,813289  	-0,047938  
6,547000  	24,510990  	30,167617  	23,056203  	1256,670793  	70,468634  	65,464878  	0,010628  	0,011742  	0,003963  	0,004448  	0,004439  	0,000001  	-0,000000  	26,270619  	25,566618  	26,500215  	26,346987  	29,192343  	27,783755  	28,940486  	28,461120  	31,207846  	30,218823  	32,570214  	59,447627  	25,397317  	24,102731  	28,395035  	64,800710  	0,369616  	0,187287  	-4429,061732  	25595,204390  	-0,018544  	-0,049993  	0,373669  	0,189341  	-3,967163  	16671,059125  	143734,495648  	20,846926  	-0,047946  
7,546000  	24,508501  	30,175003  	23,059335  	1256,670793  	70,469787  	65,467958  	0,010624  	0,011777  	0,003965  	0,004421  	0,004484  	0,000001  	-0,000000  	26,271103  	25,579919  	26,502606  	26,360841  	29,192228  	27,790394  	28,945868  	28,470670  	31,213638  	30,227605  	32,575320  	59,459897  	25,401526  	24,101238  	28,391894  	64,799566  	0,347387  	0,176023  	-4169,955317  	25594,285392  	-0,018544  	-0,049992  	0,409445  	0,207469  	-4,345317  	16746,603761  	143640,201808  	20,833250  	-0,047944  
8,546000  	24,513294  	30,181465  	23,061239  	1256,670793  	70,470909  	65,471379  	0,010617  	0,011780  	0,003964  	0,004400  	0,004480  	0,000000  	-0,000000  	26,266970  	25,573239  	26,496304  	26,352990  	29,180649  	27,781796  	28,938326  	28,455441  	31,211437  	30,216367  	32,571719  	59,446183  	25,389156  	24,091126  	28,383532  	64,800237  	0,331002  	0,167721  	-3974,441194  	25596,583618  	-0,018546  	-0,049997  	0,406116  	0,205782  	-4,308002  	16753,714302  	143501,797318  	20,813176  	-0,047949  
9,546000  	24,489699  	30,183281  	23,065078  	1256,670793  	70,472124  	65,472032  	0,010628  	0,011776  	0,003963  	0,004409  	0,004490  	0,000001  	-0,000000  	26,257822  	25,560590  	26,485934  	26,341596  	29,175359  	27,777345  	28,932713  	28,448033  	31,200819  	30,202471  	32,565014  	59,439170  	25,383227  	24,082003  	28,383983  	64,794573  	0,337975  	0,171255  	-4076,376311  	25591,005982  	-0,018542  	-0,049985  	0,414122  	0,209839  	-4,393426  	16744,513965  	143726,438941  	20,845758  	-0,047938  
10,551000  	24,488593  	30,186174  	23,068394  	657,183579  	70,471314  	65,466931  	0,010622  	0,011766  	0,003963  	0,004428  	0,004482  	-0,000001  	-0,000000  	26,269370  	25,565579  	26,498417  	26,351648  	29,186561  	27,783870  	28,943643  	28,460052  	31,206863  	30,214177  	32,567085  	59,447235  	25,395863  	24,085716  	28,395775  	64,793373  	0,353129  	0,178933  	-4262,142769  	18538,158059  	-0,027615  	-0,050008  	0,408026  	0,206750  	-4,332464  	16722,172109  	143594,587145  	20,826634  	-0,047958  
11,547000  	24,479284  	30,184327  	23,070882  	-242,047242  	70,474180  	65,469668  	0,010628  	0,011752  	0,003961  	0,004435  	0,004483  	0,000000  	-0,000000  	26,272770  	25,572966  	26,507726  	26,356066  	29,190140  	27,785305  	28,943918  	28,463467  	31,212801  	30,216760  	32,567717  	59,451734  	25,401535  	24,089041  	28,397954  	64,795443  	0,358727  	0,181770  	-4335,373445  	-27033,715646  	-0,103462  	-0,049998  	0,408958  	0,207222  	-4,342473  	16693,616753  	143742,135751  	20,848034  	-0,047950  
12,549000  	24,444567  	30,179711  	23,073645  	956,927186  	70,474865  	65,467242  	0,010618  	0,011792  	0,003964  	0,004404  	0,004441  	-0,000000  	-0,000001  	26,268264  	25,568014  	26,501528  	26,344301  	29,180980  	27,779554  	28,936446  	28,458789  	31,209401  	30,212346  	32,565746  	59,447736  	25,398093  	24,079408  	28,385289  	64,788496  	0,334028  	0,169255  	-4058,188514  	22557,234260  	-0,022191  	-0,050006  	0,375613  	0,190326  	-3,990879  	16779,762469  	143523,446630  	20,816316  	-0,047956  
13,547000  	24,427332  	30,176141  	23,078283  	-242,047242  	70,472715  	65,459093  	0,010612  	0,011774  	0,003963  	0,004413  	0,004501  	-0,000000  	-0,000000  	26,264605  	25,565367  	26,497973  	26,345058  	29,178619  	27,781246  	28,932970  	28,456583  	31,206632  	30,214129  	32,567451  	59,445771  	25,398233  	24,075282  	28,387626  	64,786955  	0,341538  	0,173060  	-4159,319589  	-27036,428749  	-0,103469  	-0,050003  	0,423136  	0,214406  	-4,501194  	16739,097758  	143388,798642  	20,796787  	-0,047954  
14,548000  	24,418053  	30,162909  	23,081231  	357,439972  	70,473525  	65,461706  	0,010624  	0,011772  	0,003964  	0,004435  	0,004456  	0,000000  	-0,000000  	26,265059  	25,569805  	26,503193  	26,357355  	29,188016  	27,789209  	28,938056  	28,460910  	31,209297  	30,218228  	32,568538  	59,449316  	25,405304  	24,079481  	28,393132  	64,789848  	0,359419  	0,182120  	-4374,071600  	12591,462606  	-0,036540  	-0,049998  	0,387171  	0,196183  	-4,117136  	16736,386117  	143647,234657  	20,834270  	-0,047950  
15,551000  	24,427270  	30,148507  	23,082336  	357,439972  	70,470940  	65,463323  	0,010632  	0,011779  	0,003965  	0,004366  	0,004481  	-0,000000  	-0,000000  	26,272368  	25,569263  	26,503484  	26,359480  	29,190751  	27,788465  	28,948169  	28,465376  	31,209403  	30,216241  	32,566739  	59,450713  	25,407080  	24,074786  	28,389312  	64,784502  	0,303268  	0,153668  	-3675,538080  	12592,602185  	-0,036543  	-0,050004  	0,406918  	0,206188  	-4,323494  	16749,923098  	143814,116536  	20,858474  	-0,047955  
16,548000  	24,433968  	30,136997  	23,085161  	956,927186  	70,471002  	65,469855  	0,010625  	0,011745  	0,003963  	0,004459  	0,004463  	-0,000000  	-0,000000  	26,274147  	25,564754  	26,496251  	26,348689  	29,184437  	27,777800  	28,944005  	28,460933  	31,202478  	30,211384  	32,566468  	59,446424  	25,402583  	24,067606  	28,390125  	64,779522  	0,378903  	0,191993  	-4577,609455  	22554,862735  	-0,022189  	-0,050001  	0,393334  	0,199305  	-4,173770  	16676,751944  	143666,045410  	20,836998  	-0,047952  
17,548000  	24,428683  	30,129981  	23,086635  	956,927186  	70,466796  	65,469451  	0,010625  	0,011821  	0,003960  	0,004399  	0,004517  	0,000000  	-0,000000  	26,275176  	25,571178  	26,495727  	26,343604  	29,184852  	27,774714  	28,937227  	28,458534  	31,202672  	30,213231  	32,569524  	59,445029  	25,409257  	24,066254  	28,389772  	64,785874  	0,330283  	0,167357  	-3989,008773  	22552,925552  	-0,022187  	-0,049996  	0,435925  	0,220887  	-4,622197  	16840,813656  	143660,424779  	20,836183  	-0,047948  
18,551000  	24,442386  	30,129796  	23,087987  	357,439972  	70,463432  	65,468891  	0,010621  	0,011750  	0,003964  	0,004416  	0,004502  	-0,000000  	-0,000000  	26,280876  	25,580939  	26,498668  	26,352442  	29,189844  	27,782909  	28,944825  	28,463382  	31,209562  	30,216235  	32,569482  	59,445921  	25,417625  	24,059194  	28,386786  	64,792931  	0,343713  	0,174162  	-4141,095902  	12591,555268  	-0,036541  	-0,050000  	0,423526  	0,214604  	-4,488203  	16688,670997  	143584,461537  	20,825165  	-0,047952  
19,548000  	24,456119  	30,129612  	23,089276  	357,439972  	70,460691  	65,462546  	0,010615  	0,011785  	0,003964  	0,004420  	0,004462  	-0,000001  	-0,000001  	26,270513  	25,569886  	26,497808  	26,349989  	29,192479  	27,782223  	28,939295  	28,461283  	31,205175  	30,220419  	32,564198  	59,441504  	25,414196  	24,053553  	28,382263  	64,784659  	0,347272  	0,175965  	-4173,733519  	12593,113410  	-0,036545  	-0,050007  	0,392316  	0,198789  	-4,160457  	16763,532240  	143448,323658  	20,805420  	-0,047958  
20,548000  	24,459068  	30,131766  	23,089891  	956,927186  	70,456765  	65,453899  	0,010622  	0,011754  	0,003964  	0,004417  	0,004503  	-0,000001  	-0,000000  	26,269323  	25,566040  	26,505571  	26,351063  	29,186988  	27,780427  	28,944671  	28,459761  	31,203767  	30,219340  	32,570681  	59,447105  	25,416628  	24,055101  	28,381708  	64,782183  	0,344490  	0,174556  	-4139,717698  	22557,299795  	-0,022191  	-0,050007  	0,424248  	0,214970  	-4,503342  	16696,841292  	143603,674772  	20,827952  	-0,047958  
21,549000  	24,457163  	30,137582  	23,091303  	956,927186  	70,454304  	65,453619  	0,010620  	0,011757  	0,003963  	0,004342  	0,004476  	-0,000001  	-0,000001  	26,262990  	25,574567  	26,496874  	26,348621  	29,178396  	27,782118  	28,942068  	28,457187  	31,197457  	30,215723  	32,565058  	59,439429  	25,413937  	24,043653  	28,381489  	64,774199  	0,283841  	0,143824  	-3415,539301  	22557,592950  	-0,022192  	-0,050008  	0,403265  	0,204338  	-4,278746  	16703,753041  	143561,491801  	20,821834  	-0,047958  
22,548000  	24,446533  	30,141890  	23,090505  	-242,047242  	70,457980  	65,449513  	0,010620  	0,011760  	0,003963  	0,004415  	0,004455  	0,000000  	-0,000000  	26,262309  	25,566472  	26,489585  	26,347044  	29,187630  	27,780076  	28,937270  	28,458960  	31,201060  	30,215731  	32,564611  	59,439673  	25,415036  	24,046231  	28,384535  	64,778350  	0,342794  	0,173696  	-4135,796578  	-27034,093641  	-0,103455  	-0,049998  	0,386888  	0,196039  	-4,111362  	16710,385349  	143567,091248  	20,822646  	-0,047950  
23,549000  	24,444413  	30,142721  	23,091610  	657,183579  	70,462965  	65,448860  	0,010619  	0,011780  	0,003962  	0,004385  	0,004463  	-0,000001  	-0,000000  	26,267890  	25,563343  	26,491448  	26,342743  	29,185078  	27,788769  	28,938233  	28,457068  	31,206162  	30,221554  	32,567545  	59,441203  	25,412734  	24,041183  	28,383398  	64,776623  	0,318224  	0,161247  	-3841,351663  	18538,533456  	-0,027617  	-0,050012  	0,392852  	0,199061  	-4,179436  	16753,133489  	143541,240585  	20,818897  	-0,047962  
24,550000  	24,445273  	30,142290  	23,091058  	1256,670793  	70,461220  	65,442515  	0,010628  	0,011754  	0,003963  	0,004407  	0,004506  	-0,000000  	-0,000000  	26,271994  	25,569110  	26,496667  	26,344885  	29,180119  	27,782856  	28,939624  	28,461174  	31,204607  	30,215572  	32,569648  	59,442312  	25,423686  	24,031908  	28,383247  	64,789813  	0,336099  	0,170304  	-4056,202708  	25598,509620  	-0,018547  	-0,050003  	0,426681  	0,216203  	-4,543504  	16697,642121  	143738,802915  	20,847551  	-0,047954  
25,550000  	24,438422  	30,135920  	23,091180  	1256,670793  	70,459040  	65,444443  	0,010627  	0,011802  	0,003963  	0,004364  	0,004497  	-0,000001  	-0,000000  	26,268516  	25,568441  	26,499795  	26,343111  	29,178184  	27,775839  	28,935290  	28,458714  	31,197356  	30,210738  	32,566583  	59,446519  	25,426392  	24,033583  	28,372867  	64,793877  	0,301268  	0,152655  	-3636,149058  	25603,892844  	-0,018551  	-0,050015  	0,419822  	0,212727  	-4,466804  	16799,478286  	143713,898439  	20,843939  	-0,047964  
26,551000  	24,469452  	30,138382  	23,092470  	1256,670793  	70,457980  	65,453525  	0,010617  	0,011766  	0,003965  	0,004427  	0,004496  	-0,000001  	-0,000000  	26,268563  	25,569816  	26,494825  	26,342564  	29,178742  	27,772131  	28,934895  	28,456843  	31,191748  	30,202481  	32,565415  	59,444942  	25,421674  	24,039719  	28,374122  	64,774234  	0,352789  	0,178761  	-4236,627536  	25600,306346  	-0,018549  	-0,050007  	0,419308  	0,212467  	-4,452319  	16723,868565  	143504,593511  	20,813582  	-0,047958  
27,548000  	24,465765  	30,136628  	23,093760  	357,439972  	70,454304  	65,453090  	0,010621  	0,011773  	0,003968  	0,004403  	0,004491  	-0,000001  	-0,000000  	26,260766  	25,565011  	26,496692  	26,352954  	29,178766  	27,776079  	28,934472  	28,464225  	31,203926  	30,207555  	32,557230  	59,450838  	25,430496  	24,051322  	28,395106  	64,776534  	0,333101  	0,168785  	-4001,562339  	12592,913387  	-0,036545  	-0,050008  	0,415083  	0,210325  	-4,404596  	16738,066301  	143592,885422  	20,826387  	-0,047958  
28,547000  	24,452063  	30,142352  	23,096524  	956,927186  	70,456610  	65,448300  	0,010631  	0,011740  	0,003964  	0,004404  	0,004505  	0,000001  	-0,000000  	26,275421  	25,568168  	26,499264  	26,340931  	29,185522  	27,777020  	28,952179  	28,457522  	31,204505  	30,208355  	32,562380  	59,445972  	25,422178  	24,053188  	28,392771  	64,790392  	0,333830  	0,169154  	-4024,057892  	22549,647881  	-0,022184  	-0,049989  	0,426377  	0,216049  	-4,530864  	16667,088937  	143805,106581  	20,857167  	-0,047942  
29,551000  	24,434244  	30,146722  	23,098551  	1256,670793  	70,460410  	65,451815  	0,010615  	0,011784  	0,003963  	0,004413  	0,004477  	-0,000000  	-0,000000  	26,274113  	25,569985  	26,495401  	26,339002  	29,174234  	27,778741  	28,940855  	28,454760  	31,200154  	30,217735  	32,566054  	59,442551  	25,433800  	24,048683  	28,393608  	64,780954  	0,341054  	0,172815  	-4127,176674  	25599,019834  	-0,018548  	-0,050005  	0,403957  	0,204688  	-4,292861  	16762,384762  	143463,321421  	20,807596  	-0,047955  
30,549000  	24,451633  	30,143460  	23,099349  	1256,670793  	70,462778  	65,450446  	0,010617  	0,011761  	0,003962  	0,004371  	0,004464  	0,000000  	-0,000000  	26,261473  	25,559475  	26,492837  	26,336861  	29,176878  	27,769064  	28,931813  	28,442011  	31,196354  	30,195532  	32,555483  	59,437540  	25,431605  	24,045857  	28,381156  	64,788967  	0,306948  	0,155533  	-3701,015680  	25594,026626  	-0,018544  	-0,049994  	0,393455  	0,199366  	-4,184373  	16711,841273  	143494,877447  	20,812172  	-0,047946  
31,550000  	24,472924  	30,136074  	23,100823  	1256,670793  	70,466360  	65,446776  	0,010629  	0,011773  	0,003963  	0,004439  	0,004487  	0,000000  	-0,000000  	26,274102  	25,571201  	26,503084  	26,352943  	29,185968  	27,781455  	28,936717  	28,458364  	31,206776  	30,215246  	32,571901  	59,454255  	25,445505  	24,054845  	28,396839  	64,795459  	0,362332  	0,183596  	-4346,787279  	25595,504565  	-0,018545  	-0,049997  	0,411789  	0,208657  	-4,385697  	16738,351402  	143746,457140  	20,848661  	-0,047949  
32,548000  	24,488162  	30,134043  	23,102359  	57,696365  	70,465986  	65,453308  	0,010628  	0,011782  	0,003963  	0,004428  	0,004454  	0,000003  	-0,000000  	26,263843  	25,564402  	26,491302  	26,342081  	29,174584  	27,773676  	28,930786  	28,450246  	31,201174  	30,206040  	32,560885  	59,452760  	25,438694  	24,041339  	28,392475  	64,783784  	0,353262  	0,179000  	-4225,050130  	1878,033198  	-0,053974  	-0,049968  	0,385810  	0,195493  	-4,103359  	16757,911580  	143736,755198  	20,847254  	-0,047924  
33,655000  	24,485336  	30,145521  	23,101744  	1256,670793  	70,461656  	65,456045  	0,010621  	0,011769  	0,003965  	0,004432  	0,004484  	-0,000001  	-0,000000  	26,270410  	25,568216  	26,495585  	26,344567  	29,182706  	27,774584  	28,926756  	28,445986  	31,199283  	30,208608  	32,557022  	59,443800  	25,434649  	24,036735  	28,385231  	64,785472  	0,356588  	0,180686  	-4275,636261  	25600,567506  	-0,018549  	-0,050008  	0,409872  	0,207685  	-4,353132  	16729,083857  	143575,155016  	20,823816  	-0,047959  
34,549000  	24,480912  	30,155431  	23,101560  	1256,670793  	70,459787  	65,456045  	0,010611  	0,011765  	0,003964  	0,004381  	0,004536  	0,000000  	-0,000000  	26,267818  	25,569107  	26,489350  	26,338110  	29,179134  	27,778123  	28,941874  	28,449805  	31,200395  	30,212421  	32,561098  	59,445102  	25,439140  	24,027712  	28,379114  	64,786395  	0,315047  	0,159637  	-3787,117112  	25594,430948  	-0,018545  	-0,049995  	0,450983  	0,228516  	-4,787967  	16720,299499  	143377,204326  	20,795105  	-0,047947  
35,547000  	24,478515  	30,161431  	23,101652  	1256,670793  	70,458354  	65,460462  	0,010618  	0,011782  	0,003961  	0,004434  	0,004441  	-0,000000  	-0,000000  	26,263155  	25,568130  	26,491993  	26,346679  	29,181100  	27,778032  	28,938868  	28,454807  	31,202449  	30,211677  	32,558657  	59,443805  	25,445315  	24,026646  	28,384730  	64,782340  	0,358090  	0,181447  	-4310,888709  	25598,193707  	-0,018547  	-0,050003  	0,375148  	0,190090  	-3,978199  	16757,326522  	143510,969678  	20,814506  	-0,047954  
36,550000  	24,471511  	30,162662  	23,101652  	57,696365  	70,457295  	65,459591  	0,010621  	0,011774  	0,003964  	0,004395  	0,004497  	-0,000000  	-0,000000  	26,263625  	25,567272  	26,499015  	26,344045  	29,186487  	27,776366  	28,935145  	28,456298  	31,199313  	30,211770  	32,562356  	59,443121  	25,446751  	24,024687  	28,384838  	64,778860  	0,327003  	0,165695  	-3942,358948  	1879,174298  	-0,054006  	-0,050001  	0,420029  	0,212832  	-4,453955  	16740,315272  	143586,403338  	20,825447  	-0,047952  
37,547000  	24,454797  	30,161862  	23,102144  	1256,670793  	70,459164  	65,460866  	0,010613  	0,011761  	0,003964  	0,004382  	0,004506  	0,000000  	-0,000000  	26,269433  	25,572255  	26,503626  	26,347081  	29,189405  	27,780040  	28,940498  	28,463329  	31,204317  	30,213638  	32,565750  	59,451108  	25,452768  	24,020433  	28,389266  	64,791592  	0,316322  	0,160283  	-3824,251620  	25595,246130  	-0,018545  	-0,049997  	0,426856  	0,216291  	-4,526891  	16711,135949  	143413,018192  	20,800300  	-0,047949  
38,550000  	24,472801  	30,162601  	23,101468  	657,183579  	70,460535  	65,464661  	0,010616  	0,011739  	0,003963  	0,004413  	0,004487  	-0,000001  	-0,000000  	26,275929  	25,573868  	26,501783  	26,353475  	29,184900  	27,780491  	28,944625  	28,459944  	31,205270  	30,215363  	32,562912  	59,456785  	25,455647  	24,017794  	28,385313  	64,792759  	0,341380  	0,172980  	-4114,709175  	18538,133425  	-0,027617  	-0,050012  	0,411730  	0,208627  	-4,364363  	16664,968014  	143479,858501  	20,809994  	-0,047962  
39,547000  	24,466994  	30,159277  	23,101560  	657,183579  	70,459507  	65,458378  	0,010625  	0,011766  	0,003965  	0,004384  	0,004477  	0,000000  	-0,000000  	26,274244  	25,575916  	26,499651  	26,353435  	29,184364  	27,782011  	28,944608  	28,456584  	31,202267  	30,213487  	32,565089  	59,454914  	25,455441  	24,027016  	28,387158  	64,787216  	0,318122  	0,161195  	-3836,048487  	18533,156544  	-0,027609  	-0,049997  	0,404259  	0,204841  	-4,289671  	16722,624874  	143669,879583  	20,837554  	-0,047949  
40,547000  	24,445489  	30,159154  	23,102543  	57,696365  	70,460504  	65,456263  	0,010611  	0,011768  	0,003960  	0,004377  	0,004498  	0,000000  	-0,000000  	26,271468  	25,577343  	26,496392  	26,347964  	29,183650  	27,782882  	28,943272  	28,459842  	31,203646  	30,212003  	32,567941  	59,452322  	25,459419  	24,039089  	28,387814  	64,794309  	0,312178  	0,158183  	-3778,521663  	1878,934997  	-0,054001  	-0,049995  	0,420675  	0,213159  	-4,466638  	16728,093433  	143373,193625  	20,794524  	-0,047947  
41,551000  	24,423092  	30,157708  	23,103188  	1256,670793  	70,459725  	65,445376  	0,010616  	0,011762  	0,003965  	0,004390  	0,004451  	0,000001  	-0,000000  	26,270845  	25,571555  	26,489121  	26,341577  	29,176443  	27,779361  	28,936170  	28,453991  	31,204616  	30,207933  	32,563683  	59,448687  	25,452744  	24,044031  	28,383310  	64,796265  	0,322982  	0,163657  	-3923,623976  	25593,750169  	-0,018544  	-0,049994  	0,383303  	0,194222  	-4,078047  	16715,320493  	143480,536366  	20,810092  	-0,047946  
42,548000  	24,432862  	30,148599  	23,103556  	1256,670793  	70,461407  	65,449420  	0,010619  	0,011763  	0,003964  	0,004386  	0,004465  	0,000001  	-0,000000  	26,267260  	25,564870  	26,485430  	26,337775  	29,174746  	27,777549  	28,926197  	28,446868  	31,198997  	30,201978  	32,559728  	59,444396  	25,445830  	24,056979  	28,385243  	64,782876  	0,319758  	0,162024  	-3871,668298  	25592,941570  	-0,018543  	-0,049992  	0,394324  	0,199807  	-4,193325  	16716,230269  	143543,895556  	20,819282  	-0,047944  
43,549000  	24,462540  	30,138167  	23,104293  	1256,670793  	70,466329  	65,450291  	0,010626  	0,011786  	0,003967  	0,004447  	0,004509  	-0,000000  	-0,000000  	26,267061  	25,566192  	26,488590  	26,342787  	29,178284  	27,778785  	28,924978  	28,451594  	31,192952  	30,205320  	32,564894  	59,447979  	25,456260  	24,084155  	28,384857  	64,777418  	0,369154  	0,187053  	-4438,395797  	25598,582181  	-0,018548  	-0,050004  	0,429322  	0,217541  	-4,569198  	16765,911381  	143698,907738  	20,841764  	-0,047955  
44,548000  	24,473661  	30,132935  	23,105399  	57,696365  	70,466516  	65,452468  	0,010614  	0,011768  	0,003964  	0,004382  	0,004446  	-0,000001  	-0,000000  	26,269796  	25,569815  	26,495437  	26,351773  	29,178717  	27,782253  	28,933221  	28,457619  	31,200355  	30,212583  	32,572501  	59,454071  	25,456171  	24,113835  	28,386386  	64,787011  	0,315755  	0,159995  	-3785,426292  	1879,234042  	-0,054014  	-0,050009  	0,379293  	0,192191  	-4,035150  	16727,139088  	143438,261600  	20,803961  	-0,047959  
45,548000  	24,459590  	30,138228  	23,104232  	-242,047242  	70,463276  	65,459715  	0,010620  	0,011765  	0,003964  	0,004403  	0,004434  	-0,000001  	-0,000000  	26,266559  	25,562924  	26,500893  	26,346559  	29,179243  	27,782232  	28,944746  	28,460012  	31,210961  	30,216230  	32,565240  	59,453050  	25,451867  	24,136451  	28,384238  	64,788556  	0,333402  	0,168937  	-4010,661888  	-27043,429239  	-0,103486  	-0,050017  	0,370334  	0,187651  	-3,931595  	16721,620301  	143571,172560  	20,823238  	-0,047966  
46,551000  	24,475320  	30,147645  	23,105153  	357,439972  	70,459725  	65,456729  	0,010626  	0,011762  	0,003966  	0,004385  	0,004523  	-0,000001  	-0,000000  	26,259630  	25,565562  	26,500887  	26,355012  	29,182325  	27,781883  	28,942247  	28,460779  	31,208423  	30,213360  	32,560464  	59,453972  	25,456244  	24,148147  	28,394563  	64,789261  	0,318797  	0,161537  	-3830,711828  	12592,785340  	-0,036546  	-0,050010  	0,440239  	0,223072  	-4,673207  	16715,007094  	143684,609024  	20,839691  	-0,047960  
47,548000  	24,474952  	30,150784  	23,103587  	1256,670793  	70,462778  	65,452966  	0,010622  	0,011760  	0,003966  	0,004385  	0,004490  	0,000000  	-0,000000  	26,260657  	25,564210  	26,496801  	26,340486  	29,174601  	27,775555  	28,930135  	28,449113  	31,196284  	30,211290  	32,558935  	59,448378  	25,458865  	24,169707  	28,390057  	64,784655  	0,318709  	0,161492  	-3832,023349  	25596,505749  	-0,018546  	-0,050000  	0,414544  	0,210052  	-4,406439  	16710,935742  	143602,954541  	20,827848  	-0,047951  
48,551000  	24,471879  	30,151584  	23,098673  	1256,670793  	70,466018  	65,452903  	0,010616  	0,011728  	0,003965  	0,004412  	0,004462  	0,000000  	-0,000000  	26,263922  	25,561908  	26,492854  	26,346195  	29,176766  	27,763282  	28,933502  	28,455326  	31,190629  	30,204565  	32,555880  	59,453214  	25,460253  	24,174864  	28,378198  	64,765532  	0,340615  	0,172592  	-4098,205817  	25596,215421  	-0,018546  	-0,049999  	0,392278  	0,198770  	-4,172514  	16640,931116  	143478,884070  	20,809853  	-0,047950  
49,549000  	24,460758  	30,152907  	23,095971  	1256,670793  	70,466765  	65,459715  	0,010617  	0,011773  	0,003965  	0,004447  	0,004502  	-0,000001  	-0,000001  	26,271210  	25,563613  	26,493223  	26,352757  	29,182897  	27,784557  	28,938676  	28,465820  	31,205251  	30,210442  	32,561897  	59,462885  	25,472729  	24,174586  	28,391605  	64,776851  	0,368636  	0,186790  	-4445,063586  	25604,203989  	-0,018552  	-0,050016  	0,424035  	0,214862  	-4,504851  	16738,849444  	143498,704559  	20,812727  	-0,047965  
50,551000  	24,434889  	30,153215  	23,097691  	1256,670793  	70,468697  	65,456729  	0,010625  	0,011764  	0,003959  	0,004403  	0,004449  	0,000000  	-0,000000  	26,266642  	25,555575  	26,486956  	26,351538  	29,174073  	27,778284  	28,935940  	28,453017  	31,199251  	30,202802  	32,557454  	59,447663  	25,472221  	24,177143  	28,376844  	64,771751  	0,333465  	0,168969  	-4039,467110  	25595,786214  	-0,018545  	-0,049998  	0,381806  	0,193464  	-4,060203  	16718,566963  	143669,025191  	20,837430  	-0,047949  
51,548000  	24,410834  	30,151461  	23,099810  	1256,670793  	70,465239  	65,456356  	0,010624  	0,011798  	0,003963  	0,004392  	0,004491  	-0,000000  	-0,000000  	26,272118  	25,567730  	26,503247  	26,345126  	29,179855  	27,773473  	28,943608  	28,453101  	31,202628  	30,210818  	32,558809  	59,451623  	25,484514  	24,190263  	28,388377  	64,782838  	0,324259  	0,164305  	-3943,276876  	25597,664963  	-0,018547  	-0,050002  	0,415198  	0,210384  	-4,412580  	16792,675484  	143657,367326  	20,835740  	-0,047953  
52,551000  	24,419067  	30,145429  	23,098766  	57,696365  	70,464304  	65,453619  	0,010618  	0,011763  	0,003965  	0,004383  	0,004474  	-0,000000  	-0,000000  	26,274213  	25,567171  	26,486291  	26,347850  	29,175513  	27,777774  	28,942830  	28,459130  	31,201596  	30,214634  	32,553024  	59,454572  	25,486436  	24,206591  	28,398240  	64,783846  	0,316644  	0,160446  	-3841,102933  	1879,487837  	-0,054011  	-0,050005  	0,401482  	0,203434  	-4,268347  	16716,919321  	143509,140855  	20,814241  	-0,047956  
53,554000  	24,444997  	30,131089  	23,091150  	57,696365  	70,463120  	65,452903  	0,010618  	0,011777  	0,003961  	0,004442  	0,004474  	0,000001  	-0,000000  	26,273328  	25,570435  	26,497492  	26,349378  	29,178645  	27,781261  	28,929767  	28,462264  	31,201512  	30,214320  	32,559484  	59,453721  	25,494323  	24,222335  	28,404496  	64,782996  	0,365088  	0,184993  	-4397,601954  	1879,488468  	-0,053999  	-0,049992  	0,401881  	0,203636  	-4,272189  	16746,686532  	143520,120855  	20,815834  	-0,047945  
54,549000  	24,451756  	30,123395  	23,090535  	1256,670793  	70,458198  	65,456885  	0,010623  	0,011752  	0,003965  	0,004431  	0,004459  	-0,000000  	-0,000000  	26,271547  	25,573300  	26,493477  	26,343593  	29,178831  	27,782574  	28,939242  	28,461788  	31,194433  	30,216929  	32,549811  	59,446825  	25,491889  	24,237403  	28,391473  	64,782351  	0,355648  	0,180209  	-4273,003251  	25599,808708  	-0,018548  	-0,050006  	0,389873  	0,197551  	-4,137167  	16692,957413  	143637,017255  	20,832788  	-0,047956  
55,548000  	24,447701  	30,127088  	23,091273  	357,439972  	70,457170  	65,452686  	0,010611  	0,011778  	0,003962  	0,004409  	0,004463  	0,000000  	-0,000000  	26,270101  	25,580106  	26,495708  	26,345114  	29,182921  	27,785069  	28,941228  	28,460354  	31,200533  	30,220272  	32,562349  	59,454473  	25,513935  	24,251073  	28,403077  	64,781793  	0,338113  	0,171324  	-4067,875931  	12590,013818  	-0,036537  	-0,049994  	0,393213  	0,199244  	-4,175255  	16749,618189  	143369,302963  	20,793959  	-0,047946  
56,551000  	24,458884  	30,134289  	23,090044  	956,927186  	70,457357  	65,448331  	0,010616  	0,011775  	0,003962  	0,004416  	0,004509  	-0,000001  	-0,000000  	26,252770  	25,571580  	26,488673  	26,337415  	29,169783  	27,777609  	28,928040  	28,449157  	31,195896  	30,210507  	32,542482  	59,445846  	25,505482  	24,246285  	28,385891  	64,783096  	0,343304  	0,173955  	-4127,435021  	22557,449393  	-0,022192  	-0,050008  	0,429535  	0,217648  	-4,565068  	16741,258298  	143471,801794  	20,808826  	-0,047958  
57,549000  	24,482663  	30,139459  	23,088294  	956,927186  	70,457388  	65,449109  	0,010621  	0,011772  	0,003965  	0,004401  	0,004506  	0,000001  	-0,000001  	26,267178  	25,556894  	26,487186  	26,333523  	29,167253  	27,766046  	28,930968  	28,448114  	31,189105  	30,208833  	32,552560  	59,447266  	25,498889  	24,234671  	28,385772  	64,776553  	0,331319  	0,167882  	-3970,273373  	22547,744353  	-0,022182  	-0,049983  	0,426920  	0,216323  	-4,536601  	16736,098186  	143576,101203  	20,823953  	-0,047937  
58,555000  	24,456917  	30,141736  	23,085407  	-242,047242  	70,456890  	65,447305  	0,010634  	0,012189  	0,003965  	0,004384  	0,004478  	0,000000  	-0,000000  	26,263162  	25,555790  	26,474415  	26,327495  	29,164035  	27,767336  	28,933691  	28,446403  	31,180647  	30,205141  	32,546028  	59,441652  	25,512270  	24,231670  	28,386020  	64,767724  	0,317910  	0,161087  	-3828,470807  	-27032,866159  	-0,103453  	-0,049995  	0,404923  	0,205178  	-4,303981  	17635,652034  	143858,834440  	20,864960  	-0,047948  
59,548000  	24,473508  	30,151061  	23,080709  	657,183579  	70,461625  	65,451659  	0,010616  	0,011764  	0,003966  	0,004462  	0,004468  	-0,000001  	-0,000001  	26,275588  	25,573370  	26,488521  	26,343225  	29,179971  	27,780795  	28,941527  	28,457430  	31,197240  	30,213946  	32,562924  	59,454112  	25,528126  	24,248450  	28,386843  	64,773841  	0,380782  	0,192945  	-4579,744336  	18537,771370  	-0,027615  	-0,050008  	0,396709  	0,201015  	-4,216991  	16718,980112  	143475,191118  	20,809317  	-0,047959  
60,547000  	24,510314  	30,151922  	23,078375  	1256,670793  	70,463744  	65,467398  	0,010619  	0,011795  	0,003962  	0,004412  	0,004439  	-0,000001  	-0,000000  	26,270836  	25,575863  	26,493968  	26,345300  	29,183088  	27,784828  	28,943405  	28,451610  	31,200241  	30,215517  	32,566914  	59,453605  	25,535572  	24,248094  	28,389027  	64,780809  	0,340391  	0,172479  	-4068,031934  	25604,685535  	-0,018552  	-0,050016  	0,374312  	0,189667  	-3,968104  	16786,500186  	143542,087916  	20,819020  	-0,047965  
61,549000  	24,515537  	30,148783  	23,078743  	1256,670793  	70,465644  	65,478844  	0,010615  	0,011751  	0,003963  	0,004354  	0,004532  	-0,000001  	-0,000000  	26,265213  	25,565477  	26,487856  	26,343067  	29,180999  	27,780473  	28,939174  	28,452940  	31,194780  	30,211502  	32,559114  	59,448186  	25,538067  	24,235986  	28,381647  	64,778888  	0,293177  	0,148555  	-3498,582313  	25600,909581  	-0,018549  	-0,050007  	0,447223  	0,226611  	-4,731988  	16690,300953  	143458,872932  	20,806950  	-0,047958  
62,547000  	24,497349  	30,168602  	23,076901  	1256,670793  	70,463650  	65,477040  	0,010629  	0,011761  	0,003962  	0,004361  	0,004471  	-0,000000  	-0,000000  	26,262077  	25,567799  	26,485990  	26,339210  	29,179064  	27,772410  	28,935679  	28,449827  	31,193143  	30,202812  	32,556869  	59,450152  	25,542742  	24,226338  	28,388002  	64,778053  	0,299094  	0,151553  	-3593,275112  	25598,253269  	-0,018547  	-0,050002  	0,399336  	0,202347  	-4,225144  	16713,189665  	143765,592703  	20,851436  	-0,047953  
63,548000  	24,469975  	30,183189  	23,075334  	1256,670793  	70,462996  	65,476853  	0,010622  	0,011788  	0,003965  	0,004427  	0,004474  	-0,000000  	-0,000000  	26,257730  	25,564417  	26,485670  	26,335849  	29,173699  	27,767571  	28,931811  	28,448211  	31,189329  	30,203319  	32,558045  	59,448853  	25,545254  	24,209436  	28,391141  	64,777779  	0,352750  	0,178741  	-4269,243718  	25600,165506  	-0,018548  	-0,050006  	0,401711  	0,203550  	-4,249873  	16771,413190  	143596,691351  	20,826939  	-0,047956  
64,549000  	24,465735  	30,186512  	23,075642  	1256,670793  	70,462684  	65,465345  	0,010620  	0,011785  	0,003965  	0,004409  	0,004465  	-0,000000  	-0,000000  	26,259676  	25,558784  	26,483673  	26,333999  	29,170770  	27,772036  	28,923678  	28,446365  	31,187286  	30,205295  	32,553893  	59,445196  	25,546865  	24,186286  	28,382926  	64,774200  	0,337875  	0,171204  	-4094,638741  	25598,982095  	-0,018547  	-0,050003  	0,394505  	0,199899  	-4,183000  	16763,167905  	143559,239312  	20,821507  	-0,047954  
65,548000  	24,465858  	30,173833  	23,074751  	956,927186  	70,460473  	65,461084  	0,010628  	0,011785  	0,003963  	0,004431  	0,004526  	-0,000001  	-0,000000  	26,266370  	25,564146  	26,488539  	26,336396  	29,179943  	27,779236  	28,931449  	28,452500  	31,192672  	30,209970  	32,557964  	59,452842  	25,549138  	24,173697  	28,390039  	64,780317  	0,355794  	0,180283  	-4302,142223  	22559,443135  	-0,022193  	-0,050011  	0,442940  	0,224441  	-4,698487  	16764,262324  	143744,522401  	20,848380  	-0,047961  
66,548000  	24,482817  	30,162816  	23,074935  	357,439972  	70,457856  	65,466682  	0,010624  	0,011772  	0,003960  	0,004391  	0,004500  	-0,000001  	-0,000000  	26,264031  	25,562690  	26,489540  	26,339388  	29,177191  	27,771599  	28,934851  	28,454602  	31,190256  	30,204357  	32,559723  	59,449501  	25,545707  	24,156301  	28,390811  	64,779564  	0,323082  	0,163708  	-3887,444007  	12595,145026  	-0,036550  	-0,050013  	0,422412  	0,214039  	-4,473377  	16735,554867  	143641,381011  	20,833421  	-0,047963  
67,550000  	24,503831  	30,158754  	23,074382  	357,439972  	70,459320  	65,460586  	0,010614  	0,011753  	0,003965  	0,004457  	0,004442  	0,000000  	-0,000000  	26,262116  	25,561954  	26,487497  	26,338017  	29,174456  	27,765556  	28,931995  	28,452582  	31,190745  	30,193920  	32,553876  	59,443222  	25,547476  	24,140446  	28,382155  	64,777017  	0,376724  	0,190889  	-4512,873803  	12590,806519  	-0,036537  	-0,049994  	0,376053  	0,190549  	-3,988461  	16694,389991  	143442,159324  	20,804526  	-0,047946  
68,547000  	24,515998  	30,160539  	23,073707  	956,927186  	70,456018  	65,447336  	0,010623  	0,011789  	0,003961  	0,004397  	0,004466  	-0,000001  	-0,000000  	26,264634  	25,563257  	26,494224  	26,334406  	29,181404  	27,772211  	28,938330  	28,450449  	31,197203  	30,196419  	32,549424  	59,447137  	25,551238  	24,126097  	28,388648  	64,781803  	0,328509  	0,166458  	-3928,060802  	22557,623448  	-0,022191  	-0,050007  	0,395390  	0,200347  	-4,201895  	16772,374609  	143636,155802  	20,832663  	-0,047957  
69,549000  	24,504169  	30,169771  	23,073584  	956,927186  	70,452279  	65,452966  	0,010625  	0,011758  	0,003963  	0,004382  	0,004531  	0,000000  	-0,000000  	26,260256  	25,555556  	26,490983  	26,337910  	29,174780  	27,775265  	28,937272  	28,445366  	31,190564  	30,197926  	32,545367  	59,443376  	25,544332  	24,106356  	28,393625  	64,776032  	0,315862  	0,160049  	-3790,931061  	22553,929835  	-0,022188  	-0,049997  	0,447107  	0,226552  	-4,742613  	16705,332061  	143664,280136  	20,836742  	-0,047949  
70,553000  	24,515168  	30,180973  	23,072908  	357,439972  	70,449413  	65,454832  	0,010611  	0,011797  	0,003964  	0,004494  	0,004440  	-0,000001  	-0,000000  	26,261870  	25,561524  	26,481505  	26,345313  	29,174002  	27,780411  	28,937412  	28,456727  	31,189788  	30,200455  	32,549583  	59,448299  	25,546437  	24,108759  	28,389838  	64,777647  	0,406631  	0,206043  	-4880,508972  	12594,299692  	-0,036547  	-0,050009  	0,374465  	0,189744  	-3,968321  	16790,328885  	143361,443966  	20,792820  	-0,047959  
71,549000  	24,522081  	30,183004  	23,071342  	1256,670793  	70,448759  	65,450166  	0,010621  	0,011788  	0,003962  	0,004424  	0,004494  	-0,000000  	-0,000000  	26,265247  	25,563593  	26,492189  	26,338720  	29,172978  	27,779596  	28,933353  	28,457798  	31,193700  	30,208227  	32,552896  	59,451870  	25,546830  	24,092071  	28,385622  	64,778935  	0,350419  	0,177560  	-4202,202314  	25598,201318  	-0,018547  	-0,050001  	0,417345  	0,211472  	-4,426281  	16770,040037  	143585,075853  	20,825255  	-0,047952  
72,551000  	24,514707  	30,184235  	23,070605  	1256,670793  	70,453245  	65,447554  	0,010634  	0,011753  	0,003962  	0,004406  	0,004500  	-0,000000  	-0,000000  	26,263454  	25,570652  	26,491508  	26,340637  	29,180515  	27,779242  	28,933330  	28,454691  	31,196380  	30,210137  	32,562104  	59,455023  	25,539058  	24,073650  	28,396688  	64,774822  	0,335227  	0,169862  	-4026,132703  	25599,179378  	-0,018548  	-0,050003  	0,421989  	0,213825  	-4,481890  	16694,555534  	143869,659096  	20,866530  	-0,047954  
73,550000  	24,466749  	30,190543  	23,069131  	956,927186  	70,454304  	65,452219  	0,010621  	0,011777  	0,003965  	0,004438  	0,004478  	0,000001  	-0,000000  	26,264248  	25,568819  	26,483779  	26,343495  	29,175719  	27,782225  	28,937165  	28,453036  	31,192446  	30,200241  	32,562264  	59,456356  	25,545166  	24,062998  	28,385904  	64,777604  	0,361128  	0,182986  	-4378,737754  	22551,844222  	-0,022186  	-0,049992  	0,404899  	0,205165  	-4,297283  	16745,935225  	143586,742271  	20,825496  	-0,047944  
74,550000  	24,453169  	30,192328  	23,067473  	357,439972  	70,455177  	65,450415  	0,010625  	0,011781  	0,003965  	0,004393  	0,004456  	-0,000000  	-0,000000  	26,262378  	25,559791  	26,494381  	26,345732  	29,173207  	27,776087  	28,938424  	28,455526  	31,191737  	30,202506  	32,560692  	59,449858  	25,538937  	24,045642  	28,382560  	64,775457  	0,325387  	0,164876  	-3955,963937  	12593,302590  	-0,036544  	-0,050003  	0,387231  	0,196213  	-4,111967  	16754,539892  	143666,843313  	20,837114  	-0,047954  
75,549000  	24,439160  	30,181711  	23,066828  	357,439972  	70,459507  	65,453432  	0,010622  	0,011772  	0,003966  	0,004399  	0,004501  	0,000000  	-0,000001  	26,272774  	25,571661  	26,501163  	26,347207  	29,190421  	27,781776  	28,953675  	28,461992  	31,207129  	30,209154  	32,569512  	59,458020  	25,546377  	24,036665  	28,393264  	64,787368  	0,329898  	0,167162  	-4013,187376  	12591,722103  	-0,036539  	-0,049996  	0,422834  	0,214253  	-4,491206  	16735,798229  	143603,900727  	20,827985  	-0,047948  
76,547000  	24,426932  	30,167186  	23,066214  	956,927186  	70,459631  	65,453930  	0,010630  	0,011775  	0,003965  	0,004460  	0,004450  	-0,000000  	-0,000000  	26,256014  	25,570234  	26,493051  	26,339463  	29,189921  	27,774407  	28,943300  	28,459303  	31,202282  	30,209371  	32,559434  	59,447960  	25,540252  	24,024935  	28,393023  	64,782794  	0,379122  	0,192104  	-4610,151988  	22555,284819  	-0,022189  	-0,050000  	0,382268  	0,193698  	-4,060028  	16743,066530  	143779,524240  	20,853457  	-0,047951  
77,550000  	24,425273  	30,151091  	23,064371  	-242,047242  	70,455644  	65,451317  	0,010625  	0,011756  	0,003963  	0,004387  	0,004487  	0,000000  	-0,000001  	26,265046  	25,566740  	26,489579  	26,347057  	29,189656  	27,782129  	28,939192  	28,462220  	31,205641  	30,213182  	32,570286  	59,449861  	25,539087  	24,019595  	28,393847  	64,783939  	0,319837  	0,162064  	-3879,455734  	-27032,603056  	-0,103460  	-0,049996  	0,412005  	0,208766  	-4,374658  	16700,964996  	143680,252329  	20,839059  	-0,047948  
78,548000  	24,451633  	30,141490  	23,063511  	357,439972  	70,448043  	65,448393  	0,010624  	0,011781  	0,003963  	0,004393  	0,004448  	0,000000  	-0,000000  	26,257189  	25,558435  	26,480932  	26,334428  	29,171547  	27,783779  	28,931134  	28,454471  	31,193510  	30,206769  	32,561943  	59,445131  	25,530689  	23,997665  	28,377304  	64,775991  	0,324689  	0,164522  	-3913,568244  	12591,485471  	-0,036538  	-0,049994  	0,380772  	0,192940  	-4,039242  	16755,049961  	143646,507364  	20,834164  	-0,047947  
79,548000  	24,485182  	30,133181  	23,062314  	1256,670793  	70,445675  	65,450042  	0,010616  	0,011768  	0,003964  	0,004369  	0,004500  	-0,000001  	-0,000000  	26,274977  	25,567013  	26,500874  	26,349535  	29,188911  	27,793260  	28,936927  	28,457823  	31,198917  	30,209197  	32,564149  	59,447742  	25,534753  	23,997580  	28,385957  	64,788009  	0,305454  	0,154776  	-3654,630030  	25604,830410  	-0,018552  	-0,050015  	0,422337  	0,214001  	-4,476575  	16727,268551  	143476,116122  	20,809451  	-0,047964  
80,550000  	24,503800  	30,132812  	23,061638  	1256,670793  	70,451283  	65,442328  	0,010621  	0,011809  	0,003964  	0,004437  	0,004422  	-0,000001  	-0,000000  	26,277736  	25,576192  	26,512105  	26,357671  	29,189085  	27,782322  	28,946518  	28,460425  	31,199751  	30,222372  	32,576438  	59,464962  	25,545132  	23,995341  	28,389686  	64,784974  	0,360939  	0,182890  	-4303,966287  	25601,213880  	-0,018549  	-0,050007  	0,360477  	0,182656  	-3,831072  	16815,466569  	143589,291325  	20,825866  	-0,047957  
81,546000  	24,470312  	30,146291  	23,061945  	1256,670793  	70,455332  	65,445221  	0,010622  	0,011772  	0,003962  	0,004373  	0,004504  	0,000000  	-0,000000  	26,259969  	25,575011  	26,498275  	26,341803  	29,184554  	27,783058  	28,935212  	28,461491  	31,192935  	30,201071  	32,564885  	59,454265  	25,522814  	23,982448  	28,393170  	64,785206  	0,308551  	0,156345  	-3709,975749  	25597,162411  	-0,018546  	-0,049998  	0,425769  	0,215740  	-4,526025  	16735,885245  	143604,239660  	20,828034  	-0,047950  
82,548000  	24,452309  	30,163155  	23,059919  	1256,670793  	70,457638  	65,447709  	0,010614  	0,011770  	0,003965  	0,004387  	0,004465  	-0,000001  	-0,000000  	26,269244  	25,563397  	26,496871  	26,343882  	29,183190  	27,783652  	28,941559  	28,453120  	31,194198  	30,209918  	32,565405  	59,445130  	25,518359  	23,968899  	28,384312  	64,779477  	0,320440  	0,162369  	-3876,601254  	25604,340223  	-0,018551  	-0,050014  	0,394392  	0,199841  	-4,192330  	16731,723339  	143422,458874  	20,801669  	-0,047963  
83,547000  	24,470282  	30,166755  	23,058260  	357,439972  	70,463276  	65,448549  	0,010622  	0,011753  	0,003962  	0,004403  	0,004418  	-0,000000  	-0,000000  	26,263398  	25,556828  	26,487308  	26,341781  	29,178366  	27,780464  	28,934294  	28,455189  	31,193427  	30,200140  	32,558937  	59,442561  	25,510907  	23,961436  	28,386399  	64,770083  	0,333220  	0,168845  	-4021,066478  	12593,231720  	-0,036542  	-0,050001  	0,357317  	0,181055  	-3,801864  	16694,962315  	143601,521139  	20,827640  	-0,047952  
84,547000  	24,488593  	30,157954  	23,059181  	956,927186  	70,462715  	65,452903  	0,010625  	0,011780  	0,003965  	0,004463  	0,004439  	0,000000  	-0,000001  	26,272634  	25,570386  	26,493055  	26,348672  	29,187223  	27,787884  	28,940382  	28,463353  	31,195810  	30,214718  	32,567914  	59,456283  	25,513415  	23,957927  	28,391255  	64,782416  	0,381525  	0,193321  	-4582,057239  	22555,307655  	-0,022189  	-0,050000  	0,374056  	0,189537  	-3,976072  	16752,193293  	143670,246760  	20,837608  	-0,047951  
85,547000  	24,483185  	30,154292  	23,060195  	1256,670793  	70,462279  	65,455329  	0,010612  	0,011772  	0,003962  	0,004436  	0,004495  	0,000000  	-0,000000  	26,268712  	25,559371  	26,494965  	26,341957  	29,185663  	27,781925  	28,934512  	28,464386  	31,197693  	30,203565  	32,565246  	59,450731  	25,508239  	23,962403  	28,390903  	64,782665  	0,359742  	0,182284  	-4321,781908  	25595,850833  	-0,018545  	-0,049995  	0,418322  	0,211967  	-4,444065  	16736,110920  	143394,673471  	20,797639  	-0,047947  
86,549000  	24,500943  	30,159585  	23,060011  	1256,670793  	70,463214  	65,457134  	0,010627  	0,011778  	0,003965  	0,004381  	0,004499  	0,000000  	-0,000001  	26,271899  	25,568313  	26,496315  	26,342091  	29,183426  	27,785162  	28,938463  	28,466285  	31,196781  	30,216754  	32,568637  	59,450552  	25,502246  	23,965599  	28,388733  	64,793027  	0,315720  	0,159977  	-3784,573978  	25597,337702  	-0,018546  	-0,049998  	0,421727  	0,213692  	-4,479457  	16747,818446  	143704,803751  	20,842620  	-0,047950  
87,551000  	24,503524  	30,164478  	23,062498  	357,439972  	70,462248  	65,455983  	0,010626  	0,011805  	0,003963  	0,004423  	0,004471  	0,000001  	-0,000000  	26,277887  	25,576749  	26,502946  	26,348207  	29,186483  	27,789302  	28,950981  	28,475727  	31,210308  	30,226107  	32,574630  	59,454479  	25,508648  	23,962905  	28,391017  	64,801401  	0,349265  	0,176975  	-4188,396100  	12590,436157  	-0,036535  	-0,049990  	0,399108  	0,202231  	-4,239362  	16807,257364  	143686,084792  	20,839905  	-0,047942  
88,547000  	24,515260  	30,169956  	23,063726  	956,927186  	70,461438  	65,455609  	0,010622  	0,012330  	0,003963  	0,004407  	0,004501  	-0,000001  	-0,000001  	26,261040  	25,564096  	26,495587  	26,338414  	29,178040  	27,781828  	28,937191  	28,458376  	31,192781  	30,206728  	32,559757  	59,447298  	25,496110  	23,948576  	28,373951  	64,781399  	0,336219  	0,170365  	-4027,492773  	22559,859206  	-0,022193  	-0,050011  	0,422773  	0,214222  	-4,490347  	17939,848923  	143609,401319  	20,828783  	-0,047961  
89,553000  	24,492525  	30,175433  	23,062283  	1256,670793  	70,464896  	65,459808  	0,010628  	0,011672  	0,003964  	0,004382  	0,004478  	0,000000  	-0,000000  	26,269414  	25,565780  	26,494667  	26,345815  	29,181066  	27,781770  	28,941490  	28,458203  	31,194480  	30,207189  	32,560318  	59,448792  	25,496039  	23,945374  	28,377880  	64,780899  	0,316209  	0,160225  	-3806,697038  	25596,021099  	-0,018545  	-0,049996  	0,405039  	0,205236  	-4,301348  	16521,077006  	143723,812214  	20,845377  	-0,047948  
90,548000  	24,468991  	30,181650  	23,063819  	657,183579  	70,466516  	65,484941  	0,010622  	0,011798  	0,003962  	0,004448  	0,004492  	0,000001  	-0,000000  	26,278329  	25,576140  	26,502189  	26,353283  	29,188311  	27,786863  	28,946724  	28,470401  	31,206372  	30,214061  	32,569087  	59,459453  	25,499315  	23,955193  	28,389149  	64,792957  	0,369513  	0,187235  	-4471,696699  	18530,009466  	-0,027603  	-0,049983  	0,415772  	0,210674  	-4,394599  	16791,179235  	143602,721525  	20,827814  	-0,047937  
91,549000  	24,432401  	30,184142  	23,062897  	657,183579  	70,465986  	65,487584  	0,010622  	0,011731  	0,003961  	0,004414  	0,004491  	-0,000001  	-0,000000  	26,275759  	25,577515  	26,505276  	26,349247  	29,191675  	27,784563  	28,946799  	28,470254  	31,210765  	30,215163  	32,572265  	59,457504  	25,492425  	23,954315  	28,391677  	64,793315  	0,342329  	0,173460  	-4171,070124  	18540,592767  	-0,027619  	-0,050015  	0,414836  	0,210200  	-4,381917  	16646,567340  	143598,901473  	20,827260  	-0,047964  
92,552000  	24,436702  	30,178849  	23,061730  	57,696365  	70,465488  	65,480928  	0,010618  	0,011783  	0,003964  	0,004407  	0,004468  	-0,000001  	-0,000000  	26,275858  	25,573299  	26,507801  	26,348677  	29,191988  	27,784110  	28,949876  	28,465933  	31,212399  	30,215696  	32,574793  	59,454163  	25,493311  	23,946890  	28,384945  	64,792884  	0,336197  	0,170353  	-4089,523261  	1881,731542  	-0,054017  	-0,050009  	0,396659  	0,200990  	-4,195097  	16758,703920  	143521,335363  	20,816010  	-0,047959  
93,550000  	24,453876  	30,163616  	23,060318  	1256,670793  	70,462529  	65,470819  	0,010627  	0,011785  	0,003962  	0,004425  	0,004426  	-0,000000  	-0,000001  	26,275046  	25,572791  	26,507120  	26,349838  	29,189746  	27,789418  	28,945812  	28,470982  	31,209244  	30,214641  	32,574652  	59,458218  	25,494560  	23,939211  	28,383819  	64,796197  	0,350848  	0,177777  	-4243,650032  	25600,325117  	-0,018548  	-0,050005  	0,363669  	0,184274  	-3,851699  	16763,780553  	143710,198426  	20,843402  	-0,047956  
94,548000  	24,457378  	30,150076  	23,060441  	1256,670793  	70,467015  	65,462670  	0,010628  	0,011770  	0,003962  	0,004368  	0,004508  	0,000000  	-0,000000  	26,269222  	25,572182  	26,497974  	26,347510  	29,182113  	27,785535  	28,937300  	28,470516  	31,203735  	30,210852  	32,567056  	59,454633  	25,484332  	23,931388  	28,382852  	64,794394  	0,304940  	0,154515  	-3677,369117  	25596,924465  	-0,018546  	-0,049997  	0,428907  	0,217330  	-4,554146  	16732,087674  	143733,012819  	20,846711  	-0,047949  
95,551000  	24,461710  	30,149614  	23,059704  	357,439972  	70,467887  	65,460648  	0,010630  	0,011780  	0,003965  	0,004400  	0,004485  	-0,000000  	-0,000000  	26,264879  	25,565816  	26,493136  	26,344026  	29,173565  	27,777692  	28,934484  	28,455783  	31,197955  	30,202670  	32,559704  	59,445163  	25,477207  	23,929933  	28,371166  	64,785775  	0,330410  	0,167421  	-3981,163713  	12593,059725  	-0,036542  	-0,050001  	0,410328  	0,207916  	-4,359390  	16753,151175  	143771,185089  	20,852247  	-0,047952  
96,547000  	24,450773  	30,147706  	23,058967  	-242,047242  	70,465021  	65,466434  	0,010614  	0,011796  	0,003965  	0,004455  	0,004494  	0,000002  	-0,000000  	26,272317  	25,564554  	26,495285  	26,344480  	29,178281  	27,780555  	28,940212  	28,456824  	31,196646  	30,201140  	32,563326  	59,445409  	25,475394  	23,924349  	28,378407  	64,782076  	0,375166  	0,190099  	-4527,606021  	-27024,754882  	-0,103432  	-0,049980  	0,417584  	0,211593  	-4,428822  	16788,160562  	143441,199015  	20,804387  	-0,047934  
97,548000  	24,457563  	30,146660  	23,058352  	956,927186  	70,462996  	65,464008  	0,010631  	0,011774  	0,003964  	0,004358  	0,004478  	-0,000000  	-0,000000  	26,275125  	25,566276  	26,492547  	26,347344  	29,181515  	27,780378  	28,940274  	28,465017  	31,197827  	30,204150  	32,565820  	59,453054  	25,471671  	23,924370  	28,383230  	64,790513  	0,296394  	0,150185  	-3572,042589  	22558,017307  	-0,022191  	-0,050006  	0,405060  	0,205247  	-4,296335  	16739,786103  	143799,754273  	20,856391  	-0,047957  
98,552000  	24,474521  	30,146783  	23,059826  	-242,047242  	70,458448  	65,458906  	0,010624  	0,011794  	0,003964  	0,004427  	0,004466  	-0,000000  	-0,000000  	26,270445  	25,569063  	26,493295  	26,341678  	29,183474  	27,780398  	28,936103  	28,461183  	31,196590  	30,203573  	32,565427  	59,445017  	25,469062  	23,934335  	28,386532  	64,790021  	0,352707  	0,178719  	-4238,126729  	-27035,839587  	-0,103474  	-0,050003  	0,395012  	0,200155  	-4,190216  	16783,645641  	143647,234657  	20,834270  	-0,047954  
99,549000  	24,473692  	30,145768  	23,058260  	657,183579  	70,456485  	65,459466  	0,010615  	0,011774  	0,003963  	0,004406  	0,004470  	0,000000  	-0,000000  	26,265226  	25,570027  	26,500137  	26,346494  	29,177975  	27,780992  	28,935106  	28,467203  	31,193918  	30,208876  	32,562172  	59,451552  	25,466689  	23,912149  	28,370039  	64,787374  	0,335258  	0,169878  	-4028,328385  	18535,494033  	-0,027611  	-0,049999  	0,398154  	0,201748  	-4,221418  	16740,907405  	143459,847363  	20,807092  	-0,047950  
100,547000  	24,487149  	30,149891  	23,057216  	57,696365  	70,460036  	65,454116  	0,010616  	0,011790  	0,003965  	0,004452  	0,004494  	-0,000001  	-0,000000  	26,279497  	25,563504  	26,498549  	26,343984  	29,182639  	27,784421  	28,937943  	28,465397  	31,195051  	30,214601  	32,562912  	59,456337  	25,467766  	23,907539  	28,383695  	64,783223  	0,372531  	0,188764  	-4468,821015  	1882,012310  	-0,054018  	-0,050009  	0,417647  	0,211625  	-4,435980  	16774,303815  	143470,763813  	20,808675  	-0,047959  
101,548000  	24,493846  	30,155523  	23,055466  	57,696365  	70,461563  	65,449855  	0,010620  	0,011750  	0,003965  	0,004401  	0,004448  	0,000001  	-0,000000  	26,275066  	25,573318  	26,483538  	26,346166  	29,186360  	27,782399  	28,941603  	28,457174  	31,204461  	30,211900  	32,562766  	59,442400  	25,458185  	23,915953  	28,389811  	64,782515  	0,331388  	0,167917  	-3974,521622  	1881,219316  	-0,053993  	-0,049983  	0,381221  	0,193167  	-4,053763  	16688,601667  	143569,958052  	20,823062  	-0,047937  
102,546000  	24,483277  	30,160385  	23,053930  	1256,670793  	70,460628  	65,454272  	0,010630  	0,011762  	0,003964  	0,004429  	0,004483  	0,000000  	-0,000000  	26,276101  	25,570923  	26,500921  	26,347665  	29,191861  	27,791677  	28,957858  	28,462440  	31,204485  	30,208215  	32,566375  	59,450858  	25,463754  	23,923821  	28,380944  	64,789290  	0,354276  	0,179514  	-4260,618830  	25597,628861  	-0,018546  	-0,049999  	0,408812  	0,207148  	-4,342521  	16713,784627  	143781,091803  	20,853684  	-0,047950  
103,547000  	24,484476  	30,168509  	23,054667  	357,439972  	70,462560  	65,458129  	0,010615  	0,011775  	0,003964  	0,004401  	0,004448  	0,000001  	-0,000000  	26,263939  	25,559002  	26,486834  	26,332461  	29,173923  	27,769511  	28,927599  	28,455295  	31,195735  	30,203322  	32,563975  	59,444348  	25,446388  	23,902266  	28,374828  	64,777073  	0,331208  	0,167826  	-3988,059160  	12591,269699  	-0,036536  	-0,049992  	0,381009  	0,193060  	-4,045625  	16743,192456  	143454,586848  	20,806329  	-0,047944  
104,548000  	24,492034  	30,168817  	23,052886  	956,927186  	70,464242  	65,457693  	0,010620  	0,011804  	0,003965  	0,004414  	0,004500  	0,000001  	-0,000001  	26,284216  	25,580178  	26,503953  	26,343170  	29,183941  	27,787993  	28,944076  	28,455609  	31,207715  	30,216856  	32,567319  	59,461851  	25,452411  	23,905194  	28,385690  	64,790886  	0,342290  	0,173441  	-4116,237452  	22551,603425  	-0,022185  	-0,049990  	0,421994  	0,213828  	-4,482718  	16805,830445  	143557,721177  	20,821287  	-0,047943  
105,548000  	24,495597  	30,167555  	23,051750  	956,927186  	70,464896  	65,453183  	0,010628  	0,011759  	0,003962  	0,004398  	0,004464  	0,000000  	-0,000000  	26,271606  	25,573784  	26,498195  	26,341557  	29,177967  	27,781152  	28,926901  	28,450551  	31,198772  	30,206298  	32,559400  	59,457679  	25,459886  	23,898364  	28,388546  	64,776415  	0,329101  	0,166758  	-3954,260171  	22555,110644  	-0,022188  	-0,049998  	0,393774  	0,199528  	-4,187250  	16708,213489  	143741,549680  	20,847949  	-0,047950  
106,549000  	24,475259  	30,167986  	23,054637  	357,439972  	70,465021  	65,458409  	0,010621  	0,011784  	0,003963  	0,004410  	0,004480  	0,000001  	-0,000000  	26,266729  	25,571116  	26,501768  	26,347563  	29,190133  	27,782466  	28,939905  	28,462945  	31,208053  	30,216028  	32,567338  	59,462013  	25,462122  	23,910135  	28,372898  	64,791066  	0,339188  	0,171869  	-4090,393511  	12590,446799  	-0,036534  	-0,049988  	0,406185  	0,205817  	-4,314832  	16762,153427  	143580,888624  	20,824647  	-0,047941  
107,551000  	24,462263  	30,173341  	23,057032  	357,439972  	70,468915  	65,458222  	0,010626  	0,011762  	0,003962  	0,004418  	0,004479  	-0,000001  	-0,000000  	26,265990  	25,561561  	26,485410  	26,336603  	29,177769  	27,782832  	28,928496  	28,456504  	31,194960  	30,203152  	32,565317  	59,442952  	25,444153  	23,898484  	28,381520  	64,778038  	0,345348  	0,174990  	-4178,103933  	12595,782314  	-0,036550  	-0,050012  	0,405795  	0,205619  	-4,314200  	16713,491037  	143683,740509  	20,839565  	-0,047962  
108,547000  	24,451326  	30,171310  	23,058076  	956,927186  	70,473214  	65,459964  	0,010625  	0,011793  	0,003962  	0,004354  	0,004491  	0,000000  	-0,000000  	26,281298  	25,580365  	26,512224  	26,346042  	29,177937  	27,779567  	28,948436  	28,461841  	31,205566  	30,215807  	32,564646  	59,454058  	25,460169  	23,898583  	28,387523  	64,794142  	0,293586  	0,148762  	-3557,418873  	22554,035248  	-0,022188  	-0,049996  	0,415360  	0,210466  	-4,418145  	16781,426383  	143665,600561  	20,836934  	-0,047948  
109,548000  	24,447301  	30,161001  	23,058230  	1256,670793  	70,474024  	65,456885  	0,010613  	0,011760  	0,003964  	0,004422  	0,004449  	-0,000000  	-0,000000  	26,272035  	25,570903  	26,494641  	26,344213  	29,175451  	27,779372  	28,949620  	28,466168  	31,203938  	30,209825  	32,566182  	59,457180  	25,466502  	23,897251  	28,384044  	64,781878  	0,348572  	0,176624  	-4219,051405  	25599,800574  	-0,018548  	-0,050004  	0,381927  	0,193525  	-4,065673  	16709,114775  	143419,549703  	20,801247  	-0,047954  
110,551000  	24,442447  	30,154046  	23,058721  	1256,670793  	70,475083  	65,461924  	0,010634  	0,011758  	0,003964  	0,004423  	0,004486  	-0,000000  	-0,000000  	26,270270  	25,561243  	26,500450  	26,336348  	29,179298  	27,785339  	28,934806  	28,459974  	31,202347  	30,197619  	32,566583  	59,452509  	25,455913  	23,889860  	28,379848  	64,776139  	0,349066  	0,176874  	-4223,474026  	25598,470565  	-0,018547  	-0,050001  	0,411439  	0,208479  	-4,376368  	16704,693237  	143869,517874  	20,866509  	-0,047952  
111,547000  	24,442263  	30,147768  	23,058260  	357,439972  	70,473089  	65,470664  	0,010619  	0,011792  	0,003963  	0,004384  	0,004448  	0,000000  	-0,000000  	26,275935  	25,557266  	26,499109  	26,339476  	29,174311  	27,778215  	28,933067  	28,454451  	31,197783  	30,201782  	32,560287  	59,450539  	25,460908  	23,898557  	28,369157  	64,777902  	0,318007  	0,161136  	-3843,574202  	12592,405447  	-0,036540  	-0,049997  	0,381174  	0,193144  	-4,045770  	16779,448363  	143533,296855  	20,817745  	-0,047949  
112,551000  	24,416149  	30,142906  	23,057462  	-242,047242  	70,470722  	65,463012  	0,010614  	0,011779  	0,003965  	0,004369  	0,004467  	0,000001  	-0,000000  	26,277579  	25,566104  	26,492580  	26,339028  	29,181639  	27,782507  	28,938512  	28,462005  	31,203666  	30,213345  	32,565572  	59,452433  	25,460585  	23,910202  	28,378823  	64,783557  	0,305431  	0,154764  	-3705,335823  	-27027,970068  	-0,103445  	-0,049987  	0,396450  	0,200884  	-4,212351  	16750,791842  	143433,573034  	20,803281  	-0,047940  
113,547000  	24,432431  	30,140321  	23,058414  	57,696365  	70,470628  	65,464692  	0,010621  	0,011755  	0,003963  	0,004421  	0,004477  	-0,000001  	-0,000000  	26,274081  	25,572931  	26,501654  	26,340778  	29,184478  	27,782096  	28,937265  	28,464028  	31,203234  	30,215777  	32,568985  	59,447724  	25,473566  	23,912618  	28,390629  	64,785104  	0,347716  	0,176190  	-4204,407821  	1882,187153  	-0,054025  	-0,050017  	0,404374  	0,204899  	-4,295020  	16698,879444  	143592,701833  	20,826361  	-0,047966  
114,549000  	24,446072  	30,134043  	23,060809  	657,183579  	70,469507  	65,465749  	0,010633  	0,011783  	0,003962  	0,004380  	0,004488  	0,000000  	-0,000000  	26,273246  	25,561768  	26,495688  	26,339455  	29,178968  	27,778171  	28,934374  	28,451009  	31,199936  	30,206967  	32,562972  	59,444272  	25,467955  	23,914905  	28,375174  	64,780368  	0,314227  	0,159221  	-3786,217047  	18534,414833  	-0,027609  	-0,049996  	0,412472  	0,209003  	-4,379127  	16758,534133  	143837,432266  	20,861856  	-0,047948  
115,548000  	24,425519  	30,130719  	23,062928  	-242,047242  	70,468572  	65,459933  	0,010614  	0,011798  	0,003965  	0,004385  	0,004479  	0,000000  	-0,000000  	26,273517  	25,560711  	26,493724  	26,338514  	29,181090  	27,777585  	28,930094  	28,451146  	31,200375  	30,204597  	32,563355  	59,442385  	25,461978  	23,934630  	28,375365  	64,788756  	0,318546  	0,161410  	-3849,890814  	-27033,400304  	-0,103464  	-0,049998  	0,405292  	0,205364  	-4,307089  	16791,993506  	143433,001086  	20,803198  	-0,047949  
116,550000  	24,424966  	30,133797  	23,063788  	956,927186  	70,470504  	65,459560  	0,010622  	0,011801  	0,003963  	0,004436  	0,004516  	0,000000  	-0,000000  	26,274935  	25,567313  	26,495411  	26,337620  	29,182459  	27,777326  	28,933549  	28,453124  	31,195505  	30,212484  	32,567001  	59,443085  	25,461941  	23,957514  	28,379412  	64,783271  	0,360261  	0,182547  	-4356,820032  	22554,431049  	-0,022188  	-0,049998  	0,434753  	0,220293  	-4,622305  	16798,308877  	143611,682052  	20,829113  	-0,047949  
117,547000  	24,438945  	30,129027  	23,066644  	57,696365  	70,471251  	65,457569  	0,010626  	0,011743  	0,003966  	0,004423  	0,004479  	-0,000001  	-0,000001  	26,278877  	25,577463  	26,497714  	26,339804  	29,186659  	27,780398  	28,941774  	28,454328  	31,195596  	30,221931  	32,563005  	59,449351  	25,470746  	23,971789  	28,380054  	64,781216  	0,349631  	0,177160  	-4214,372741  	1881,644920  	-0,054023  	-0,050015  	0,405567  	0,205504  	-4,314348  	16673,659697  	143689,763622  	20,840438  	-0,047964  
118,547000  	24,456149  	30,125396  	23,066705  	1256,670793  	70,468946  	65,459560  	0,010626  	0,011785  	0,003966  	0,004391  	0,004509  	-0,000001  	-0,000000  	26,279518  	25,583747  	26,500879  	26,347172  	29,190699  	27,787332  	28,947377  	28,458702  	31,201720  	30,225637  	32,564064  	59,456855  	25,484317  	23,983495  	28,387297  	64,789889  	0,323263  	0,163800  	-3882,266424  	25602,434602  	-0,018550  	-0,050010  	0,429595  	0,217679  	-4,566049  	16763,799655  	143696,104484  	20,841358  	-0,047960  
119,550000  	24,457532  	30,126596  	23,065876  	1256,670793  	70,461719  	65,458098  	0,010621  	0,011771  	0,003964  	0,004395  	0,004460  	0,000000  	-0,000000  	26,273361  	25,577089  	26,503344  	26,348329  	29,190391  	27,791601  	28,946466  	28,464482  	31,206568  	30,223153  	32,569923  	59,456752  	25,485457  	23,992070  	28,392894  	64,795433  	0,326364  	0,165371  	-3919,381813  	25596,193118  	-0,018545  	-0,049996  	0,390929  	0,198087  	-4,150295  	16733,247885  	143585,372418  	20,825298  	-0,047948  
120,548000  	24,450343  	30,132627  	23,064648  	1256,670793  	70,460410  	65,459777  	0,010630  	0,011750  	0,003962  	0,004424  	0,004495  	0,000000  	-0,000000  	26,270784  	25,569549  	26,503837  	26,345449  	29,191544  	27,789119  	28,943638  	28,469057  	31,209388  	30,218852  	32,573249  	59,451320  	25,480099  	24,001167  	28,388011  	64,803993  	0,350243  	0,177471  	-4215,969337  	25595,404460  	-0,018545  	-0,049994  	0,418271  	0,211941  	-4,437918  	16687,865923  	143768,565423  	20,851867  	-0,047947  
121,549000  	24,481834  	30,139644  	23,066828  	57,696365  	70,460317  	65,458782  	0,010627  	0,011785  	0,003962  	0,004387  	0,004433  	0,000001  	-0,000000  	26,272235  	25,567792  	26,495485  	26,343869  	29,185282  	27,783997  	28,940342  	28,463949  	31,205889  	30,215515  	32,570948  	59,451677  	25,474988  	24,005302  	28,380735  	64,799510  	0,319970  	0,162131  	-3834,969995  	1880,711832  	-0,053996  	-0,049987  	0,369413  	0,187184  	-3,920227  	16763,568320  	143708,122465  	20,843101  	-0,047940  
122,551000  	24,512249  	30,140505  	23,069039  	657,183579  	70,462684  	65,454925  	0,010622  	0,011727  	0,003964  	0,004394  	0,004500  	0,000000  	-0,000000  	26,269709  	25,570649  	26,490873  	26,338150  	29,178990  	27,782800  	28,936351  	28,457726  	31,203865  	30,213342  	32,559515  	59,459005  	25,468053  	23,996806  	28,390152  	64,786316  	0,325608  	0,164988  	-3882,150910  	18534,620456  	-0,027610  	-0,049997  	0,422556  	0,214112  	-4,489765  	16638,247066  	143605,899017  	20,828275  	-0,047949  
123,548000  	24,510222  	30,144383  	23,070329  	-242,047242  	70,464024  	65,454894  	0,010611  	0,011764  	0,003963  	0,004382  	0,004480  	0,000000  	-0,000000  	26,273362  	25,573567  	26,498191  	26,342391  	29,186547  	27,777504  	28,945630  	28,458050  	31,203335  	30,211820  	32,562454  	59,463053  	25,470080  	23,995816  	28,397186  	64,791719  	0,316482  	0,160364  	-3777,302822  	-27034,416757  	-0,103465  	-0,049999  	0,406529  	0,205991  	-4,320660  	16719,075617  	143375,650886  	20,794880  	-0,047951  
124,548000  	24,486073  	30,158785  	23,066521  	956,927186  	70,462902  	65,463230  	0,010631  	0,011779  	0,003964  	0,004419  	0,004465  	-0,000000  	-0,000000  	26,269582  	25,558442  	26,493777  	26,339801  	29,180710  	27,768207  	28,937337  	28,455135  	31,191181  	30,212600  	32,561308  	59,453040  	25,461457  	23,982305  	28,380419  	64,787855  	0,345821  	0,175230  	-4155,719630  	22555,446938  	-0,022189  	-0,050001  	0,394182  	0,199735  	-4,181532  	16751,038034  	143789,452137  	20,854897  	-0,047952  
125,549000  	24,462540  	30,171033  	23,066275  	1256,670793  	70,465363  	65,462266  	0,010610  	0,011776  	0,003962  	0,004385  	0,004498  	-0,000001  	-0,000000  	26,266358  	25,556821  	26,487852  	26,333516  	29,175829  	27,777982  	28,932375  	28,447124  	31,193978  	30,214353  	32,566154  	59,446655  	25,461291  	23,997385  	28,382544  	64,792570  	0,318311  	0,161291  	-3849,264413  	25600,770865  	-0,018549  	-0,050006  	0,420785  	0,213215  	-4,466793  	16743,918296  	143350,689921  	20,791260  	-0,047957  
126,547000  	24,473968  	30,171156  	23,069776  	657,183579  	70,459881  	65,462141  	0,010616  	0,011784  	0,003963  	0,004416  	0,004481  	0,000001  	-0,000000  	26,280748  	25,562663  	26,495164  	26,343262  	29,179447  	27,776560  	28,937830  	28,454570  	31,206395  	30,211834  	32,566249  	59,454686  	25,475182  	24,022599  	28,377305  	64,791515  	0,343868  	0,174241  	-4150,082709  	18529,394469  	-0,027602  	-0,049982  	0,407558  	0,206513  	-4,321750  	16761,549268  	143472,161909  	20,808878  	-0,047936  
127,549000  	24,481803  	30,164786  	23,073093  	657,183579  	70,457046  	65,462235  	0,010628  	0,011752  	0,003966  	0,004428  	0,004436  	0,000001  	-0,000000  	26,269163  	25,567419  	26,489211  	26,334129  	29,179162  	27,768939  	28,933803  	28,448545  	31,197717  	30,214524  	32,558662  	59,455035  	25,471308  	24,029689  	28,374654  	64,788879  	0,353102  	0,178919  	-4250,891563  	18533,038711  	-0,027608  	-0,049993  	0,371909  	0,188449  	-3,941419  	16692,546387  	143730,336664  	20,846323  	-0,047945  
128,548000  	24,470558  	30,163493  	23,077576  	57,696365  	70,462092  	65,461488  	0,010610  	0,011751  	0,003964  	0,004393  	0,004499  	-0,000001  	-0,000000  	26,274357  	25,567546  	26,502186  	26,336011  	29,182490  	27,773335  	28,933303  	28,454654  	31,204084  	30,208319  	32,556383  	59,459230  	25,482625  	24,036256  	28,379760  	64,782758  	0,325320  	0,164842  	-3923,300203  	1880,756624  	-0,054014  	-0,050007  	0,421632  	0,213644  	-4,473556  	16689,901246  	143354,806538  	20,791857  	-0,047957  
129,550000  	24,460911  	30,162847  	23,080862  	1256,670793  	70,463152  	65,456045  	0,010617  	0,011761  	0,003964  	0,004389  	0,004453  	-0,000000  	-0,000001  	26,269407  	25,562602  	26,509167  	26,336746  	29,172361  	27,768613  	28,928108  	28,455176  	31,205100  	30,211558  	32,562634  	59,455309  	25,475675  	24,047045  	28,378053  	64,785495  	0,321443  	0,162878  	-3882,671774  	25598,565139  	-0,018547  	-0,050002  	0,385281  	0,195225  	-4,093175  	16713,181883  	143503,456675  	20,813417  	-0,047954  
130,547000  	24,452063  	30,160878  	23,083257  	657,183579  	70,459476  	65,452250  	0,010619  	0,011758  	0,003962  	0,004415  	0,004461  	0,000001  	-0,000000  	26,274831  	25,568251  	26,505420  	26,335652  	29,179430  	27,774250  	28,932416  	28,454084  	31,195646  	30,214875  	32,557230  	59,451736  	25,483293  	24,057555  	28,373952  	64,793115  	0,342993  	0,173797  	-4147,967591  	18530,281657  	-0,027604  	-0,049986  	0,391565  	0,198409  	-4,160034  	16706,400304  	143544,255672  	20,819334  	-0,047939  
131,547000  	24,449390  	30,158293  	23,084916  	657,183579  	70,456174  	65,451193  	0,010626  	0,011763  	0,003964  	0,004404  	0,004462  	0,000000  	-0,000000  	26,266986  	25,566625  	26,502244  	26,339156  	29,182925  	27,783671  	28,939298  	28,459420  	31,201198  	30,203217  	32,573442  	59,464934  	25,492236  	24,058199  	28,387009  	64,786121  	0,334045  	0,169263  	-4039,814572  	18533,494275  	-0,027609  	-0,049996  	0,392063  	0,198661  	-4,163460  	16716,211168  	143693,837873  	20,841029  	-0,047948  
132,547000  	24,463093  	30,153123  	23,084609  	57,696365  	70,455426  	65,450446  	0,010627  	0,011772  	0,003963  	0,004419  	0,004473  	0,000001  	-0,000000  	26,273202  	25,574394  	26,503966  	26,349062  	29,183981  	27,779277  	28,936012  	28,458270  	31,209517  	30,217714  	32,565689  	59,467895  	25,495276  	24,071437  	28,403064  	64,796605  	0,346355  	0,175501  	-4174,849039  	1879,754054  	-0,053996  	-0,049989  	0,400861  	0,203119  	-4,256886  	16735,021453  	143702,784278  	20,842327  	-0,047942  
133,547000  	24,455934  	30,146537  	23,086820  	57,696365  	70,454803  	65,449109  	0,010611  	0,011750  	0,003964  	0,004404  	0,004399  	-0,000000  	-0,000000  	26,271230  	25,577575  	26,497424  	26,340740  	29,177640  	27,782157  	28,945489  	28,459870  	31,203701  	30,216162  	32,568892  	59,457843  	25,487923  	24,074906  	28,389928  	64,780702  	0,334243  	0,169363  	-4029,256163  	1880,183989  	-0,054012  	-0,050005  	0,342505  	0,173550  	-3,637702  	16689,045236  	143365,751233  	20,793444  	-0,047956  
134,547000  	24,434490  	30,147214  	23,088232  	1256,670793  	70,454491  	65,449233  	0,010625  	0,011767  	0,003965  	0,004450  	0,004457  	0,000001  	-0,000000  	26,272018  	25,572112  	26,498087  	26,340610  	29,182565  	27,778747  	28,936991  	28,457000  	31,195720  	30,212966  	32,566537  	59,463832  	25,502852  	24,096244  	28,390506  	64,788113  	0,371306  	0,188143  	-4493,446592  	25592,481211  	-0,018543  	-0,049990  	0,388295  	0,196752  	-4,123668  	16724,365899  	143672,746387  	20,837970  	-0,047943  
135,548000  	24,427117  	30,149984  	23,089061  	1256,670793  	70,456610  	65,451286  	0,010626  	0,011770  	0,003965  	0,004395  	0,004434  	-0,000000  	-0,000000  	26,266927  	25,564361  	26,498816  	26,347061  	29,175958  	27,774768  	28,932436  	28,456375  	31,197574  	30,204630  	32,566285  	59,451866  	25,492307  	24,082943  	28,378693  	64,784909  	0,326568  	0,165475  	-3959,066370  	25598,956830  	-0,018548  	-0,050004  	0,369811  	0,187386  	-3,927422  	16732,501530  	143699,613847  	20,841867  	-0,047955  
136,547000  	24,441433  	30,144260  	23,088570  	1256,670793  	70,458977  	65,452032  	0,010613  	0,011798  	0,003967  	0,004405  	0,004475  	0,000001  	-0,000000  	26,255106  	25,558103  	26,489651  	26,342503  	29,172477  	27,772497  	28,921381  	28,452046  	31,185221  	30,204715  	32,557001  	59,442441  	25,483662  	24,080270  	28,371285  	64,779267  	0,334746  	0,169618  	-4043,987239  	25591,139370  	-0,018542  	-0,049987  	0,402681  	0,204042  	-4,277897  	16791,628463  	143404,912057  	20,799124  	-0,047940  
137,548000  	24,439774  	30,131950  	23,087987  	1256,670793  	70,457202  	65,450539  	0,010628  	0,011763  	0,003963  	0,004411  	0,004474  	-0,000000  	-0,000000  	26,265200  	25,565473  	26,495256  	26,345658  	29,176543  	27,773163  	28,935733  	28,451020  	31,196855  	30,208823  	32,558229  	59,448108  	25,498823  	24,092201  	28,379342  	64,779330  	0,339299  	0,171925  	-4091,338562  	25598,541859  	-0,018547  	-0,050003  	0,401415  	0,203400  	-4,264200  	16715,989737  	143734,693359  	20,846955  	-0,047954  
138,546000  	24,455258  	30,131150  	23,088908  	1256,670793  	70,457949  	65,443697  	0,010623  	0,011770  	0,003963  	0,004355  	0,004499  	0,000001  	-0,000000  	26,268177  	25,566294  	26,494756  	26,341619  	29,176651  	27,779062  	28,938371  	28,451183  	31,201695  	30,211960  	32,561963  	59,451392  	25,500923  	24,108874  	28,389051  	64,789061  	0,294435  	0,149192  	-3540,199017  	25592,774189  	-0,018543  	-0,049990  	0,421588  	0,213622  	-4,485283  	16732,152051  	143632,406361  	20,832119  	-0,047943  
139,547000  	24,456272  	30,132166  	23,088079  	1256,670793  	70,458790  	65,447149  	0,010629  	0,011765  	0,003963  	0,004434  	0,004472  	-0,000000  	-0,000000  	26,265173  	25,565475  	26,492195  	26,336524  	29,177864  	27,780673  	28,937232  	28,450006  	31,195376  	30,211804  	32,566241  	59,455415  	25,500462  	24,117194  	28,380415  	64,792377  	0,358178  	0,181491  	-4306,627838  	25598,587603  	-0,018547  	-0,050003  	0,400070  	0,202718  	-4,254134  	16720,709110  	143765,176099  	20,851376  	-0,047954  
140,548000  	24,464567  	30,136474  	23,085745  	57,696365  	70,456423  	65,456232  	0,010626  	0,011734  	0,003964  	0,004424  	0,004471  	0,000001  	-0,000000  	26,273283  	25,569901  	26,488731  	26,335860  	29,176908  	27,782661  	28,927525  	28,451183  	31,199118  	30,208573  	32,562701  	59,457332  	25,504570  	24,123523  	28,378552  	64,789415  	0,350355  	0,177527  	-4209,606702  	1879,814523  	-0,054000  	-0,049993  	0,399231  	0,202293  	-4,235527  	16653,013589  	143684,248908  	20,839638  	-0,047945  
141,546000  	24,460635  	30,140290  	23,087403  	956,927186  	70,457856  	65,452997  	0,010621  	0,011798  	0,003967  	0,004405  	0,004480  	-0,000001  	-0,000000  	26,283571  	25,579532  	26,497836  	26,347095  	29,193738  	27,790202  	28,940077  	28,462010  	31,206119  	30,216682  	32,570607  	59,467049  	25,515157  	24,136506  	28,393360  	64,798495  	0,334600  	0,169544  	-4025,796550  	22557,492179  	-0,022192  	-0,050008  	0,406413  	0,205932  	-4,315742  	16791,619267  	143580,909807  	20,824650  	-0,047958  
142,547000  	24,465612  	30,143121  	23,087526  	357,439972  	70,460348  	65,447149  	0,010622  	0,011767  	0,003962  	0,004438  	0,004491  	0,000000  	-0,000000  	26,280930  	25,581113  	26,503187  	26,352153  	29,193176  	27,793159  	28,946083  	28,466928  	31,203669  	30,218930  	32,570241  	59,460782  	25,524324  	24,154253  	28,391926  	64,799482  	0,361452  	0,183150  	-4347,227606  	12590,637860  	-0,036538  	-0,049996  	0,414743  	0,210154  	-4,411539  	16723,988123  	143594,693062  	20,826649  	-0,047948  
143,551000  	24,457501  	30,144229  	23,086697  	1256,670793  	70,459787  	65,448704  	0,010625  	0,011753  	0,003963  	0,004406  	0,004470  	0,000000  	-0,000000  	26,272840  	25,576208  	26,499431  	26,347733  	29,178291  	27,787630  	28,940045  	28,462204  	31,198783  	30,213746  	32,564574  	59,454463  	25,524106  	24,156703  	28,390173  	64,792010  	0,335513  	0,170007  	-4041,817122  	25596,242520  	-0,018546  	-0,049998  	0,398382  	0,201863  	-4,235718  	16694,886618  	143675,719107  	20,838401  	-0,047950  
144,547000  	24,437163  	30,147306  	23,082582  	1256,670793  	70,458354  	65,449575  	0,010618  	0,011778  	0,003961  	0,004421  	0,004489  	0,000001  	-0,000000  	26,260862  	25,565882  	26,494392  	26,339375  	29,178448  	27,775779  	28,936039  	28,455519  	31,195087  	30,209826  	32,561623  	59,454804  	25,521911  	24,151846  	28,382906  	64,786541  	0,348054  	0,176362  	-4210,161478  	25591,418118  	-0,018542  	-0,049987  	0,413488  	0,209517  	-4,394306  	16748,797552  	143518,920469  	20,815660  	-0,047940  
145,551000  	24,441126  	30,147891  	23,080586  	956,927186  	70,458884  	65,447305  	0,010626  	0,011752  	0,003962  	0,004378  	0,004489  	0,000001  	-0,000000  	26,256371  	25,560705  	26,489425  	26,329754  	29,178216  	27,766334  	28,929334  	28,449843  	31,191407  	30,200744  	32,559618  	59,448410  	25,522142  	24,156380  	28,370574  	64,783315  	0,313010  	0,158605  	-3784,018600  	22551,618919  	-0,022186  	-0,049992  	0,413386  	0,209466  	-4,395676  	16693,230487  	143692,340921  	20,840812  	-0,047945  
146,548000  	24,437501  	30,141059  	23,082428  	-242,047242  	70,456578  	65,449669  	0,010617  	0,011783  	0,003962  	0,004408  	0,004476  	-0,000001  	-0,000000  	26,264864  	25,567821  	26,492376  	26,333203  	29,175425  	27,772717  	28,931942  	28,452881  	31,193208  	30,200178  	32,564493  	59,448394  	25,525648  	24,166815  	28,372323  	64,784895  	0,337427  	0,170977  	-4076,909088  	-27038,028264  	-0,103474  	-0,050006  	0,403096  	0,204252  	-4,282273  	16759,658265  	143503,379003  	20,813405  	-0,047957  
147,548000  	24,439252  	30,136351  	23,082981  	657,183579  	70,454273  	65,450166  	0,010622  	0,011785  	0,003961  	0,004393  	0,004480  	-0,000000  	-0,000000  	26,269890  	25,567788  	26,499858  	26,345551  	29,180490  	27,781104  	28,936266  	28,456680  	31,196556  	30,210222  	32,567406  	59,450873  	25,532702  	24,182410  	28,376351  	64,789869  	0,325207  	0,164785  	-3924,807876  	18535,106441  	-0,027611  	-0,050001  	0,406176  	0,205812  	-4,312574  	16764,217755  	143600,645563  	20,827513  	-0,047952  
148,551000  	24,448223  	30,132535  	23,083595  	57,696365  	70,456765  	65,448549  	0,010628  	0,011776  	0,003962  	0,004408  	0,004474  	0,000001  	-0,000000  	26,271380  	25,561459  	26,494031  	26,343926  	29,175486  	27,774715  	28,924442  	28,444757  	31,193984  	30,205297  	32,564513  	59,445953  	25,534733  	24,192273  	28,381835  	64,790696  	0,337350  	0,170938  	-4062,221450  	1879,833740  	-0,053997  	-0,049989  	0,401792  	0,203591  	-4,269531  	16743,910514  	143723,550953  	20,845339  	-0,047942  
149,547000  	24,430865  	30,132166  	23,085806  	1256,670793  	70,456703  	65,450913  	0,010622  	0,011765  	0,003966  	0,004415  	0,004415  	-0,000000  	-0,000000  	26,267419  	25,562946  	26,485549  	26,335046  	29,171235  	27,773060  	28,925666  	28,437441  	31,191557  	30,201776  	32,562255  	59,447717  	25,534552  	24,184373  	28,378638  	64,780921  	0,342531  	0,173563  	-4136,936880  	25597,525462  	-0,018547  	-0,050001  	0,355191  	0,179978  	-3,772516  	16719,726467  	143607,989100  	20,828578  	-0,047952  
150,550000  	24,415196  	30,134751  	23,085683  	657,183579  	70,453339  	65,448984  	0,010622  	0,011764  	0,003965  	0,004399  	0,004496  	0,000001  	-0,000000  	26,270996  	25,565086  	26,491944  	26,336190  	29,177118  	27,774699  	28,934308  	28,449011  	31,191705  	30,204127  	32,559987  	59,450451  	25,538024  	24,182974  	28,385797  	64,780853  	0,330199  	0,167314  	-4000,768507  	18529,081548  	-0,027602  	-0,049983  	0,418723  	0,212170  	-4,446008  	16717,524188  	143610,241589  	20,828905  	-0,047937  
151,547000  	24,414643  	30,133551  	23,085315  	657,183579  	70,450597  	65,452717  	0,010623  	0,011780  	0,003964  	0,004376  	0,004489  	-0,000001  	-0,000000  	26,276415  	25,570112  	26,495477  	26,353213  	29,184400  	27,787979  	28,949485  	28,468989  	31,204963  	30,213734  	32,569799  	59,465674  	25,551092  	24,196769  	28,389146  	64,792999  	0,311145  	0,157659  	-3769,474295  	18540,163302  	-0,027619  	-0,050016  	0,413887  	0,209720  	-4,388983  	16752,203197  	143636,558284  	20,832721  	-0,047965  
152,546000  	24,422447  	30,124873  	23,084701  	1256,670793  	70,449912  	65,446807  	0,010621  	0,011781  	0,003963  	0,004431  	0,004425  	-0,000000  	-0,000001  	26,271687  	25,574750  	26,490860  	26,339197  	29,189243  	27,784399  	28,938555  	28,455663  	31,207338  	30,210309  	32,563601  	59,462507  	25,547471  	24,186238  	28,388736  	64,794930  	0,355544  	0,180157  	-4294,956503  	25598,367386  	-0,018547  	-0,050002  	0,362627  	0,183746  	-3,849421  	16756,036141  	143591,444959  	20,826178  	-0,047953  
153,550000  	24,415841  	30,119395  	23,081323  	57,696365  	70,451065  	65,445034  	0,010624  	0,011781  	0,003961  	0,004381  	0,004485  	0,000001  	-0,000000  	26,269145  	25,567614  	26,487286  	26,336701  	29,177462  	27,769851  	28,927746  	28,449502  	31,192773  	30,201349  	32,565671  	59,455834  	25,549610  	24,165638  	28,382288  	64,789130  	0,315493  	0,159863  	-3811,895314  	1880,070638  	-0,054000  	-0,049993  	0,410429  	0,207968  	-4,359408  	16755,817540  	143646,111943  	20,834107  	-0,047945  
154,547000  	24,401218  	30,117795  	23,082121  	1256,670793  	70,449008  	65,443168  	0,010626  	0,011744  	0,003967  	0,004422  	0,004479  	-0,000000  	-0,000000  	26,264154  	25,565977  	26,494457  	26,337625  	29,177648  	27,767628  	28,938155  	28,454122  	31,196628  	30,201627  	32,562444  	59,457395  	25,560084  	24,165341  	28,383298  	64,787067  	0,348811  	0,176745  	-4224,073479  	25597,658241  	-0,018547  	-0,050001  	0,405725  	0,205584  	-4,309281  	16675,750200  	143692,460960  	20,840829  	-0,047952  
155,548000  	24,416609  	30,116318  	23,082582  	357,439972  	70,447544  	65,444288  	0,010622  	0,011794  	0,003965  	0,004412  	0,004458  	-0,000001  	-0,000000  	26,268877  	25,572159  	26,492204  	26,335381  	29,169519  	27,773945  	28,938528  	28,445922  	31,191294  	30,201411  	32,556666  	59,459930  	25,560400  	24,127976  	28,379852  	64,787033  	0,340787  	0,172679  	-4114,721614  	12593,759994  	-0,036546  	-0,050009  	0,389252  	0,197237  	-4,132183  	16783,273524  	143594,389435  	20,826605  	-0,047959  
156,546000  	24,445427  	30,111148  	23,083196  	-242,047242  	70,453089  	65,448020  	0,010630  	0,011772  	0,003964  	0,004415  	0,004471  	0,000000  	-0,000000  	26,263615  	25,571321  	26,499419  	26,332645  	29,172526  	27,771562  	28,935706  	28,452462  	31,195175  	30,201550  	32,559050  	59,445887  	25,562357  	24,127719  	28,382907  	64,785708  	0,342597  	0,173597  	-4111,912819  	-27032,499057  	-0,103452  	-0,049995  	0,398973  	0,202163  	-4,236916  	16734,822661  	143774,496742  	20,852728  	-0,047947  
157,547000  	24,448008  	30,109640  	23,083933  	-242,047242  	70,458728  	65,449233  	0,010626  	0,011769  	0,003965  	0,004393  	0,004461  	0,000002  	-0,000000  	26,260815  	25,560219  	26,491891  	26,331797  	29,176045  	27,770146  	28,925328  	28,449086  	31,189973  	30,203000  	32,555289  	59,456119  	25,561337  	24,128776  	28,381431  	64,777323  	0,325020  	0,164690  	-3898,128852  	-27025,032991  	-0,103423  	-0,049979  	0,391663  	0,198459  	-4,162965  	16729,338538  	143699,825680  	20,841898  	-0,047934  
158,547000  	24,466994  	30,116841  	23,083687  	357,439972  	70,460784  	65,441395  	0,010616  	0,011785  	0,003963  	0,004446  	0,004460  	-0,000000  	-0,000000  	26,256985  	25,564132  	26,491600  	26,333938  	29,174872  	27,777364  	28,927686  	28,452769  	31,197609  	30,197421  	32,560056  	59,454327  	25,567243  	24,118734  	28,380699  	64,782848  	0,367729  	0,186331  	-4401,177568  	12592,767693  	-0,036544  	-0,050005  	0,390919  	0,198082  	-4,163260  	16764,059995  	143468,963234  	20,808414  	-0,047955  
159,548000  	24,492433  	30,124503  	23,084056  	1256,670793  	70,464616  	65,446589  	0,010628  	0,011766  	0,003968  	0,004391  	0,004506  	-0,000001  	-0,000000  	26,264522  	25,568180  	26,493462  	26,339081  	29,179651  	27,780695  	28,937787  	28,450351  	31,198948  	30,205602  	32,558825  	59,458220  	25,572624  	24,119847  	28,393404  	64,781885  	0,323218  	0,163777  	-3856,267859  	25601,794260  	-0,018550  	-0,050010  	0,426820  	0,216273  	-4,544366  	16722,929784  	143725,577487  	20,845633  	-0,047960  
160,549000  	24,509699  	30,131027  	23,084670  	57,696365  	70,461812  	65,450073  	0,010613  	0,011773  	0,003967  	0,004405  	0,004452  	0,000000  	-0,000000  	26,261308  	25,554488  	26,494009  	26,324294  	29,176209  	27,774043  	28,929727  	28,448082  	31,191550  	30,209140  	32,560938  	59,457598  	25,561934  	24,096437  	28,395343  	64,782591  	0,334774  	0,169633  	-3986,520848  	1880,062803  	-0,054005  	-0,049998  	0,383863  	0,194506  	-4,081885  	16738,574955  	143419,507337  	20,801241  	-0,047950  
161,546000  	24,481403  	30,144937  	23,083810  	1256,670793  	70,457762  	65,450975  	0,010625  	0,011784  	0,003963  	0,004422  	0,004459  	-0,000000  	-0,000000  	26,260748  	25,558741  	26,489163  	26,328349  	29,167901  	27,767465  	28,923074  	28,452378  	31,199328  	30,206763  	32,562469  	59,457159  	25,564166  	24,087093  	28,392244  	64,777500  	0,348144  	0,176407  	-4176,865043  	25598,992390  	-0,018548  	-0,050004  	0,389518  	0,197372  	-4,137926  	16761,063253  	143677,470259  	20,838655  	-0,047955  
162,549000  	24,476856  	30,160693  	23,084731  	1256,670793  	70,451033  	65,450042  	0,010603  	0,011822  	0,003966  	0,004404  	0,004488  	0,000001  	-0,000000  	26,259714  	25,559993  	26,482750  	26,324405  	29,161505  	27,758556  	28,921564  	28,445388  	31,189862  	30,196737  	32,554901  	59,447298  	25,545409  	24,070489  	28,374787  	64,771565  	0,333608  	0,169042  	-4016,811800  	25590,189906  	-0,018541  	-0,049984  	0,412631  	0,209083  	-4,378379  	16843,977356  	143202,428145  	20,769756  	-0,047938  
163,549000  	24,472524  	30,166694  	23,086205  	1256,670793  	70,444149  	65,455392  	0,010627  	0,011756  	0,003965  	0,004448  	0,004485  	0,000001  	-0,000000  	26,267372  	25,559699  	26,479105  	26,332582  	29,170229  	27,770271  	28,930041  	28,450762  	31,192828  	30,199072  	32,559391  	59,449624  	25,555258  	24,067332  	28,380711  	64,781058  	0,369446  	0,187201  	-4456,405827  	25594,380248  	-0,018544  	-0,049994  	0,410344  	0,207924  	-4,343464  	16702,091250  	143705,594593  	20,842734  	-0,047946  
164,548000  	24,463615  	30,165278  	23,084670  	57,696365  	70,444959  	65,447180  	0,010625  	0,011784  	0,003965  	0,004374  	0,004474  	0,000001  	-0,000000  	26,263866  	25,554253  	26,482811  	26,336842  	29,174147  	27,770248  	28,931727  	28,446902  	31,182539  	30,197863  	32,554802  	59,450138  	25,547928  	24,058220  	28,384382  	64,778936  	0,309814  	0,156985  	-3742,024043  	1879,903368  	-0,054001  	-0,049993  	0,401538  	0,203462  	-4,257941  	16762,706650  	143660,996728  	20,836266  	-0,047946  
165,549000  	24,459375  	30,161308  	23,084977  	57,696365  	70,449195  	65,440897  	0,010620  	0,011781  	0,003963  	0,004428  	0,004465  	-0,000001  	-0,000001  	26,263369  	25,552603  	26,481169  	26,325201  	29,168125  	27,768831  	28,929880  	28,444582  	31,184151  	30,197833  	32,549900  	59,446095  	25,536068  	24,038900  	28,376130  	64,772382  	0,353397  	0,179069  	-4268,640422  	1880,472051  	-0,054017  	-0,050011  	0,394204  	0,199746  	-4,188964  	16756,273842  	143553,992920  	20,820746  	-0,047961  
166,546000  	24,456856  	30,157800  	23,087372  	1256,670793  	70,451251  	65,448424  	0,010621  	0,011755  	0,003965  	0,004410  	0,004435  	0,000000  	-0,000001  	26,251173  	25,549621  	26,471998  	26,317651  	29,168315  	27,761070  	28,924260  	28,433663  	31,185588  	30,188547  	32,545016  	59,442098  	25,525472  	24,028880  	28,381896  	64,768177  	0,338494  	0,171517  	-4087,911592  	25595,399565  	-0,018545  	-0,049996  	0,370673  	0,187823  	-3,934616  	16699,267832  	143577,739377  	20,824191  	-0,047948  
167,547000  	24,446625  	30,151892  	23,089860  	1256,670793  	70,452560  	65,446216  	0,010626  	0,011814  	0,003962  	0,004428  	0,004447  	0,000000  	-0,000000  	26,252892  	25,554412  	26,482539  	26,326037  	29,173012  	27,760578  	28,918666  	28,438694  	31,188047  	30,199052  	32,554566  	59,452267  	25,530409  	24,027674  	28,381578  	64,773165  	0,353356  	0,179048  	-4270,644385  	25594,743341  	-0,018545  	-0,049995  	0,380088  	0,192593  	-4,037390  	16827,407552  	143697,248381  	20,841524  	-0,047947  
168,548000  	24,444290  	30,148999  	23,092194  	1256,670793  	70,455301  	65,451255  	0,010621  	0,011764  	0,003967  	0,004440  	0,004454  	0,000001  	-0,000000  	26,257760  	25,551814  	26,484666  	26,325087  	29,166586  	27,759716  	28,919607  	28,442031  	31,182166  	30,199941  	32,553456  	59,457591  	25,523574  	24,013590  	28,381917  	64,777367  	0,363108  	0,183989  	-4388,071281  	25590,643094  	-0,018542  	-0,049986  	0,385845  	0,195511  	-4,096663  	16717,546826  	143589,891518  	20,825953  	-0,047939  
169,548000  	24,440235  	30,146260  	23,093299  	57,696365  	70,459351  	65,451566  	0,010614  	0,011774  	0,003965  	0,004381  	0,004408  	0,000000  	-0,000000  	26,255992  	25,550755  	26,478416  	26,325111  	29,163670  	27,764861  	28,925997  	28,441972  	31,183272  	30,195558  	32,551530  	59,461208  	25,519312  	24,009765  	28,385520  	64,777258  	0,315048  	0,159637  	-3808,156261  	1879,597647  	-0,054005  	-0,049999  	0,349692  	0,177192  	-3,715591  	16741,183309  	143424,661935  	20,801989  	-0,047951  
170,548000  	24,472371  	30,141644  	23,093975  	1256,670793  	70,458043  	65,454116  	0,010613  	0,011776  	0,003965  	0,004421  	0,004440  	0,000000  	-0,000001  	26,267039  	25,565461  	26,481099  	26,335313  	29,176933  	27,774457  	28,936685  	28,456348  	31,194088  	30,207265  	32,562222  	59,470504  	25,528305  	24,019657  	28,384335  	64,781481  	0,347947  	0,176307  	-4178,732791  	25594,489772  	-0,018544  	-0,049995  	0,374716  	0,189872  	-3,978412  	16744,424120  	143408,259015  	20,799609  	-0,047947  
171,548000  	24,484353  	30,137767  	23,094159  	1256,670793  	70,451875  	65,463914  	0,010633  	0,011792  	0,003968  	0,004394  	0,004442  	0,000000  	-0,000001  	26,267906  	25,570487  	26,483742  	26,334151  	29,180442  	27,770197  	28,935003  	28,459814  	31,193675  	30,204914  	32,561639  	59,463835  	25,516864  	24,013593  	28,379262  	64,778885  	0,326209  	0,165292  	-3906,700774  	25595,209205  	-0,018545  	-0,049996  	0,376368  	0,190708  	-3,983202  	16777,999513  	143832,955533  	20,861206  	-0,047948  
172,546000  	24,495843  	30,145091  	23,096186  	1256,670793  	70,448946  	65,453028  	0,010616  	0,011763  	0,003963  	0,004417  	0,004516  	0,000000  	-0,000000  	26,254458  	25,562711  	26,485492  	26,331847  	29,174763  	27,767848  	28,930892  	28,453137  	31,188189  	30,195843  	32,556598  	59,451386  	25,497274  	24,001604  	28,381135  	64,778828  	0,344769  	0,174697  	-4125,927832  	25595,838820  	-0,018545  	-0,049998  	0,434841  	0,220337  	-4,609372  	16716,541545  	143465,517421  	20,807914  	-0,047949  
173,549000  	24,475566  	30,156200  	23,096002  	1256,670793  	70,444990  	65,446807  	0,010628  	0,011772  	0,003965  	0,004336  	0,004450  	-0,000000  	-0,000000  	26,256800  	25,561955  	26,486070  	26,337954  	29,173574  	27,769744  	28,936647  	28,450017  	31,184857  	30,203608  	32,557516  	59,450212  	25,487630  	23,994939  	28,383520  	64,786099  	0,278591  	0,141164  	-3352,490300  	25598,193493  	-0,018547  	-0,050003  	0,382553  	0,193842  	-4,056948  	16734,966272  	143733,097552  	20,846723  	-0,047954  
174,547000  	24,446748  	30,164263  	23,096247  	657,183579  	70,447482  	65,440026  	0,010622  	0,011805  	0,003962  	0,004410  	0,004532  	-0,000001  	-0,000000  	26,260947  	25,558065  	26,486722  	26,334256  	29,167313  	27,762401  	28,928798  	28,437204  	31,181763  	30,206240  	32,549463  	59,447274  	25,474801  	23,987042  	28,374845  	64,779438  	0,338982  	0,171764  	-4105,707004  	18536,773492  	-0,027614  	-0,050007  	0,447622  	0,226813  	-4,755804  	16807,340842  	143606,555698  	20,828370  	-0,047958  
175,547000  	24,441863  	30,165832  	23,095971  	657,183579  	70,452093  	65,444194  	0,010627  	0,011775  	0,003962  	0,004389  	0,004455  	0,000000  	-0,000000  	26,270537  	25,559159  	26,496403  	26,335600  	29,178101  	27,773054  	28,931819  	28,448413  	31,192182  	30,213299  	32,554471  	59,453576  	25,482738  	23,992977  	28,383295  	64,787117  	0,321692  	0,163004  	-3900,697788  	18532,911646  	-0,027609  	-0,049996  	0,386637  	0,195912  	-4,108229  	16742,953339  	143715,105886  	20,844114  	-0,047948  
176,549000  	24,462017  	30,156969  	23,096032  	1256,670793  	70,454772  	65,450477  	0,010613  	0,011762  	0,003964  	0,004356  	0,004482  	0,000001  	-0,000001  	26,271431  	25,567799  	26,495158  	26,334023  	29,179616  	27,771241  	28,931000  	28,452357  	31,198977  	30,208147  	32,563167  	59,450139  	25,478268  	23,989000  	28,384852  	64,781966  	0,294989  	0,149473  	-3558,771799  	25593,491367  	-0,018544  	-0,049992  	0,408193  	0,206834  	-4,334152  	16713,450713  	143404,318925  	20,799038  	-0,047945  
177,548000  	24,471111  	30,144875  	23,096984  	1256,670793  	70,457887  	65,452779  	0,010624  	0,011770  	0,003963  	0,004401  	0,004456  	-0,000000  	-0,000000  	26,277683  	25,565572  	26,506004  	26,341765  	29,184470  	27,782804  	28,935261  	28,462714  	31,203611  	30,210912  	32,565804  	59,463150  	25,473343  	23,992877  	28,388033  	64,792721  	0,331433  	0,167939  	-3983,555027  	25598,828888  	-0,018548  	-0,050004  	0,387297  	0,196246  	-4,112951  	16732,333865  	143639,347416  	20,833126  	-0,047955  
178,551000  	24,466073  	30,146660  	23,096370  	1256,670793  	70,460317  	65,448735  	0,010624  	0,011781  	0,003962  	0,004366  	0,004501  	-0,000001  	-0,000001  	26,276535  	25,569586  	26,482843  	26,337915  	29,177910  	27,781252  	28,935990  	28,455670  	31,193578  	30,204872  	32,561809  	59,462178  	25,473636  	23,982569  	28,383359  	64,788381  	0,303212  	0,153640  	-3648,744021  	25602,515262  	-0,018550  	-0,050012  	0,423193  	0,214435  	-4,499969  	16755,662609  	143652,142117  	20,834982  	-0,047962  
179,547000  	24,447363  	30,151091  	23,096002  	357,439972  	70,459943  	65,449326  	0,010622  	0,011804  	0,003963  	0,004368  	0,004482  	-0,000000  	-0,000001  	26,254466  	25,551736  	26,481619  	26,327734  	29,165882  	27,763217  	28,928979  	28,441703  	31,179289  	30,190652  	32,559477  	59,450086  	25,458202  	23,971160  	28,374893  	64,769428  	0,305183  	0,154638  	-3687,424736  	12592,485590  	-0,036544  	-0,050006  	0,407847  	0,206659  	-4,335946  	16804,629201  	143600,405486  	20,827478  	-0,047957  
180,549000  	24,435258  	30,153492  	23,094651  	956,927186  	70,459943  	65,459653  	0,010620  	0,011803  	0,003963  	0,004397  	0,004506  	0,000001  	-0,000000  	26,252533  	25,557418  	26,483570  	26,335232  	29,172459  	27,762373  	28,927988  	28,440008  	31,190678  	30,191329  	32,551917  	59,444543  	25,451182  	23,975230  	28,377088  	64,787146  	0,328240  	0,166321  	-3976,105353  	22550,332925  	-0,022185  	-0,049990  	0,426638  	0,216181  	-4,526379  	16801,975571  	143558,257820  	20,821365  	-0,047943  
181,547000  	24,418852  	30,146722  	23,093361  	-242,047242  	70,454522  	65,458533  	0,010632  	0,011759  	0,003967  	0,004389  	0,004475  	-0,000000  	-0,000001  	26,268454  	25,549697  	26,483986  	26,323061  	29,161092  	27,763299  	28,927443  	28,447100  	31,183864  	30,200585  	32,549171  	59,447580  	25,448611  	23,971409  	28,384374  	64,779995  	0,321855  	0,163086  	-3905,337302  	-27035,495839  	-0,103460  	-0,050001  	0,402705  	0,204053  	-4,268786  	16707,658144  	143826,671160  	20,860295  	-0,047952  
182,546000  	24,431448  	30,139028  	23,093484  	357,439972  	70,448292  	65,455050  	0,010621  	0,011789  	0,003965  	0,004417  	0,004496  	-0,000001  	-0,000001  	26,262354  	25,561298  	26,488618  	26,340963  	29,167036  	27,768693  	28,938125  	28,444440  	31,192218  	30,209608  	32,555651  	59,457596  	25,464873  	23,978163  	28,388231  	64,768266  	0,344802  	0,174714  	-4168,954393  	12594,393311  	-0,036549  	-0,050014  	0,419275  	0,212450  	-4,441987  	16772,854965  	143587,511930  	20,825608  	-0,047963  
183,549000  	24,465827  	30,130627  	23,092931  	1256,670793  	70,448292  	65,445905  	0,010616  	0,011759  	0,003964  	0,004400  	0,004487  	0,000001  	-0,000000  	26,267350  	25,567450  	26,483938  	26,347340  	29,181667  	27,781273  	28,939431  	28,455862  	31,189623  	30,201961  	32,568861  	59,450117  	25,467797  	23,987786  	28,386089  	64,770660  	0,330903  	0,167671  	-3970,908665  	25592,081248  	-0,018543  	-0,049989  	0,412324  	0,208928  	-4,376345  	16706,957772  	143468,108842  	20,808290  	-0,047942  
184,546000  	24,472709  	30,125580  	23,092685  	57,696365  	70,449663  	65,443666  	0,010628  	0,011766  	0,003962  	0,004400  	0,004467  	0,000000  	-0,000000  	26,275720  	25,567858  	26,482041  	26,342789  	29,175805  	27,768429  	28,930572  	28,450879  	31,193679  	30,195663  	32,569012  	59,454790  	25,465957  	23,998576  	28,381826  	64,771882  	0,330620  	0,167528  	-3959,153860  	1879,650244  	-0,054006  	-0,050000  	0,396324  	0,200821  	-4,209562  	16722,461454  	143743,300831  	20,848203  	-0,047951  
185,548000  	24,459682  	30,135520  	23,092931  	956,927186  	70,451189  	65,439809  	0,010624  	0,011763  	0,003962  	0,004397  	0,004471  	0,000001  	-0,000000  	26,263217  	25,564772  	26,492290  	26,335126  	29,173391  	27,766702  	28,937469  	28,451039  	31,189784  	30,194290  	32,557651  	59,452311  	25,459528  	23,984381  	28,367275  	64,770089  	0,328002  	0,166201  	-3943,764294  	22550,691901  	-0,022185  	-0,049991  	0,399075  	0,202214  	-4,243331  	16716,303136  	143646,599159  	20,834178  	-0,047944  
186,548000  	24,424597  	30,147214  	23,093115  	-242,047242  	70,453121  	65,442297  	0,010625  	0,011795  	0,003963  	0,004415  	0,004494  	0,000001  	-0,000000  	26,266400  	25,563733  	26,487513  	26,335084  	29,180886  	27,773929  	28,940368  	28,447834  	31,187210  	30,202676  	32,554043  	59,452869  	25,466077  	23,991438  	28,384640  	64,767168  	0,342825  	0,173712  	-4155,970550  	-27031,147053  	-0,103443  	-0,049992  	0,417540  	0,211571  	-4,439181  	16785,159576  	143661,498065  	20,836339  	-0,047944  
187,549000  	24,388929  	30,148599  	23,092378  	657,183579  	70,451843  	65,445003  	0,010608  	0,011752  	0,003960  	0,004398  	0,004465  	-0,000001  	-0,000000  	26,265734  	25,563343  	26,483307  	26,331348  	29,162106  	27,768073  	28,926687  	28,453237  	31,190040  	30,203691  	32,555164  	59,445939  	25,475892  	23,978937  	28,382096  	64,768049  	0,329192  	0,166804  	-4016,546153  	18538,507502  	-0,027617  	-0,050012  	0,394365  	0,199828  	-4,189458  	16691,885632  	143309,827374  	20,785333  	-0,047962  
188,548000  	24,409820  	30,140044  	23,091457  	57,696365  	70,450909  	65,452281  	0,010625  	0,011778  	0,003962  	0,004405  	0,004496  	-0,000001  	-0,000001  	26,265466  	25,554591  	26,482091  	26,327293  	29,162179  	27,763426  	28,919949  	28,448822  	31,182005  	30,201634  	32,555908  	59,447387  	25,460890  	23,968680  	28,374603  	64,777526  	0,334432  	0,169459  	-4059,613938  	1880,136599  	-0,054018  	-0,050012  	0,419162  	0,212393  	-4,445583  	16749,792928  	143669,187596  	20,837454  	-0,047962  
189,548000  	24,430926  	30,118656  	23,091764  	956,927186  	70,454522  	65,448891  	0,010626  	0,011756  	0,003966  	0,004320  	0,004445  	-0,000001  	-0,000001  	26,269421  	25,556732  	26,483922  	26,340689  	29,167728  	27,776688  	28,931790  	28,449758  	31,195578  	30,201522  	32,557105  	59,447438  	25,472350  	23,965398  	28,379474  	64,776124  	0,266285  	0,134929  	-3208,421562  	22558,965012  	-0,022193  	-0,050012  	0,379048  	0,192066  	-4,025771  	16702,323292  	143683,352149  	20,839508  	-0,047961  
190,548000  	24,437685  	30,112994  	23,092255  	-242,047242  	70,455644  	65,442297  	0,010621  	0,011798  	0,003965  	0,004425  	0,004474  	0,000001  	-0,000000  	26,265557  	25,555798  	26,477911  	26,333074  	29,170003  	27,775534  	28,935877  	28,446186  	31,196253  	30,206109  	32,559642  	59,449063  	25,469869  	23,970837  	28,375289  	64,781296  	0,351123  	0,177917  	-4221,369308  	-27031,758587  	-0,103446  	-0,049993  	0,401974  	0,203683  	-4,275836  	16791,502538  	143592,221679  	20,826291  	-0,047945  
191,548000  	24,434920  	30,117610  	23,093361  	-242,047242  	70,459974  	65,442950  	0,010622  	0,011777  	0,003964  	0,004374  	0,004516  	-0,000000  	-0,000000  	26,267335  	25,564005  	26,481662  	26,326238  	29,170859  	27,774301  	28,932145  	28,447705  	31,191687  	30,200262  	32,562562  	59,455158  	25,469064  	23,991372  	28,379001  	64,779536  	0,309357  	0,156754  	-3724,080201  	-27037,509273  	-0,103467  	-0,050005  	0,435006  	0,220421  	-4,630597  	16747,130809  	143611,103042  	20,829029  	-0,047955  
192,548000  	24,425089  	30,121918  	23,094343  	956,927186  	70,458354  	65,445812  	0,010624  	0,011753  	0,003965  	0,004391  	0,004467  	-0,000000  	-0,000001  	26,261170  	25,560786  	26,485448  	26,329877  	29,170298  	27,772856  	28,929378  	28,443685  	31,184669  	30,197351  	32,560648  	59,453138  	25,466400  	23,986267  	28,370459  	64,779600  	0,323604  	0,163973  	-3905,285376  	22555,598088  	-0,022190  	-0,050003  	0,395897  	0,200604  	-4,210523  	16695,014666  	143656,731827  	20,835647  	-0,047954  
193,548000  	24,434766  	30,126011  	23,093207  	1256,670793  	70,462653  	65,450446  	0,010632  	0,011769  	0,003963  	0,004397  	0,004417  	-0,000000  	-0,000000  	26,260887  	25,554251  	26,483865  	26,330174  	29,168361  	27,767274  	28,918507  	28,444478  	31,182901  	30,191559  	32,554693  	59,443367  	25,455287  	23,971564  	28,363956  	64,779340  	0,328068  	0,166234  	-3955,263282  	25598,951545  	-0,018548  	-0,050004  	0,356719  	0,180752  	-3,793600  	16729,820309  	143824,708176  	20,860010  	-0,047955  
194,548000  	24,441034  	30,121887  	23,094681  	657,183579  	70,462591  	65,451379  	0,010616  	0,011770  	0,003964  	0,004377  	0,004491  	0,000001  	-0,000000  	26,258780  	25,555684  	26,484354  	26,326608  	29,166900  	27,766973  	28,922196  	28,443513  	31,184396  	30,193405  	32,553338  	59,442577  	25,453885  	23,978010  	28,373043  	64,781276  	0,311780  	0,157981  	-3752,031026  	18530,845224  	-0,027605  	-0,049989  	0,415504  	0,210539  	-4,417882  	16731,020845  	143473,355234  	20,809051  	-0,047942  
195,545000  	24,442877  	30,120410  	23,095971  	657,183579  	70,461937  	65,445345  	0,010619  	0,011770  	0,003962  	0,004393  	0,004428  	0,000001  	-0,000000  	26,258206  	25,556142  	26,480674  	26,325876  	29,168339  	27,766510  	28,924914  	28,440492  	31,183777  	30,196908  	32,557588  	59,445334  	25,460358  	23,983569  	28,377061  	64,786635  	0,325090  	0,164726  	-3909,921906  	18531,941202  	-0,027607  	-0,049993  	0,364903  	0,184899  	-3,884028  	16731,477855  	143540,499170  	20,818789  	-0,047945  
196,550000  	24,436487  	30,122934  	23,096217  	57,696365  	70,462373  	65,449264  	0,010624  	0,011806  	0,003962  	0,004416  	0,004492  	0,000001  	-0,000000  	26,259254  	25,553982  	26,472312  	26,323152  	29,163527  	27,764575  	28,922981  	28,438326  	31,178975  	30,190118  	32,557356  	59,448555  	25,452268  	23,984777  	28,372966  	64,779848  	0,343831  	0,174222  	-4141,813379  	1879,146637  	-0,053997  	-0,049991  	0,415905  	0,210742  	-4,423814  	16808,233639  	143645,744766  	20,834054  	-0,047943  
197,548000  	24,422477  	30,128658  	23,094743  	956,927186  	70,461501  	65,454925  	0,010628  	0,011782  	0,003961  	0,004380  	0,004507  	-0,000001  	-0,000000  	26,258279  	25,556714  	26,478199  	26,319531  	29,161946  	27,766335  	28,928637  	28,443264  	31,179553  	30,188768  	32,556727  	59,454171  	25,448536  	23,998751  	28,378515  	64,777628  	0,314657  	0,159439  	-3803,536420  	22560,594443  	-0,022195  	-0,050016  	0,427567  	0,216651  	-4,541939  	16757,973128  	143725,450388  	20,845614  	-0,047965  
198,546000  	24,454859  	30,129212  	23,093391  	-242,047242  	70,461750  	65,454614  	0,010623  	0,011767  	0,003965  	0,004426  	0,004492  	0,000001  	-0,000000  	26,261181  	25,556389  	26,482544  	26,320375  	29,165159  	27,764668  	28,925740  	28,446516  	31,182044  	30,192125  	32,552196  	59,454345  	25,456830  	24,007094  	28,381544  	64,787697  	0,352157  	0,178440  	-4233,079913  	-27027,997084  	-0,103431  	-0,049985  	0,415799  	0,210689  	-4,417425  	16725,415042  	143615,996380  	20,829739  	-0,047939  
199,551000  	24,472094  	30,126073  	23,093760  	657,183579  	70,468728  	65,454303  	0,010624  	0,011791  	0,003965  	0,004420  	0,004435  	0,000001  	-0,000000  	26,257611  	25,548917  	26,474182  	26,324811  	29,157893  	27,760772  	28,920249  	28,436624  	31,178287  	30,188640  	32,543036  	59,452369  	25,459173  	24,002486  	28,368512  	64,781450  	0,346794  	0,175723  	-4153,648952  	18530,118996  	-0,027604  	-0,049987  	0,370875  	0,187925  	-3,945888  	16776,930562  	143645,356406  	20,833998  	-0,047940  
200,547000  	24,480082  	30,127242  	23,093391  	57,696365  	70,472778  	65,452872  	0,010617  	0,011754  	0,003967  	0,004428  	0,004479  	-0,000001  	-0,000000  	26,248245  	25,550167  	26,480067  	26,330697  	29,157073  	27,763419  	28,926275  	28,437643  	31,184659  	30,191786  	32,547980  	59,453697  	25,468356  	24,004442  	28,362735  	64,778472  	0,353715  	0,179230  	-4231,425137  	1879,988933  	-0,054017  	-0,050011  	0,405588  	0,205514  	-4,319925  	16696,018532  	143499,311813  	20,812816  	-0,047961  
201,549000  	24,441249  	30,136720  	23,092317  	-242,047242  	70,473494  	65,459062  	0,010624  	0,011790  	0,003962  	0,004387  	0,004457  	0,000000  	-0,000000  	26,251622  	25,556065  	26,481426  	26,330536  	29,165211  	27,765016  	28,926721  	28,443883  	31,193589  	30,195051  	32,552723  	59,452572  	25,474302  	24,004467  	28,370320  	64,789423  	0,320544  	0,162422  	-3867,427130  	-27034,711722  	-0,103457  	-0,049999  	0,388031  	0,196618  	-4,128429  	16774,445304  	143643,449911  	20,833721  	-0,047951  
202,548000  	24,456917  	30,145952  	23,092501  	-242,047242  	70,473432  	65,467336  	0,010614  	0,011767  	0,003964  	0,004431  	0,004464  	-0,000000  	-0,000000  	26,256392  	25,552925  	26,486695  	26,330775  	29,173003  	27,764202  	28,923702  	28,440976  	31,192396  	30,192148  	32,561865  	59,452535  	25,486437  	24,001105  	28,376683  	64,777662  	0,356122  	0,180449  	-4291,816595  	-27037,705050  	-0,103468  	-0,050005  	0,393555  	0,199417  	-4,180247  	16725,702265  	143436,651671  	20,803727  	-0,047956  
203,547000  	24,473508  	30,144752  	23,093422  	-242,047242  	70,468790  	65,466714  	0,010616  	0,011785  	0,003964  	0,004403  	0,004488  	0,000000  	-0,000000  	26,257216  	25,544491  	26,476315  	26,325756  	29,169974  	27,762687  	28,921922  	28,438137  	31,178778  	30,188442  	32,552495  	59,452437  	25,484890  	23,992435  	28,374073  	64,772707  	0,332740  	0,168602  	-3997,486089  	-27032,418572  	-0,103448  	-0,049994  	0,412401  	0,208967  	-4,376901  	16764,768148  	143483,494964  	20,810522  	-0,047946  
204,548000  	24,485367  	30,143337  	23,092624  	-242,047242  	70,471905  	65,465034  	0,010625  	0,011772  	0,003964  	0,004414  	0,004486  	-0,000001  	-0,000000  	26,255109  	25,547547  	26,478303  	26,321810  	29,170928  	27,760546  	28,919527  	28,438798  	31,178079  	30,185576  	32,546935  	59,453381  	25,486227  	23,990561  	28,369484  	64,772465  	0,341676  	0,173130  	-4095,231836  	-27039,297387  	-0,103474  	-0,050008  	0,411042  	0,208278  	-4,366664  	16736,425734  	143677,604419  	20,838675  	-0,047959  
205,548000  	24,437808  	30,151215  	23,093269  	1256,670793  	70,478603  	65,461333  	0,010621  	0,011781  	0,003960  	0,004372  	0,004463  	-0,000000  	-0,000000  	26,247129  	25,551790  	26,471158  	26,311263  	29,162284  	27,758513  	28,918737  	28,438645  	31,180844  	30,185919  	32,544794  	59,447780  	25,483740  	23,998155  	28,362672  	64,781261  	0,307886  	0,156008  	-3726,401625  	25597,163190  	-0,018546  	-0,050000  	0,393134  	0,199204  	-4,185090  	16754,654498  	143587,547235  	20,825613  	-0,047952  
206,550000  	24,400880  	30,157862  	23,092716  	1256,670793  	70,475800  	65,463323  	0,010623  	0,011774  	0,003961  	0,004406  	0,004467  	0,000000  	-0,000000  	26,258387  	25,541237  	26,473917  	26,319275  	29,165459  	27,752565  	28,917005  	28,437390  	31,176161  	30,190028  	32,544003  	59,445227  	25,483737  	24,016473  	28,367047  	64,783356  	0,335591  	0,170047  	-4092,712703  	25595,940245  	-0,018546  	-0,049998  	0,396110  	0,200712  	-4,212742  	16739,358098  	143629,949101  	20,831763  	-0,047949  
207,551000  	24,398391  	30,152045  	23,091150  	1256,670793  	70,472902  	65,465718  	0,010617  	0,011758  	0,003967  	0,004380  	0,004451  	-0,000000  	-0,000000  	26,252840  	25,559763  	26,481670  	26,331378  	29,175269  	27,765560  	28,922834  	28,445404  	31,191043  	30,201206  	32,554627  	59,460598  	25,499310  	24,014328  	28,374585  	64,781632  	0,314364  	0,159291  	-3831,624312  	25597,183256  	-0,018546  	-0,050000  	0,383434  	0,194289  	-4,073619  	16705,755114  	143489,984109  	20,811463  	-0,047952  
208,547000  	24,398391  	30,132904  	23,090781  	1256,670793  	70,472466  	65,460617  	0,010619  	0,011785  	0,003966  	0,004383  	0,004454  	0,000000  	-0,000000  	26,261081  	25,560486  	26,489199  	26,336476  	29,171752  	27,766501  	28,929731  	28,449389  	31,193256  	30,195268  	32,547707  	59,463729  	25,502525  	24,030180  	28,373819  	64,780885  	0,317080  	0,160667  	-3851,868219  	25596,492297  	-0,018546  	-0,049999  	0,385829  	0,195502  	-4,102879  	16764,648590  	143529,836920  	20,817243  	-0,047950  
209,550000  	24,376794  	30,115087  	23,089123  	57,696365  	70,474740  	65,462670  	0,010626  	0,011768  	0,003964  	0,004383  	0,004465  	0,000001  	-0,000000  	26,268575  	25,570059  	26,489830  	26,331808  	29,176056  	27,772604  	28,925486  	28,443350  	31,187233  	30,197962  	32,552420  	59,453981  	25,509806  	24,036777  	28,383379  	64,786168  	0,317228  	0,160742  	-3856,214051  	1879,497510  	-0,053996  	-0,049989  	0,394217  	0,199753  	-4,192266  	16726,853280  	143682,391841  	20,839369  	-0,047942  
210,547000  	24,400204  	30,110286  	23,088324  	1256,670793  	70,474429  	65,463479  	0,010620  	0,011764  	0,003963  	0,004431  	0,004463  	0,000000  	-0,000000  	26,252208  	25,556559  	26,485989  	26,325977  	29,167814  	27,762665  	28,919750  	28,438855  	31,181208  	30,189067  	32,549978  	59,443182  	25,493847  	24,038970  	28,376292  	64,773669  	0,355687  	0,180229  	-4302,454440  	25595,329292  	-0,018545  	-0,049996  	0,393116  	0,199195  	-4,179631  	16718,871872  	143556,923273  	20,821171  	-0,047948  
211,550000  	24,414213  	30,103085  	23,087956  	357,439972  	70,475613  	65,463696  	0,010627  	0,011789  	0,003964  	0,004446  	0,004407  	0,000001  	-0,000000  	26,263519  	25,554422  	26,486933  	26,330865  	29,179564  	27,762374  	28,929570  	28,450134  	31,189863  	30,194442  	32,552594  	59,453657  	25,503765  	24,039676  	28,377032  	64,784877  	0,367691  	0,186312  	-4431,127489  	12588,607105  	-0,036532  	-0,049987  	0,348964  	0,176823  	-3,710916  	16771,752057  	143708,327236  	20,843131  	-0,047940  
212,548000  	24,417593  	30,101854  	23,086666  	-242,047242  	70,476298  	65,460773  	0,010619  	0,011772  	0,003966  	0,004378  	0,004499  	0,000001  	-0,000000  	26,250999  	25,550452  	26,478015  	26,322904  	29,168995  	27,769087  	28,924804  	28,446989  	31,182873  	30,189190  	32,547866  	59,453099  	25,508615  	24,036351  	28,378411  	64,780448  	0,312794  	0,158495  	-3766,498061  	-27027,234394  	-0,103431  	-0,049984  	0,421347  	0,213499  	-4,483864  	16734,807804  	143542,589254  	20,819092  	-0,047938  
213,549000  	24,388222  	30,104439  	23,086083  	956,927186  	70,472373  	65,463541  	0,010626  	0,011774  	0,003962  	0,004390  	0,004445  	0,000001  	-0,000000  	26,253356  	25,551234  	26,480095  	26,329324  	29,167817  	27,754683  	28,925142  	28,446444  	31,177404  	30,193632  	32,544789  	59,454313  	25,504024  	24,031532  	28,371735  	64,783569  	0,322427  	0,163376  	-3904,332291  	22551,859119  	-0,022186  	-0,049993  	0,378938  	0,192011  	-4,027182  	16740,988761  	143685,039751  	20,839753  	-0,047946  
214,547000  	24,422570  	30,110594  	23,085346  	357,439972  	70,469444  	65,468642  	0,010626  	0,011781  	0,003964  	0,004453  	0,004428  	0,000002  	-0,000000  	26,251345  	25,546639  	26,471454  	26,319097  	29,159197  	27,758527  	28,915377  	28,446206  	31,175956  	30,190346  	32,546000  	59,452447  	25,504726  	24,022595  	28,372473  	64,770341  	0,373502  	0,189256  	-4500,492663  	12586,749077  	-0,036526  	-0,049978  	0,364979  	0,184937  	-3,872614  	16754,930402  	143695,589024  	20,841283  	-0,047933  
215,547000  	24,458515  	30,103577  	23,085991  	1256,670793  	70,470254  	65,462919  	0,010615  	0,011796  	0,003965  	0,004406  	0,004484  	-0,000000  	-0,000000  	26,259009  	25,555027  	26,475770  	26,329993  	29,163291  	27,772769  	28,917037  	28,447525  	31,180143  	30,196061  	32,548570  	59,461531  	25,509942  	24,028353  	28,382309  	64,787008  	0,335418  	0,169959  	-4011,065970  	25599,817588  	-0,018548  	-0,050006  	0,409728  	0,207612  	-4,353098  	16786,926069  	143460,200417  	20,807143  	-0,047956  
216,549000  	24,456487  	30,101608  	23,084332  	1256,670793  	70,469008  	65,459995  	0,010623  	0,011743  	0,003969  	0,004436  	0,004494  	0,000001  	-0,000000  	26,253034  	25,550930  	26,476005  	26,326026  	29,163746  	27,761337  	28,920509  	28,438821  	31,178671  	30,189906  	32,545969  	59,451977  	25,509481  	24,011548  	28,370373  	64,769352  	0,359663  	0,182244  	-4301,041845  	25591,745563  	-0,018542  	-0,049988  	0,417894  	0,211750  	-4,441344  	16672,732235  	143632,794721  	20,832176  	-0,047941  
217,548000  	24,472924  	30,117579  	23,085100  	1256,670793  	70,468853  	65,459124  	0,010617  	0,011784  	0,003962  	0,004429  	0,004455  	0,000000  	-0,000000  	26,257319  	25,550311  	26,474969  	26,330307  	29,163623  	27,757342  	28,922558  	28,439957  	31,184583  	30,193546  	32,553259  	59,452576  	25,515298  	23,999503  	28,374279  	64,777533  	0,354306  	0,179529  	-4236,618828  	25596,114420  	-0,018546  	-0,049997  	0,386817  	0,196003  	-4,111651  	16761,475694  	143506,189318  	20,813813  	-0,047949  
218,548000  	24,482878  	30,131735  	23,084793  	1256,670793  	70,467980  	65,458440  	0,010628  	0,011756  	0,003961  	0,004410  	0,004475  	-0,000001  	-0,000000  	26,249659  	25,548622  	26,476311  	26,329290  	29,162976  	27,763386  	28,928081  	28,439384  	31,189221  	30,189448  	32,559650  	59,454028  	25,520773  	23,991023  	28,381799  	64,793825  	0,339139  	0,171844  	-4058,274927  	25600,270741  	-0,018549  	-0,050006  	0,402202  	0,203799  	-4,275019  	16701,017347  	143735,844317  	20,847122  	-0,047957  
219,547000  	24,478638  	30,140505  	23,082766  	1256,670793  	70,467170  	65,461581  	0,010623  	0,011772  	0,003962  	0,004400  	0,004473  	0,000001  	-0,000000  	26,249397  	25,549993  	26,475440  	26,324880  	29,163403  	27,766106  	28,924925  	28,438597  	31,180842  	30,183209  	32,552263  	59,449292  	25,515273  	23,979642  	28,381474  	64,789690  	0,331000  	0,167720  	-3970,012767  	25591,290295  	-0,018542  	-0,049987  	0,401134  	0,203258  	-4,260310  	16734,791533  	143622,725602  	20,830715  	-0,047940  
220,549000  	24,488470  	30,150784  	23,081108  	1256,670793  	70,465737  	65,466931  	0,010613  	0,011734  	0,003964  	0,004407  	0,004446  	0,000000  	-0,000000  	26,255717  	25,552259  	26,479059  	26,323635  	29,162841  	27,761448  	28,920529  	28,440904  	31,181546  	30,185898  	32,549727  	59,453415  	25,509234  	23,977215  	28,377898  	64,782225  	0,336732  	0,170624  	-4039,069320  	25595,966618  	-0,018545  	-0,049997  	0,379386  	0,192237  	-4,023869  	16654,446875  	143404,756713  	20,799101  	-0,047949  
221,547000  	24,500206  	30,154815  	23,078620  	1256,670793  	70,465208  	65,462110  	0,010618  	0,011799  	0,003961  	0,004399  	0,004508  	0,000001  	-0,000000  	26,256653  	25,548078  	26,481891  	26,320800  	29,167944  	27,758334  	28,916710  	28,444751  	31,184668  	30,191318  	32,549805  	59,454255  	25,504360  	23,974606  	28,373506  	64,786729  	0,330200  	0,167315  	-3955,326875  	25593,308745  	-0,018543  	-0,049991  	0,428623  	0,217187  	-4,549997  	16794,662700  	143522,126206  	20,816124  	-0,047944  
222,549000  	24,483615  	30,157523  	23,078620  	657,183579  	70,466329  	65,457507  	0,010629  	0,011764  	0,003963  	0,004434  	0,004442  	-0,000000  	-0,000000  	26,262468  	25,554449  	26,483683  	26,324361  	29,171828  	27,762594  	28,920193  	28,450734  	31,185021  	30,194756  	32,553872  	59,459751  	25,499602  	23,975603  	28,382556  	64,791676  	0,358440  	0,181624  	-4308,266027  	18535,839373  	-0,027612  	-0,050002  	0,375948  	0,190496  	-3,995394  	16719,580733  	143762,888304  	20,851044  	-0,047953  
223,546000  	24,463338  	30,164447  	23,079173  	657,183579  	70,478042  	65,454770  	0,010624  	0,011788  	0,003964  	0,004405  	0,004457  	0,000000  	-0,000000  	26,263135  	25,557995  	26,482318  	26,329871  	29,168941  	27,764825  	28,926338  	28,450567  	31,181810  	30,192285  	32,552054  	59,462494  	25,497191  	23,967001  	28,388557  	64,792631  	0,334650  	0,169569  	-4041,605714  	18533,295267  	-0,027608  	-0,049995  	0,388127  	0,196667  	-4,136727  	16770,466627  	143657,868663  	20,835812  	-0,047947  
224,547000  	24,440972  	30,165740  	23,080647  	1256,670793  	70,479787  	65,457569  	0,010622  	0,011777  	0,003968  	0,004397  	0,004461  	-0,000002  	-0,000000  	26,253668  	25,549148  	26,477712  	26,323328  	29,162269  	27,759328  	28,918475  	28,441922  	31,173518  	30,185381  	32,540108  	59,449994  	25,484224  	23,946149  	28,376766  	64,792362  	0,328042  	0,166221  	-3978,243478  	25606,143185  	-0,018553  	-0,050019  	0,391416  	0,198333  	-4,170904  	16746,571219  	143609,514296  	20,828799  	-0,047968  
225,548000  	24,432124  	30,161985  	23,083411  	57,696365  	70,475675  	65,470322  	0,010627  	0,011747  	0,003962  	0,004403  	0,004471  	0,000000  	-0,000000  	26,251589  	25,547953  	26,475337  	26,317885  	29,154193  	27,755319  	28,911768  	28,437208  	31,171897  	30,181555  	32,542663  	59,444793  	25,463086  	23,937808  	28,369812  	64,786929  	0,332972  	0,168719  	-4041,631290  	1880,181053  	-0,054007  	-0,050000  	0,399510  	0,202435  	-4,242867  	16681,798865  	143708,051854  	20,843091  	-0,047951  
226,548000  	24,427639  	30,152630  	23,083472  	657,183579  	70,470504  	65,474676  	0,010626  	0,011782  	0,003963  	0,004414  	0,004490  	-0,000001  	-0,000000  	26,248155  	25,541197  	26,467517  	26,318467  	29,158156  	27,757706  	28,915256  	28,435581  	31,170348  	30,180813  	32,548248  	59,445311  	25,452109  	23,930731  	28,368650  	64,782427  	0,342354  	0,173473  	-4151,978482  	18537,844889  	-0,027615  	-0,050009  	0,414139  	0,209847  	-4,389858  	16757,436176  	143691,733667  	20,840724  	-0,047959  
227,546000  	24,432339  	30,142844  	23,083472  	657,183579  	70,464398  	65,468331  	0,010626  	0,011777  	0,003966  	0,004372  	0,004511  	0,000002  	-0,000000  	26,242897  	25,541699  	26,466485  	26,315279  	29,167319  	27,758787  	28,913541  	28,432519  	31,170734  	30,183788  	32,545513  	59,452409  	25,445085  	23,936091  	28,370880  	64,781615  	0,308332  	0,156234  	-3729,909593  	18527,522598  	-0,027600  	-0,049978  	0,430789  	0,218284  	-4,566563  	16746,107134  	143687,398156  	20,840095  	-0,047932  
228,550000  	24,428776  	30,134474  	23,085131  	1256,670793  	70,461407  	65,462297  	0,010617  	0,011790  	0,003964  	0,004398  	0,004441  	0,000001  	-0,000000  	26,246968  	25,551859  	26,474120  	26,322141  	29,168538  	27,756448  	28,919312  	28,435339  	31,177620  	30,186163  	32,545802  	59,458027  	25,454230  	23,944030  	28,370729  	64,783726  	0,328963  	0,166688  	-3976,128077  	25592,313853  	-0,018543  	-0,049989  	0,375603  	0,190321  	-3,983991  	16775,275138  	143489,341549  	20,811369  	-0,047942  
229,546000  	24,446687  	30,127919  	23,086390  	1256,670793  	70,456018  	65,460617  	0,010613  	0,011753  	0,003962  	0,004396  	0,004503  	0,000000  	-0,000000  	26,250244  	25,548672  	26,478490  	26,316136  	29,167916  	27,762949  	28,920805  	28,435434  	31,177090  	30,188360  	32,547746  	59,461252  	25,457607  	23,949738  	28,377490  	64,789168  	0,327500  	0,165947  	-3941,472478  	25597,021027  	-0,018546  	-0,050000  	0,424429  	0,215062  	-4,498546  	16694,792528  	143407,298706  	20,799470  	-0,047951  
230,549000  	24,452094  	30,127796  	23,088232  	1256,670793  	70,455955  	65,455703  	0,010625  	0,011784  	0,003964  	0,004402  	0,004449  	0,000000  	-0,000000  	26,246472  	25,542980  	26,474349  	26,321541  	29,159411  	27,757931  	28,920573  	28,439283  	31,173298  	30,180157  	32,544465  	59,444207  	25,450172  	23,955592  	28,367317  	64,785206  	0,332473  	0,168467  	-3997,429128  	25597,086789  	-0,018546  	-0,050000  	0,381564  	0,193341  	-4,048136  	16762,725044  	143672,852303  	20,837985  	-0,047951  
231,547000  	24,459099  	30,129273  	23,089891  	1256,670793  	70,458230  	65,447740  	0,010623  	0,011776  	0,003964  	0,004401  	0,004498  	0,000000  	-0,000000  	26,244676  	25,541875  	26,471810  	26,314219  	29,154838  	27,752770  	28,912825  	28,435370  	31,172394  	30,183825  	32,534117  	59,449662  	25,444873  	23,945022  	28,354500  	64,785165  	0,331908  	0,168180  	-3986,743455  	25597,032943  	-0,018546  	-0,050000  	0,421003  	0,213325  	-4,475698  	16744,772183  	143635,619158  	20,832585  	-0,047951  
232,548000  	24,447670  	30,132474  	23,091242  	57,696365  	70,461532  	65,449544  	0,010621  	0,011786  	0,003962  	0,004372  	0,004456  	-0,000000  	-0,000000  	26,253455  	25,551619  	26,486148  	26,324560  	29,173276  	27,770610  	28,926417  	28,444347  	31,185990  	30,202538  	32,560762  	59,458880  	25,455816  	23,950697  	28,373598  	64,802361  	0,308233  	0,156184  	-3711,919347  	1879,827610  	-0,054009  	-0,050002  	0,387336  	0,196266  	-4,119014  	16765,260531  	143572,980200  	20,823500  	-0,047953  
233,550000  	24,428038  	30,137520  	23,090750  	1256,670793  	70,462311  	65,454241  	0,010614  	0,011787  	0,003961  	0,004435  	0,004472  	-0,000000  	-0,000000  	26,249257  	25,549041  	26,478681  	26,331365  	29,157951  	27,763298  	28,926164  	28,442890  	31,180059  	30,194527  	32,560180  	59,459693  	25,461151  	23,930856  	28,375728  	64,786348  	0,359429  	0,182125  	-4347,248940  	25599,520557  	-0,018548  	-0,050005  	0,399958  	0,202662  	-4,249922  	16768,354900  	143424,217086  	20,801924  	-0,047956  
234,547000  	24,425150  	30,137705  	23,090750  	1256,670793  	70,469912  	65,456916  	0,010632  	0,011791  	0,003965  	0,004400  	0,004505  	-0,000001  	-0,000000  	26,255322  	25,553339  	26,479065  	26,323345  	29,167156  	27,760520  	28,920079  	28,439962  	31,181102  	30,186316  	32,549419  	59,457549  	25,439693  	23,921780  	28,364041  	64,786145  	0,330665  	0,167550  	-4001,505947  	25603,899310  	-0,018551  	-0,050015  	0,426082  	0,215899  	-4,531972  	16777,732806  	143818,586208  	20,859122  	-0,047964  
235,547000  	24,436671  	30,134658  	23,091211  	357,439972  	70,474086  	65,455952  	0,010606  	0,011767  	0,003963  	0,004382  	0,004446  	0,000001  	-0,000000  	26,253018  	25,558872  	26,489854  	26,328607  	29,175851  	27,769492  	28,924675  	28,447053  	31,190927  	30,201429  	32,553481  	59,458837  	25,449316  	23,942499  	28,383984  	64,798634  	0,316379  	0,160312  	-3818,862344  	12588,782262  	-0,036533  	-0,049989  	0,379188  	0,192138  	-4,037323  	16725,046462  	143264,495155  	20,778758  	-0,047942  
236,548000  	24,423522  	30,130719  	23,090904  	956,927186  	70,475955  	65,456636  	0,010622  	0,011772  	0,003966  	0,004369  	0,004485  	-0,000000  	-0,000000  	26,260759  	25,554667  	26,475621  	26,328526  	29,168270  	27,769934  	28,923572  	28,438805  	31,187543  	30,188567  	32,545265  	59,460266  	25,446136  	23,935546  	28,378384  	64,793607  	0,305635  	0,154867  	-3695,135955  	22555,247456  	-0,022189  	-0,050002  	0,410134  	0,207818  	-4,367836  	16736,239675  	143601,485833  	20,827635  	-0,047953  
237,546000  	24,421402  	30,127950  	23,088324  	-242,047242  	70,477700  	65,458191  	0,010616  	0,011774  	0,003962  	0,004445  	0,004503  	0,000001  	-0,000000  	26,237688  	25,558868  	26,471815  	26,320435  	29,160523  	27,758233  	28,919643  	28,438428  	31,171968  	30,194544  	32,538790  	59,442748  	25,428163  	23,944580  	28,367763  	64,790696  	0,367269  	0,186098  	-4439,799752  	-27030,642700  	-0,103443  	-0,049991  	0,424699  	0,215198  	-4,523124  	16739,992677  	143485,712147  	20,810843  	-0,047943  
238,546000  	24,456733  	30,126411  	23,083350  	357,439972  	70,479257  	65,457880  	0,010617  	0,011789  	0,003960  	0,004441  	0,004436  	0,000001  	-0,000000  	26,259065  	25,563199  	26,490696  	26,328151  	29,171912  	27,766218  	28,925063  	28,446422  	31,185262  	30,189965  	32,551304  	59,465270  	25,440964  	23,970733  	28,374496  	64,786860  	0,363632  	0,184255  	-4367,418390  	12588,083836  	-0,036530  	-0,049984  	0,371518  	0,188251  	-3,958213  	16772,804736  	143494,319620  	20,812091  	-0,047938  
239,550000  	24,488255  	30,122718  	23,083994  	1256,670793  	70,479756  	65,469451  	0,010630  	0,011800  	0,003965  	0,004421  	0,004466  	-0,000000  	-0,000000  	26,252979  	25,556970  	26,478696  	26,326488  	29,175189  	27,772094  	28,930299  	28,437948  	31,194668  	30,198224  	32,555128  	59,463577  	25,436846  	23,981487  	28,373921  	64,798157  	0,348109  	0,176389  	-4155,002736  	25598,352832  	-0,018547  	-0,050002  	0,395416  	0,200360  	-4,203537  	16795,933981  	143787,121977  	20,854559  	-0,047953  
240,547000  	24,488193  	30,127827  	23,084977  	57,696365  	70,473962  	65,472623  	0,010623  	0,011754  	0,003965  	0,004347  	0,004421  	0,000001  	-0,000000  	26,248602  	25,545877  	26,477154  	26,318900  	29,161299  	27,764668  	28,916777  	28,438101  	31,180071  	30,193823  	32,550976  	59,455304  	25,437757  	23,976636  	28,367949  	64,791836  	0,287586  	0,145722  	-3435,760300  	1879,703249  	-0,053995  	-0,049988  	0,359730  	0,182278  	-3,817329  	16696,946702  	143618,255930  	20,830067  	-0,047941  
241,549000  	24,476826  	30,148876  	23,085100  	956,927186  	70,472248  	65,468518  	0,010626  	0,011764  	0,003964  	0,004462  	0,004481  	-0,000000  	-0,000000  	26,249433  	25,542983  	26,473355  	26,311802  	29,157491  	27,759176  	28,909425  	28,425232  	31,183829  	30,186108  	32,542347  	59,450563  	25,436863  	23,957696  	28,357962  	64,789345  	0,380551  	0,192828  	-4572,533699  	22556,970865  	-0,022191  	-0,050006  	0,407211  	0,206337  	-4,323252  	16717,717320  	143681,918747  	20,839300  	-0,047957  
242,547000  	24,475843  	30,157492  	23,084731  	357,439972  	70,469694  	65,466029  	0,010622  	0,011753  	0,003962  	0,004411  	0,004452  	0,000001  	-0,000001  	26,252268  	25,553510  	26,478656  	26,323352  	29,162007  	27,758638  	28,913576  	28,429254  	31,190538  	30,189077  	32,542888  	59,453626  	25,437352  	23,961123  	28,375060  	64,802889  	0,339900  	0,172230  	-4090,993981  	12589,600522  	-0,036535  	-0,049991  	0,384335  	0,194745  	-4,080322  	16694,305805  	143598,957962  	20,827268  	-0,047944  
243,548000  	24,478792  	30,158970  	23,084731  	1256,670793  	70,467451  	65,468673  	0,010615  	0,011770  	0,003964  	0,004393  	0,004434  	0,000002  	-0,000000  	26,252173  	25,550216  	26,478782  	26,320575  	29,159486  	27,757836  	28,920266  	28,437997  	31,184775  	30,189340  	32,539502  	59,457159  	25,435834  	23,984057  	28,370097  	64,798447  	0,324925  	0,164642  	-3909,746417  	25587,642487  	-0,018539  	-0,049979  	0,370211  	0,187589  	-3,926540  	16731,744562  	143456,119105  	20,806551  	-0,047933  
244,551000  	24,471173  	30,156508  	23,084977  	1256,670793  	70,467388  	65,462390  	0,010615  	0,011786  	0,003962  	0,004436  	0,004402  	-0,000001  	-0,000000  	26,244417  	25,543414  	26,472606  	26,314030  	29,155090  	27,748323  	28,916059  	28,430435  	31,174663  	30,185463  	32,542098  	59,453812  	25,433504  	23,998420  	28,372556  	64,785713  	0,360061  	0,182446  	-4336,470809  	25602,332308  	-0,018550  	-0,050011  	0,344364  	0,174492  	-3,656944  	16765,039100  	143444,778989  	20,804906  	-0,047961  
245,546000  	24,470251  	30,158231  	23,084731  	57,696365  	70,464616  	65,452810  	0,010614  	0,011768  	0,003962  	0,004408  	0,004467  	0,000000  	-0,000000  	26,238882  	25,549798  	26,470928  	26,313871  	29,153939  	27,751189  	28,912965  	28,427932  	31,165480  	30,182247  	32,544226  	59,448867  	25,433682  	24,012034  	28,368760  	64,783305  	0,337330  	0,170927  	-4064,587671  	1880,075400  	-0,054006  	-0,049999  	0,396092  	0,200703  	-4,211982  	16727,530306  	143433,262346  	20,803236  	-0,047950  
246,547000  	24,449544  	30,159585  	23,085223  	1256,670793  	70,466298  	65,450197  	0,010628  	0,011761  	0,003965  	0,004400  	0,004448  	-0,000001  	-0,000001  	26,246246  	25,554973  	26,475258  	26,320321  	29,160317  	27,762482  	28,914262  	28,433505  	31,169112  	30,185718  	32,549267  	59,451456  	25,435253  	24,035843  	28,364496  	64,784634  	0,330828  	0,167633  	-4001,715944  	25600,905349  	-0,018549  	-0,050008  	0,381127  	0,193120  	-4,056319  	16712,518299  	143735,230002  	20,847033  	-0,047958  
247,549000  	24,454705  	30,161154  	23,086697  	357,439972  	70,466111  	65,451877  	0,010627  	0,011800  	0,003964  	0,004432  	0,004453  	-0,000000  	-0,000000  	26,253342  	25,558394  	26,478966  	26,326509  	29,171396  	27,766310  	28,919281  	28,435909  	31,178949  	30,194775  	32,556689  	59,455839  	25,441092  	24,059964  	28,371560  	64,792433  	0,356452  	0,180617  	-4308,943290  	12592,873985  	-0,036544  	-0,050006  	0,384863  	0,195013  	-4,094553  	16796,377549  	143711,815416  	20,843637  	-0,047956  
248,548000  	24,458453  	30,155800  	23,087434  	956,927186  	70,465114  	65,454179  	0,010631  	0,011745  	0,003965  	0,004387  	0,004491  	0,000001  	-0,000000  	26,253622  	25,559448  	26,485350  	26,329687  	29,172580  	27,772110  	28,927392  	28,439412  	31,183544  	30,198933  	32,559119  	59,459084  	25,446526  	24,062968  	28,375987  	64,793843  	0,319951  	0,162121  	-3861,533093  	22550,002446  	-0,022184  	-0,049989  	0,415344  	0,210458  	-4,415942  	16678,346528  	143789,226182  	20,854864  	-0,047942  
249,548000  	24,430619  	30,146414  	23,087065  	956,927186  	70,464647  	65,462297  	0,010628  	0,011766  	0,003962  	0,004453  	0,004461  	-0,000001  	-0,000000  	26,252623  	25,555055  	26,484610  	26,329988  	29,164003  	27,771343  	28,927333  	28,434535  	31,179899  	30,192870  	32,552219  	59,456935  	25,441000  	24,050740  	28,372407  	64,788266  	0,373364  	0,189186  	-4520,781161  	22558,163633  	-0,022192  	-0,050009  	0,391471  	0,198361  	-4,154997  	16722,219508  	143743,067815  	20,848169  	-0,047959  
250,547000  	24,401064  	30,146414  	23,086574  	357,439972  	70,462404  	65,462110  	0,010619  	0,011784  	0,003962  	0,004411  	0,004486  	-0,000000  	-0,000000  	26,251376  	25,552480  	26,475275  	26,326052  	29,159470  	27,762699  	28,919637  	28,426891  	31,179943  	30,193006  	32,545079  	59,452397  	25,430621  	24,044337  	28,374215  	64,792610  	0,339496  	0,172025  	-4131,963278  	12592,019851  	-0,036542  	-0,050002  	0,411441  	0,208480  	-4,365159  	16760,741365  	143531,948186  	20,817549  	-0,047953  
251,548000  	24,394797  	30,141059  	23,085653  	1256,670793  	70,467482  	65,456076  	0,010624  	0,011763  	0,003966  	0,004420  	0,004494  	-0,000000  	-0,000000  	26,249549  	25,552117  	26,475228  	26,323241  	29,157411  	27,763000  	28,915718  	28,434349  	31,185456  	30,198882  	32,548073  	59,452450  	25,427245  	24,044280  	28,378932  	64,790860  	0,347313  	0,175986  	-4227,779911  	25599,106884  	-0,018548  	-0,050004  	0,417303  	0,211451  	-4,437182  	16715,362232  	143647,856033  	20,834360  	-0,047955  
252,547000  	24,416241  	30,129119  	23,085530  	1256,670793  	70,471594  	65,451535  	0,010628  	0,011786  	0,003961  	0,004425  	0,004482  	0,000001  	-0,000000  	26,252610  	25,550976  	26,478506  	26,326814  	29,154799  	27,763260  	28,918110  	28,440711  	31,182555  	30,193849  	32,550708  	59,452015  	25,427019  	24,045532  	28,376868  	64,785335  	0,350776  	0,177741  	-4245,120106  	25593,498684  	-0,018544  	-0,049992  	0,407895  	0,206684  	-4,344636  	16766,546668  	143726,347146  	20,845744  	-0,047944  
253,551000  	24,465489  	30,114933  	23,086052  	956,927186  	70,470566  	65,453868  	0,010624  	0,011765  	0,003964  	0,004383  	0,004452  	-0,000000  	-0,000000  	26,264374  	25,551248  	26,482961  	26,331527  	29,160391  	27,770231  	28,925055  	28,446206  	31,188127  	30,196874  	32,549671  	59,459090  	25,424675  	24,040600  	28,377520  	64,796108  	0,317054  	0,160654  	-3794,400783  	22555,548403  	-0,022190  	-0,050003  	0,384297  	0,194726  	-4,090544  	16720,317185  	143637,702181  	20,832887  	-0,047954  
254,546000  	24,476180  	30,110809  	23,087649  	357,439972  	70,467949  	65,452437  	0,010620  	0,011780  	0,003962  	0,004369  	0,004477  	0,000000  	-0,000000  	26,260617  	25,555069  	26,483287  	26,327485  	29,165073  	27,765375  	28,917998  	28,441013  	31,185480  	30,192901  	32,547406  	59,456708  	25,419241  	24,030061  	28,366085  	64,785986  	0,305330  	0,154713  	-3644,499445  	12591,373045  	-0,036540  	-0,049999  	0,404034  	0,204727  	-4,299616  	16752,954505  	143569,040110  	20,822929  	-0,047951  
255,549000  	24,469084  	30,121057  	23,089491  	357,439972  	70,465986  	65,457165  	0,010621  	0,011752  	0,003966  	0,004411  	0,004466  	-0,000000  	-0,000000  	26,249691  	25,545353  	26,473934  	26,318629  	29,158914  	27,754942  	28,915933  	28,433324  	31,178058  	30,187034  	32,544508  	59,448020  	25,412708  	24,028063  	28,367618  	64,775469  	0,339620  	0,172088  	-4066,277645  	12591,822800  	-0,036542  	-0,050002  	0,395674  	0,200491  	-4,205030  	16692,191249  	143588,938271  	20,825815  	-0,047953  
256,548000  	24,448622  	30,136074  	23,091825  	-242,047242  	70,466859  	65,465500  	0,010605  	0,011793  	0,003964  	0,004428  	0,004483  	-0,000002  	-0,000000  	26,254116  	25,541851  	26,483184  	26,322462  	29,156745  	27,754797  	28,918288  	28,432110  	31,178278  	30,184536  	32,543223  	59,457178  	25,416469  	24,031312  	28,359044  	64,768153  	0,353743  	0,179244  	-4261,966274  	-27045,691149  	-0,103499  	-0,050022  	0,408890  	0,207187  	-4,339010  	16781,594047  	143227,841020  	20,773442  	-0,047970  
257,550000  	24,440296  	30,148353  	23,094282  	-242,047242  	70,470192  	65,459995  	0,010620  	0,011740  	0,003963  	0,004417  	0,004476  	0,000000  	-0,000000  	26,252432  	25,556156  	26,484412  	26,324934  	29,177628  	27,765622  	28,917629  	28,439295  	31,181620  	30,195538  	32,557209  	59,455990  	25,411403  	24,030505  	28,361138  	64,792431  	0,344199  	0,174408  	-4162,004500  	-27033,089935  	-0,103450  	-0,049996  	0,403604  	0,204509  	-4,290488  	16667,562219  	143562,063749  	20,821917  	-0,047948  
258,546000  	24,442754  	30,146137  	23,095388  	357,439972  	70,468697  	65,457507  	0,010618  	0,011779  	0,003963  	0,004420  	0,004479  	0,000001  	-0,000000  	26,257183  	25,551411  	26,475446  	26,314197  	29,164034  	27,762617  	28,917643  	28,430363  	31,181187  	30,192755  	32,550658  	59,457937  	25,404530  	24,016588  	28,371060  	64,780643  	0,347252  	0,175955  	-4195,481304  	12588,821772  	-0,036533  	-0,049990  	0,405441  	0,205440  	-4,310867  	16750,331295  	143513,928276  	20,814935  	-0,047943  
259,546000  	24,435842  	30,142906  	23,096401  	357,439972  	70,468354  	65,458347  	0,010625  	0,011777  	0,003963  	0,004376  	0,004481  	0,000000  	-0,000000  	26,252714  	25,558697  	26,482134  	26,326387  	29,168619  	27,771112  	28,919050  	28,439825  	31,188249  	30,193800  	32,549601  	59,458276  	25,414552  	24,010305  	28,378268  	64,792777  	0,311021  	0,157597  	-3760,169882  	12589,771364  	-0,036536  	-0,049994  	0,407227  	0,206345  	-4,328841  	16747,314037  	143677,992779  	20,838731  	-0,047946  
260,548000  	24,443154  	30,138413  	23,097568  	-242,047242  	70,469476  	65,456667  	0,010624  	0,011779  	0,003962  	0,004364  	0,004481  	-0,000000  	-0,000000  	26,250944  	25,548959  	26,470251  	26,319368  	29,162501  	27,760290  	28,910887  	28,433924  	31,181042  	30,189010  	32,534894  	59,457005  	25,406165  	23,982403  	28,363944  	64,782689  	0,301840  	0,152944  	-3641,620480  	-27038,086540  	-0,103468  	-0,050006  	0,407068  	0,206264  	-4,329562  	16750,371619  	143656,018657  	20,835544  	-0,047956  
261,546000  	24,450742  	30,134074  	23,099380  	-242,047242  	70,468853  	65,453525  	0,010609  	0,011744  	0,003964  	0,004385  	0,004423  	-0,000000  	-0,000001  	26,249732  	25,545440  	26,472470  	26,319975  	29,157362  	27,750336  	28,905771  	28,424413  	31,183938  	30,187778  	32,543187  	59,464910  	25,385462  	23,981990  	28,357094  	64,782512  	0,318272  	0,161271  	-3831,827042  	-27035,768604  	-0,103458  	-0,050001  	0,360967  	0,182904  	-3,841159  	16674,388367  	143334,435284  	20,788902  	-0,047952  
262,547000  	24,466718  	30,133643  	23,100055  	357,439972  	70,464740  	65,460493  	0,010617  	0,011778  	0,003965  	0,004344  	0,004463  	-0,000000  	-0,000000  	26,252176  	25,543460  	26,474006  	26,315761  	29,161100  	27,753882  	28,916813  	28,437865  	31,174461  	30,194156  	32,545189  	59,460407  	25,394118  	23,966499  	28,370361  	64,778878  	0,285331  	0,144579  	-3425,313108  	12590,900129  	-0,036540  	-0,050000  	0,393191  	0,199233  	-4,174830  	16748,416946  	143486,623028  	20,810975  	-0,047951  
263,550000  	24,478608  	30,136597  	23,100700  	1256,670793  	70,461843  	65,456076  	0,010628  	0,011778  	0,003967  	0,004386  	0,004492  	-0,000001  	-0,000000  	26,246065  	25,548189  	26,483550  	26,324431  	29,171134  	27,760101  	28,923761  	28,437735  	31,177808  	30,193522  	32,547102  	59,446935  	25,400987  	23,960051  	28,355405  	64,785258  	0,319046  	0,161663  	-3824,017093  	25600,419592  	-0,018549  	-0,050008  	0,415964  	0,210772  	-4,417965  	16748,835046  	143733,803661  	20,846826  	-0,047958  
264,547000  	24,477440  	30,141336  	23,102174  	1256,670793  	70,459849  	65,455889  	0,010618  	0,011769  	0,003965  	0,004393  	0,004484  	0,000001  	-0,000001  	26,249302  	25,549344  	26,475594  	26,327164  	29,163033  	27,759542  	28,913127  	28,443074  	31,176253  	30,190552  	32,546879  	59,457852  	25,402589  	23,947988  	28,368646  	64,789593  	0,324805  	0,164581  	-3897,102322  	25592,255403  	-0,018543  	-0,049990  	0,409432  	0,207462  	-4,347026  	16729,591804  	143522,443955  	20,816171  	-0,047943  
265,547000  	24,472156  	30,149430  	23,104109  	57,696365  	70,458603  	65,457351  	0,010623  	0,011767  	0,003964  	0,004411  	0,004464  	-0,000001  	-0,000001  	26,252781  	25,556477  	26,483827  	26,319833  	29,176428  	27,762160  	28,921506  	28,446463  	31,184229  	30,189529  	32,554239  	59,455072  	25,401283  	23,939726  	28,372283  	64,792088  	0,339785  	0,172172  	-4086,470064  	1879,322656  	-0,054014  	-0,050009  	0,393402  	0,199340  	-4,174570  	16724,075139  	143623,403467  	20,830814  	-0,047959  
266,549000  	24,490958  	30,153492  	23,105890  	1256,670793  	70,460597  	65,456916  	0,010624  	0,011750  	0,003963  	0,004415  	0,004507  	0,000002  	-0,000000  	26,259786  	25,549323  	26,481947  	26,326136  	29,165069  	27,762861  	28,913088  	28,438517  	31,185623  	30,188500  	32,547733  	59,452574  	25,390639  	23,923267  	28,364096  	64,783465  	0,343144  	0,173874  	-4116,144578  	25584,916342  	-0,018538  	-0,049974  	0,428110  	0,216926  	-4,545073  	16688,267752  	143650,129705  	20,834690  	-0,047929  
267,548000  	24,491603  	30,153307  	23,104232  	357,439972  	70,460005  	65,458782  	0,010626  	0,011789  	0,003966  	0,004458  	0,004454  	-0,000001  	-0,000000  	26,256024  	25,546904  	26,478771  	26,327917  	29,163473  	27,764359  	28,921570  	28,445858  	31,186121  	30,197363  	32,550875  	59,451038  	25,370422  	23,897085  	28,363967  	64,783671  	0,377773  	0,191420  	-4530,868473  	12593,773852  	-0,036549  	-0,050014  	0,386016  	0,195597  	-4,096173  	16772,280519  	143682,992033  	20,839456  	-0,047963  
268,550000  	24,476918  	30,157123  	23,101959  	-242,047242  	70,462497  	65,454925  	0,010623  	0,011760  	0,003966  	0,004370  	0,004520  	-0,000000  	-0,000000  	26,253638  	25,541805  	26,478303  	26,318492  	29,162674  	27,756675  	28,911799  	28,437169  	31,179270  	30,191883  	32,541496  	59,448795  	25,356607  	23,868789  	28,364484  	64,769977  	0,306472  	0,155291  	-3687,721741  	-27037,594628  	-0,103464  	-0,050005  	0,437944  	0,221909  	-4,653092  	16710,207780  	143624,843930  	20,831022  	-0,047955  
269,547000  	24,446625  	30,161739  	23,101069  	57,696365  	70,461750  	65,453961  	0,010629  	0,011776  	0,003961  	0,004442  	0,004463  	-0,000000  	-0,000000  	26,252463  	25,539265  	26,471877  	26,315530  	29,160934  	27,756201  	28,910269  	28,437533  	31,173946  	30,183074  	32,538032  	59,452367  	25,347631  	23,838586  	28,364785  	64,776724  	0,364646  	0,184769  	-4414,698101  	1879,251419  	-0,054007  	-0,050002  	0,392797  	0,199033  	-4,173591  	16745,236268  	143759,287147  	20,850522  	-0,047953  
270,549000  	24,430035  	30,162355  	23,102359  	1256,670793  	70,463432  	65,452779  	0,010611  	0,011755  	0,003963  	0,004397  	0,004494  	-0,000001  	-0,000000  	26,249405  	25,553910  	26,471423  	26,326871  	29,165039  	27,758817  	28,915676  	28,443775  	31,180906  	30,183650  	32,543042  	59,455052  	25,339985  	23,817850  	28,372685  	64,789801  	0,328514  	0,166461  	-3989,236721  	25604,693818  	-0,018552  	-0,050017  	0,417754  	0,211679  	-4,441311  	16700,162044  	143370,242088  	20,794096  	-0,047966  
271,547000  	24,430219  	30,155985  	23,102911  	1256,670793  	70,464055  	65,455174  	0,010626  	0,011758  	0,003964  	0,004364  	0,004470  	-0,000001  	-0,000000  	26,247278  	25,549347  	26,475294  	26,326071  	29,160133  	27,757134  	28,914491  	28,441349  	31,174551  	30,180952  	32,539166  	59,445702  	25,317820  	23,799922  	28,368324  	64,782701  	0,301299  	0,152670  	-3654,568034  	25600,956981  	-0,018549  	-0,050009  	0,398393  	0,201869  	-4,233982  	16706,193730  	143695,906773  	20,841329  	-0,047959  
272,549000  	24,443983  	30,145337  	23,102236  	57,696365  	70,460441  	65,453308  	0,010623  	0,011798  	0,003963  	0,004399  	0,004463  	0,000002  	-0,000000  	26,248768  	25,542115  	26,480737  	26,328474  	29,164220  	27,762064  	28,915518  	28,440933  	31,172099  	30,183970  	32,543324  	59,444139  	25,305939  	23,785678  	28,362787  	64,773253  	0,330032  	0,167230  	-3986,012250  	1878,489367  	-0,053987  	-0,049981  	0,392866  	0,199068  	-4,173784  	16791,292426  	143626,813975  	20,831308  	-0,047935  
273,547000  	24,436026  	30,135612  	23,101560  	57,696365  	70,459818  	65,453557  	0,010622  	0,011792  	0,003958  	0,004414  	0,004480  	0,000000  	-0,000000  	26,259048  	25,547441  	26,487192  	26,339500  	29,169069  	27,770949  	28,920689  	28,442998  	31,180406  	30,190568  	32,551019  	59,454152  	25,302287  	23,769247  	28,366190  	64,775727  	0,342284  	0,173438  	-4132,708178  	1878,964481  	-0,054000  	-0,049994  	0,406702  	0,206079  	-4,320021  	16778,587401  	143612,578811  	20,829244  	-0,047946  
274,548000  	24,433384  	30,131673  	23,102359  	1256,670793  	70,462373  	65,450446  	0,010630  	0,011775  	0,003965  	0,004388  	0,004500  	0,000002  	-0,000000  	26,261452  	25,555711  	26,492318  	26,340646  	29,170984  	27,771693  	28,921984  	28,445687  	31,186500  	30,194575  	32,555665  	59,457629  	25,296339  	23,764178  	28,369861  	64,779412  	0,320891  	0,162598  	-3873,534098  	25585,042205  	-0,018538  	-0,049974  	0,422517  	0,214093  	-4,493090  	16741,482559  	143779,721951  	20,853486  	-0,047930  
275,549000  	24,434951  	30,131858  	23,104201  	1256,670793  	70,462715  	65,454645  	0,010627  	0,011785  	0,003962  	0,004409  	0,004482  	-0,000002  	-0,000000  	26,258006  	25,552623  	26,485230  	26,334506  	29,170935  	27,765611  	28,915762  	28,441977  	31,182571  	30,192414  	32,551640  	59,450935  	25,282131  	23,753625  	28,367650  	64,775653  	0,337620  	0,171074  	-4074,476672  	25607,839254  	-0,018554  	-0,050024  	0,407620  	0,206544  	-4,331333  	16764,010473  	143713,036986  	20,843814  	-0,047972  
276,547000  	24,411970  	30,130873  	23,106228  	57,696365  	70,463339  	65,457942  	0,010621  	0,011756  	0,003967  	0,004370  	0,004489  	-0,000001  	-0,000000  	26,258132  	25,549005  	26,475156  	26,333811  	29,166291  	27,763234  	28,914196  	28,439739  	31,177899  	30,190088  	32,545843  	59,445288  	25,263529  	23,735164  	28,366613  	64,770860  	0,306476  	0,155294  	-3712,910615  	1879,270284  	-0,054016  	-0,050011  	0,413682  	0,209616  	-4,393407  	16701,194208  	143579,116290  	20,824390  	-0,047961  
277,550000  	24,429298  	30,129427  	23,102911  	57,696365  	70,465457  	65,460617  	0,010623  	0,011766  	0,003964  	0,004409  	0,004407  	0,000001  	-0,000000  	26,255816  	25,556480  	26,480895  	26,335626  	29,168403  	27,764814  	28,921620  	28,444088  	31,184190  	30,191014  	32,550021  	59,442729  	25,251962  	23,733667  	28,372463  	64,769327  	0,338281  	0,171409  	-4084,767191  	1878,714266  	-0,053995  	-0,049989  	0,348310  	0,176491  	-3,698724  	16722,964448  	143631,361319  	20,831968  	-0,047942  
278,548000  	24,450558  	30,124688  	23,100700  	657,183579  	70,463775  	65,456822  	0,010624  	0,011780  	0,003966  	0,004410  	0,004500  	0,000000  	-0,000000  	26,262288  	25,553514  	26,483223  	26,331171  	29,169696  	27,762958  	28,920207  	28,440011  	31,183646  	30,186135  	32,547398  	59,444971  	25,238990  	23,719717  	28,371374  	64,769271  	0,338542  	0,171542  	-4069,266964  	18533,848755  	-0,027610  	-0,049999  	0,422262  	0,213963  	-4,485922  	16753,435569  	143649,225885  	20,834559  	-0,047951  
279,547000  	24,450742  	30,120810  	23,102635  	-242,047242  	70,461781  	65,454303  	0,010622  	0,011782  	0,003963  	0,004365  	0,004492  	-0,000000  	-0,000000  	26,260200  	25,552069  	26,476951  	26,323258  	29,167391  	27,759612  	28,915872  	28,444078  	31,176292  	30,187129  	32,547371  	59,454239  	25,231805  	23,706702  	28,356034  	64,772552  	0,302566  	0,153313  	-3634,239350  	-27037,575144  	-0,103464  	-0,050004  	0,415979  	0,210779  	-4,419631  	16756,580874  	143614,577100  	20,829533  	-0,047955  
280,549000  	24,436487  	30,125796  	23,102819  	956,927186  	70,458915  	65,455298  	0,010618  	0,011800  	0,003961  	0,004393  	0,004494  	-0,000000  	-0,000000  	26,246173  	25,543290  	26,479604  	26,320992  	29,161160  	27,752727  	28,915889  	28,427304  	31,178218  	30,176993  	32,537104  	59,445576  	25,212833  	23,694244  	28,344622  	64,766862  	0,325041  	0,164701  	-3917,443652  	22555,472514  	-0,022190  	-0,050004  	0,417828  	0,211717  	-4,435859  	16796,634352  	143524,322206  	20,816443  	-0,047955  
281,547000  	24,414367  	30,133027  	23,103065  	1256,670793  	70,460192  	65,456014  	0,010622  	0,011767  	0,003962  	0,004375  	0,004524  	-0,000001  	-0,000000  	26,250561  	25,541337  	26,480139  	26,326401  	29,163449  	27,753557  	28,918364  	28,428251  	31,180796  	30,188534  	32,537485  	59,453933  	25,203227  	23,691081  	28,362867  	64,765774  	0,310459  	0,157312  	-3761,008017  	25600,957618  	-0,018549  	-0,050009  	0,440888  	0,223401  	-4,681198  	16725,494276  	143614,654772  	20,829545  	-0,047959  
282,550000  	24,404351  	30,131119  	23,103311  	1256,670793  	70,461438  	65,451410  	0,010618  	0,011796  	0,003966  	0,004442  	0,004461  	0,000001  	-0,000000  	26,258844  	25,551764  	26,484538  	26,327151  	29,162837  	27,755754  	28,917691  	28,440661  	31,180772  	30,186528  	32,548197  	59,456351  	25,200766  	23,693051  	28,361039  	64,767543  	0,364502  	0,184696  	-4421,967760  	25592,304740  	-0,018543  	-0,049990  	0,391136  	0,198192  	-4,157806  	16787,502637  	143513,716444  	20,814905  	-0,047943  
283,547000  	24,419467  	30,123642  	23,103495  	1256,670793  	70,463401  	65,454334  	0,010613  	0,011768  	0,003966  	0,004382  	0,004482  	0,000000  	-0,000000  	26,248417  	25,550376  	26,476231  	26,313785  	29,160286  	27,755833  	28,907593  	28,430190  	31,169008  	30,175193  	32,545765  	59,445050  	25,183485  	23,677769  	28,350927  	64,760270  	0,315943  	0,160090  	-3817,738592  	25595,310976  	-0,018545  	-0,049997  	0,407890  	0,206681  	-4,335063  	16727,608832  	143403,619877  	20,798937  	-0,047949  
284,547000  	24,435381  	30,115025  	23,104969  	1256,670793  	70,459226  	65,453588  	0,010614  	0,011778  	0,003963  	0,004397  	0,004511  	-0,000002  	-0,000000  	26,243049  	25,548989  	26,473181  	26,328187  	29,151730  	27,755958  	28,901743  	28,434687  	31,168815  	30,183520  	32,542474  	59,446224  	25,175835  	23,670866  	28,351430  	64,754020  	0,328287  	0,166345  	-3949,838240  	25605,778681  	-0,018553  	-0,050020  	0,431277  	0,218531  	-4,580490  	16748,984317  	143429,159851  	20,802641  	-0,047969  
285,549000  	24,440143  	30,114594  	23,105952  	1256,670793  	70,460379  	65,447491  	0,010628  	0,011782  	0,003964  	0,004398  	0,004484  	0,000000  	-0,000000  	26,251972  	25,543615  	26,475575  	26,321551  	29,160588  	27,758067  	28,912179  	28,431017  	31,173776  	30,184198  	32,541802  	59,453226  	25,167632  	23,664397  	28,357443  	64,766601  	0,328835  	0,166623  	-3952,820714  	25594,249009  	-0,018544  	-0,049995  	0,409357  	0,207424  	-4,353973  	16757,463767  	143733,408240  	20,846768  	-0,047947  
286,546000  	24,428776  	30,121364  	23,106873  	657,183579  	70,465488  	65,448051  	0,010627  	0,011781  	0,003965  	0,004454  	0,004485  	-0,000000  	-0,000000  	26,242299  	25,546993  	26,473888  	26,321854  	29,161993  	27,747745  	28,908927  	28,436174  	31,173197  	30,182076  	32,529409  	59,446465  	25,162901  	23,660768  	28,348090  	64,765447  	0,374427  	0,189725  	-4515,252159  	18535,139612  	-0,027612  	-0,050004  	0,410405  	0,207955  	-4,369080  	16756,305678  	143706,011198  	20,842795  	-0,047955  
287,547000  	24,425550  	30,125611  	23,106228  	657,183579  	70,463806  	65,448051  	0,010620  	0,011765  	0,003963  	0,004414  	0,004498  	0,000000  	-0,000000  	26,253794  	25,548813  	26,484314  	26,327443  	29,160445  	27,760144  	28,910282  	28,441983  	31,176926  	30,183743  	32,539944  	59,452976  	25,162901  	23,665849  	28,363496  	64,761861  	0,342048  	0,173318  	-4130,206357  	18532,825885  	-0,027609  	-0,049997  	0,421000  	0,213324  	-4,480371  	16720,813105  	143571,744508  	20,823321  	-0,047949  
288,548000  	24,440788  	30,124380  	23,105737  	57,696365  	70,464740  	65,450291  	0,010626  	0,011783  	0,003964  	0,004437  	0,004454  	-0,000000  	-0,000000  	26,248742  	25,558807  	26,476761  	26,329620  	29,164380  	27,754216  	28,916935  	28,435106  	31,172268  	30,184589  	32,539481  	59,444117  	25,150037  	23,648977  	28,359499  	64,762054  	0,360667  	0,182752  	-4342,435892  	1878,946145  	-0,054006  	-0,050001  	0,386194  	0,195687  	-4,108894  	16759,029345  	143682,059969  	20,839321  	-0,047952  
289,548000  	24,466595  	30,120349  	23,106996  	1256,670793  	70,467451  	65,453837  	0,010614  	0,011758  	0,003960  	0,004391  	0,004475  	-0,000000  	-0,000000  	26,241158  	25,534241  	26,473156  	26,322817  	29,162954  	27,748299  	28,908377  	28,434073  	31,177027  	30,179657  	32,530136  	59,449683  	25,134168  	23,628671  	28,357162  	64,764481  	0,323446  	0,163892  	-3873,844082  	25596,811192  	-0,018546  	-0,050001  	0,402837  	0,204120  	-4,285252  	16704,895566  	143421,773947  	20,801570  	-0,047952  
290,546000  	24,456457  	30,122318  	23,108777  	1256,670793  	70,460099  	65,454334  	0,010619  	0,011773  	0,003963  	0,004399  	0,004485  	0,000000  	-0,000000  	26,236686  	25,535133  	26,475057  	26,320148  	29,158122  	27,750661  	28,911473  	28,430729  	31,165508  	30,185444  	32,533875  	59,451894  	25,129300  	23,621190  	28,352639  	64,757510  	0,330042  	0,167235  	-3961,316955  	25595,651197  	-0,018546  	-0,049998  	0,410216  	0,207860  	-4,356917  	16738,348572  	143544,213306  	20,819328  	-0,047950  
291,549000  	24,447240  	30,132012  	23,107763  	1256,670793  	70,451594  	65,452561  	0,010626  	0,011782  	0,003964  	0,004417  	0,004488  	0,000000  	-0,000000  	26,247897  	25,543032  	26,479846  	26,326099  	29,166015  	27,750980  	28,908454  	28,433798  	31,175477  	30,176885  	32,540956  	59,440919  	25,118856  	23,613337  	28,359113  	64,765110  	0,344330  	0,174475  	-4146,609115  	25594,658791  	-0,018545  	-0,049996  	0,412992  	0,209266  	-4,380498  	16758,403255  	143680,548895  	20,839102  	-0,047948  
292,548000  	24,432554  	30,139582  	23,108746  	57,696365  	70,449164  	65,449886  	0,010625  	0,011744  	0,003966  	0,004404  	0,004519  	-0,000000  	-0,000000  	26,249308  	25,552669  	26,482185  	26,316238  	29,162319  	27,754744  	28,907507  	28,430799  	31,166505  	30,180244  	32,539573  	59,446640  	25,106209  	23,616746  	28,362065  	64,766338  	0,334071  	0,169276  	-4038,813319  	1878,799257  	-0,054006  	-0,050002  	0,436956  	0,221409  	-4,634900  	16676,329599  	143663,856471  	20,836681  	-0,047953  
293,550000  	24,430004  	30,140721  	23,109821  	-242,047242  	70,446236  	65,446869  	0,010627  	0,011817  	0,003961  	0,004434  	0,004495  	0,000000  	-0,000000  	26,249774  	25,559075  	26,482814  	26,321087  	29,165787  	27,761256  	28,917891  	28,434857  	31,167975  	30,184580  	32,542309  	59,455339  	25,090107  	23,618896  	28,366220  	64,767850  	0,358202  	0,181503  	-4333,342534  	-27033,352503  	-0,103445  	-0,049995  	0,418347  	0,211979  	-4,437591  	16833,392546  	143720,903043  	20,844955  	-0,047947  
294,554000  	24,453907  	30,134812  	23,110927  	-242,047242  	70,445239  	65,440648  	0,010615  	0,011757  	0,003964  	0,004387  	0,004463  	-0,000002  	-0,000000  	26,251549  	25,549564  	26,485549  	26,323657  	29,165316  	27,762752  	28,918614  	28,438415  	31,178403  	30,183725  	32,542763  	59,450881  	25,083092  	23,620407  	28,368276  	64,769209  	0,320221  	0,162258  	-3853,645828  	-27044,923891  	-0,103489  	-0,050019  	0,393190  	0,199233  	-4,175100  	16704,206514  	143464,140507  	20,807714  	-0,047968  
295,548000  	24,479161  	30,128165  	23,111848  	657,183579  	70,441719  	65,439311  	0,010622  	0,011807  	0,003962  	0,004385  	0,004527  	0,000000  	-0,000000  	26,248818  	25,536973  	26,480349  	26,319681  	29,156297  	27,748678  	28,913499  	28,425150  	31,172456  	30,182426  	32,542270  	59,442117  	25,064347  	23,620149  	28,348815  	64,763805  	0,318480  	0,161376  	-3811,159781  	18532,682655  	-0,027609  	-0,049997  	0,443719  	0,224836  	-4,709580  	16812,224343  	143614,047518  	20,829457  	-0,047949  
296,548000  	24,480820  	30,130258  	23,113322  	57,696365  	70,444834  	65,443479  	0,010623  	0,011769  	0,003965  	0,004418  	0,004470  	0,000000  	-0,000000  	26,248224  	25,545674  	26,486874  	26,327092  	29,163614  	27,755594  	28,917687  	28,434900  	31,171687  	30,197155  	32,546162  	59,453907  	25,064207  	23,641588  	28,348382  	64,772059  	0,345039  	0,174834  	-4129,304284  	1878,383028  	-0,054001  	-0,049997  	0,398325  	0,201834  	-4,226892  	16730,272367  	143624,144882  	20,830921  	-0,047949  
297,549000  	24,489545  	30,141798  	23,111786  	1256,670793  	70,449351  	65,438596  	0,010625  	0,011780  	0,003965  	0,004393  	0,004499  	0,000000  	-0,000000  	26,246948  	25,551230  	26,481443  	26,326968  	29,166910  	27,758461  	28,916828  	28,436404  	31,172555  	30,195710  	32,542849  	59,450391  	25,056139  	23,661942  	28,356341  	64,774115  	0,325313  	0,164838  	-3895,170676  	25595,167353  	-0,018545  	-0,049997  	0,421836  	0,213747  	-4,484790  	16752,271820  	143678,607095  	20,838820  	-0,047949  
298,547000  	24,484076  	30,149491  	23,109698  	1256,670793  	70,446859  	65,443572  	0,010621  	0,011782  	0,003961  	0,004378  	0,004441  	-0,000000  	-0,000000  	26,245201  	25,545923  	26,472558  	26,320773  	29,160878  	27,756845  	28,915876  	28,434194  	31,178899  	30,186507  	32,538624  	59,446554  	25,057640  	23,676655  	28,361020  	64,769371  	0,312687  	0,158441  	-3752,713731  	25598,599740  	-0,018548  	-0,050005  	0,375908  	0,190475  	-3,990550  	16757,708543  	143582,449126  	20,824874  	-0,047955  
299,548000  	24,450158  	30,155769  	23,109882  	1256,670793  	70,445987  	65,450975  	0,010628  	0,011758  	0,003964  	0,004385  	0,004485  	-0,000001  	-0,000000  	26,246512  	25,542016  	26,471745  	26,321046  	29,160397  	27,755348  	28,912772  	28,433557  	31,174558  	30,184631  	32,540377  	59,456031  	25,066066  	23,693470  	28,357897  	64,767107  	0,318623  	0,161449  	-3851,093340  	25599,804632  	-0,018549  	-0,050007  	0,410448  	0,207977  	-4,350017  	16705,946831  	143734,156716  	20,846877  	-0,047958  
300,551000  	24,420726  	30,159523  	23,110988  	57,696365  	70,450099  	65,444070  	0,010620  	0,011809  	0,003963  	0,004454  	0,004475  	0,000001  	-0,000001  	26,252932  	25,548772  	26,478361  	26,328769  	29,168982  	27,758557  	28,918514  	28,439057  	31,179273  	30,196623  	32,547742  	59,459911  	25,070605  	23,722290  	28,359883  	64,770979  	0,374265  	0,189643  	-4549,938916  	1878,178582  	-0,053992  	-0,049987  	0,402162  	0,203779  	-4,271595  	16815,271313  	143562,649820  	20,822002  	-0,047940  
301,547000  	24,437009  	30,154754  	23,112001  	956,927186  	70,452342  	65,443728  	0,010625  	0,011752  	0,003967  	0,004405  	0,004476  	-0,000001  	-0,000001  	26,259088  	25,556148  	26,489409  	26,336179  	29,171308  	27,768900  	28,926124  	28,452458  	31,192786  	30,206770  	32,550542  	59,461156  	25,078665  	23,752749  	28,368498  	64,773001  	0,334815  	0,169653  	-4055,409916  	22557,520836  	-0,022192  	-0,050010  	0,403645  	0,204530  	-4,289557  	16691,838233  	143678,847172  	20,838855  	-0,047960  
302,549000  	24,461280  	30,139367  	23,113107  	-242,047242  	70,454709  	65,441737  	0,010616  	0,011758  	0,003965  	0,004416  	0,004459  	0,000001  	-0,000001  	26,259978  	25,559935  	26,496858  	26,339852  	29,165193  	27,771887  	28,923115  	28,452941  	31,191250  	30,203176  	32,548319  	59,464688  	25,081667  	23,775669  	28,369835  	64,770055  	0,343450  	0,174029  	-4131,142013  	-27032,560203  	-0,103440  	-0,049994  	0,390146  	0,197690  	-4,149713  	16705,097189  	143473,192829  	20,809027  	-0,047946  
