06/25/2020 13:48:03
Tempo T_f_e T_f_s AR AR T_q_e T_q_s Corrente_P_f Corrente_P_q Corrente_P_RESERVA Corrente_eletromag_f Corrente_eletromag_q AR AR T_1 T_2 T_3 T_4 T_5 T_6 T_7 T_8 T_9 T_10 T_11 T_12 T_13 T_14 T_15 T_16 Velocidade_f_(m/s) Vazao_f_(L/s) q_f_(W) AR AR AR Velocidade_q_(m/s) Vazao_q_(L/s) q_q_(W) DeltaP_q_(Pa) DeltaP_f_(Pa) DeltaP_f_(Psi) AR
0,007000  	22,814026  	30,131889  	26,208481  	956,927186  	70,347111  	64,259382  	0,007554  	0,008510  	0,003963  	0,004232  	0,004352  	0,000001  	-0,000000  	26,011890  	24,271377  	25,169550  	25,115123  	28,250326  	26,907687  	28,134874  	27,905338  	30,999297  	30,103969  	32,845168  	58,295782  	28,128463  	27,275352  	27,509865  	63,511920  	0,194453  	0,098531  	-3014,718641  	22435,933876  	-0,022140  	-0,049991  	0,305316  	0,154706  	-3,943094  	9702,168485  	77500,924913  	11,240559  	-0,047943  
2,561000  	22,792715  	30,146722  	26,208112  	357,439972  	70,342875  	64,261931  	0,007549  	0,008416  	0,003961  	0,004252  	0,004355  	0,000002  	-0,000000  	26,022583  	24,271452  	25,171738  	25,119304  	28,254715  	26,919918  	28,134507  	27,905313  	31,003455  	30,103944  	32,850152  	58,299378  	28,129275  	27,275281  	27,515537  	63,507761  	0,210768  	0,106798  	-3283,816970  	12430,174657  	-0,036402  	-0,049976  	0,307358  	0,155740  	-3,965035  	9499,072017  	77400,551472  	11,226001  	-0,047931  
3,566000  	22,752919  	30,152353  	26,207558  	357,439972  	70,343809  	64,263642  	0,007551  	0,008801  	0,003964  	0,004255  	0,004350  	-0,000001  	-0,000000  	26,004668  	24,265169  	25,172980  	25,111718  	28,239967  	26,913733  	28,136268  	27,907518  	30,997387  	30,100653  	32,839998  	58,292255  	28,126940  	27,264649  	27,509170  	63,497443  	0,212829  	0,107842  	-3336,422351  	12437,839829  	-0,036425  	-0,050010  	0,303281  	0,153675  	-3,911950  	10328,983453  	77436,478315  	11,231212  	-0,047960  
4,562000  	22,744013  	30,158016  	26,207067  	956,927186  	70,344058  	64,252946  	0,007559  	0,008406  	0,003961  	0,004268  	0,004444  	0,000000  	-0,000000  	26,005662  	24,264982  	25,161844  	25,117666  	28,253569  	26,914726  	28,137591  	27,898121  	30,996973  	30,096051  	32,844208  	58,289916  	28,128427  	27,280205  	27,518187  	63,502748  	0,223804  	0,113403  	-3515,367059  	22439,058643  	-0,022143  	-0,049998  	0,377531  	0,191298  	-4,878445  	9476,159252  	77605,824516  	11,255773  	-0,047950  
5,566000  	22,739039  	30,157400  	26,207190  	956,927186  	70,348606  	64,254594  	0,007558  	0,008432  	0,003964  	0,004284  	0,004326  	-0,000000  	-0,000000  	26,006402  	24,272399  	25,162316  	25,114568  	28,242533  	26,908945  	28,137751  	27,892243  	30,997827  	30,093022  	32,843159  	58,294386  	28,121495  	27,290751  	27,515421  	63,511297  	0,236702  	0,119939  	-3720,150098  	22440,952091  	-0,022144  	-0,050003  	0,284807  	0,144314  	-3,682020  	9532,783948  	77584,754213  	11,252717  	-0,047954  
6,562000  	22,721782  	30,149214  	26,206575  	357,439972  	70,345927  	64,271632  	0,007550  	0,008458  	0,003963  	0,004204  	0,004363  	0,000001  	-0,000000  	26,012100  	24,275558  	25,164071  	25,118499  	28,241597  	26,909002  	28,141155  	27,896974  	30,994031  	30,096678  	32,839899  	58,288277  	28,114063  	27,303751  	27,503971  	63,505954  	0,171849  	0,087077  	-2704,193892  	12433,888369  	-0,036413  	-0,049992  	0,313492  	0,158849  	-4,039757  	9589,894660  	77411,870404  	11,227643  	-0,047945  
7,563000  	22,694422  	30,142752  	26,206022  	1256,670793  	70,345834  	64,271695  	0,007553  	0,008399  	0,003964  	0,004316  	0,004384  	-0,000001  	-0,000000  	26,014011  	24,264750  	25,171853  	25,114142  	28,240839  	26,907882  	28,135345  	27,893033  	30,993817  	30,089412  	32,839020  	58,280577  	28,105406  	27,311706  	27,500805  	63,512455  	0,262465  	0,132993  	-4141,730856  	25500,695140  	-0,018518  	-0,050010  	0,330180  	0,167305  	-4,254691  	9461,352404  	77481,704617  	11,237771  	-0,047960  
8,564000  	22,668874  	30,140844  	26,206268  	1256,670793  	70,347828  	64,259755  	0,007559  	0,008403  	0,003961  	0,004268  	0,004363  	-0,000000  	-0,000000  	26,022062  	24,274919  	25,174355  	25,119855  	28,251723  	26,920291  	28,148403  	27,911373  	31,011222  	30,093060  	32,845523  	58,291108  	28,100127  	27,321226  	27,516177  	63,521135  	0,223369  	0,113183  	-3535,994117  	25498,269324  	-0,018516  	-0,050005  	0,313537  	0,158871  	-4,049488  	9471,378331  	77605,252567  	11,255690  	-0,047955  
9,562000  	22,643972  	30,133212  	26,205530  	1256,670793  	70,347703  	64,241535  	0,007550  	0,008406  	0,003961  	0,004270  	0,004381  	-0,000001  	-0,000000  	26,022006  	24,274456  	25,166631  	25,118892  	28,251619  	26,916689  	28,136792  	27,905923  	31,010935  	30,094306  	32,845154  	58,283450  	28,097272  	27,321527  	27,504889  	63,526593  	0,225402  	0,114213  	-3576,425959  	25500,692393  	-0,018518  	-0,050010  	0,328087  	0,166244  	-4,249993  	9477,814676  	77423,210520  	11,229287  	-0,047960  
10,563000  	22,627452  	30,115302  	26,205960  	1256,670793  	70,357983  	64,227419  	0,007553  	0,008399  	0,003962  	0,004242  	0,004323  	-0,000000  	-0,000000  	26,025516  	24,278194  	25,168585  	25,120478  	28,251728  	26,913050  	28,140885  	27,906474  	31,004585  	30,104625  	32,852497  	58,284688  	28,088752  	27,328098  	27,504612  	63,522091  	0,202529  	0,102623  	-3212,918056  	25496,987263  	-0,018515  	-0,050002  	0,282349  	0,143068  	-3,672120  	9461,589399  	77469,474804  	11,235997  	-0,047953  
11,567000  	22,614003  	30,095730  	26,206237  	357,439972  	70,360942  	64,222009  	0,007552  	0,008422  	0,003965  	0,004284  	0,004351  	-0,000000  	-0,000000  	26,029187  	24,282147  	25,171820  	25,121775  	28,252359  	26,916082  	28,145238  	27,908292  	31,004169  	30,110268  	32,856172  	58,289237  	28,084825  	27,338752  	27,510431  	63,526280  	0,236815  	0,119996  	-3753,761343  	12436,265632  	-0,036420  	-0,050003  	0,304038  	0,154059  	-3,959601  	9511,499724  	77459,652823  	11,234573  	-0,047954  
12,564000  	22,612959  	30,077820  	26,206852  	956,927186  	70,355647  	64,213241  	0,007559  	0,008412  	0,003963  	0,004309  	0,004363  	-0,000001  	-0,000000  	26,034340  	24,279443  	25,173779  	25,123531  	28,258746  	26,926131  	28,145119  	27,909897  	31,007970  	30,111208  	32,854766  	58,291793  	28,078593  	27,348367  	27,516695  	63,526589  	0,256757  	0,130101  	-4060,688493  	22443,292993  	-0,022147  	-0,050009  	0,313476  	0,158841  	-4,084820  	9489,986994  	77602,908284  	11,255350  	-0,047959  
13,565000  	22,636111  	30,057387  	26,205530  	956,927186  	70,352313  	64,208888  	0,007552  	0,008409  	0,003961  	0,004275  	0,004404  	0,000000  	-0,000000  	26,030244  	24,280132  	25,180452  	25,126690  	28,260277  	26,928227  	28,144324  	27,910784  	31,012314  	30,110184  	32,852299  	58,294701  	28,072058  	27,348732  	27,513010  	63,530827  	0,229796  	0,116439  	-3613,059323  	22438,784745  	-0,022142  	-0,049997  	0,346587  	0,175618  	-4,517023  	9484,419393  	77467,871936  	11,235765  	-0,047949  
14,567000  	22,652385  	30,044647  	26,206145  	357,439972  	70,351441  	64,209509  	0,007552  	0,008707  	0,003962  	0,004209  	0,004359  	-0,000000  	-0,000000  	26,021966  	24,277269  	25,176976  	25,117789  	28,248974  	26,916419  	28,136283  	27,903783  	31,007205  	30,100333  	32,845147  	58,288547  	28,068185  	27,345520  	27,505821  	63,532433  	0,175903  	0,089131  	-2754,888573  	12436,102668  	-0,036419  	-0,050002  	0,310514  	0,157340  	-4,045905  	10125,708001  	77467,257620  	11,235676  	-0,047953  
15,564000  	22,669519  	30,035231  	26,204946  	1256,670793  	70,357734  	64,210287  	0,007550  	0,008524  	0,003963  	0,004308  	0,004348  	-0,000000  	-0,000000  	26,025843  	24,274727  	25,170785  	25,115122  	28,246921  	26,912299  	28,138009  	27,902282  	31,004378  	30,102792  	32,845196  	58,284892  	28,066468  	27,355438  	27,503330  	63,530615  	0,256430  	0,129935  	-4001,630264  	25496,766178  	-0,018515  	-0,050001  	0,302103  	0,153078  	-3,939839  	9732,636068  	77420,407266  	11,228881  	-0,047953  
16,564000  	22,667124  	30,032954  	26,205130  	1256,670793  	70,365397  	64,216319  	0,007559  	0,008594  	0,003965  	0,004263  	0,004330  	-0,000000  	-0,000000  	26,032552  	24,279102  	25,175279  	25,129523  	28,258153  	26,918524  	28,148642  	27,909304  	31,009581  	30,114905  	32,853110  	58,291579  	28,071400  	27,373188  	27,505190  	63,533773  	0,219602  	0,111274  	-3426,970906  	25498,546996  	-0,018516  	-0,050005  	0,287799  	0,145830  	-3,754295  	9883,174240  	77604,038059  	11,255514  	-0,047956  
17,565000  	22,698260  	30,034492  	26,206206  	1256,670793  	70,375085  	64,236125  	0,007552  	0,008300  	0,003961  	0,004290  	0,004415  	0,000000  	-0,000000  	26,028216  	24,273928  	25,172043  	25,127727  	28,257356  	26,915683  	28,144619  	27,904311  	31,007823  	30,108545  	32,851764  	58,290744  	28,074105  	27,379320  	27,507511  	63,528178  	0,241734  	0,122489  	-3757,196352  	25494,710813  	-0,018514  	-0,049997  	0,355266  	0,180016  	-4,626784  	9248,967876  	77463,472874  	11,235127  	-0,047949  
18,563000  	22,734740  	30,044217  	26,206083  	1256,670793  	70,384555  	64,242343  	0,007547  	0,008519  	0,003964  	0,004267  	0,004356  	0,000000  	-0,000000  	26,018499  	24,271286  	25,167626  	25,114970  	28,247579  	26,910027  	28,137203  	27,894972  	31,005998  	30,104808  	32,845308  	58,287645  	28,069681  	27,390579  	27,501243  	63,523507  	0,223294  	0,113145  	-3457,912894  	25493,829802  	-0,018513  	-0,049995  	0,308511  	0,156325  	-4,020010  	9721,114601  	77349,994044  	11,218668  	-0,047947  
19,565000  	22,753072  	30,052802  	26,206821  	1256,670793  	70,393091  	64,250925  	0,007548  	0,008405  	0,003961  	0,004193  	0,004335  	0,000000  	-0,000000  	26,019754  	24,284462  	25,174309  	25,116626  	28,251631  	26,915130  	28,140985  	27,902348  	31,006177  	30,109230  	32,842457  	58,291703  	28,073910  	27,424434  	27,509764  	63,523361  	0,163332  	0,082761  	-2525,970680  	25495,084864  	-0,018514  	-0,049998  	0,291395  	0,147652  	-3,796955  	9474,832083  	77372,476565  	11,221929  	-0,047950  
20,563000  	22,764311  	30,064311  	26,207436  	1256,670793  	70,401128  	64,269145  	0,007558  	0,008743  	0,003962  	0,004239  	0,004347  	0,000000  	-0,000000  	26,026713  	24,282568  	25,167826  	25,117006  	28,256481  	26,918491  	28,149861  	27,907143  	31,011784  	30,104981  	32,848101  	58,289854  	28,082008  	27,428284  	27,512619  	63,528134  	0,200046  	0,101365  	-3093,875251  	25493,410743  	-0,018513  	-0,049994  	0,301145  	0,152592  	-3,917501  	10203,499486  	77576,803422  	11,251564  	-0,047946  
21,562000  	22,800331  	30,083452  	26,208296  	57,696365  	70,403246  	64,269642  	0,007552  	0,008521  	0,003962  	0,004312  	0,004395  	-0,000001  	-0,000000  	26,010370  	24,275579  	25,161715  	25,109501  	28,239294  	26,909484  	28,138509  	27,902768  	31,009211  	30,094104  	32,843180  	58,286105  	28,078813  	27,435240  	27,508005  	63,524948  	0,259009  	0,131242  	-3996,522816  	1702,923236  	-0,053757  	-0,050018  	0,338947  	0,171747  	-4,410420  	9725,975463  	77449,498971  	11,233100  	-0,047967  
22,566000  	22,819001  	30,099638  	26,209341  	1256,670793  	70,401751  	64,285935  	0,007548  	0,008577  	0,003964  	0,004289  	0,004366  	-0,000001  	-0,000000  	26,012038  	24,272707  	25,161408  	25,113844  	28,247413  	26,911519  	28,130570  	27,897309  	31,000612  	30,101622  	32,840183  	58,291394  	28,079923  	27,441322  	27,504145  	63,531230  	0,240597  	0,121912  	-3711,141969  	25499,430078  	-0,018517  	-0,050008  	0,316366  	0,160305  	-4,104659  	9845,190042  	77362,711073  	11,220513  	-0,047958  
23,564000  	22,823146  	30,113394  	26,211186  	1256,670793  	70,406673  	64,314074  	0,007556  	0,008552  	0,003963  	0,004210  	0,004352  	-0,000000  	-0,000000  	26,023485  	24,281625  	25,165745  	25,118347  	28,255325  	26,919723  	28,139455  	27,902491  	31,006797  	30,106131  	32,843180  	58,294793  	28,083321  	27,450990  	27,524030  	63,537904  	0,176761  	0,089566  	-2730,089243  	25496,379341  	-0,018515  	-0,050001  	0,305396  	0,154747  	-3,947308  	9792,351597  	77551,122226  	11,247839  	-0,047952  
24,565000  	22,784762  	30,134935  	26,212231  	1256,670793  	70,405925  	64,319671  	0,007556  	0,008469  	0,003964  	0,004320  	0,004372  	0,000002  	-0,000000  	26,008167  	24,273649  	25,173470  	25,112124  	28,248605  	26,915599  	28,134562  	27,895308  	31,001067  	30,097201  	32,855866  	58,291030  	28,075953  	27,460445  	27,503275  	63,528303  	0,266000  	0,134784  	-4142,174049  	25487,019569  	-0,018508  	-0,049980  	0,321097  	0,162702  	-4,145930  	9612,799644  	77547,288052  	11,247283  	-0,047935  
25,567000  	22,706735  	30,159493  	26,213952  	-242,047242  	70,407701  	64,328346  	0,007555  	0,008429  	0,003963  	0,004257  	0,004318  	0,000000  	-0,000000  	26,012631  	24,283161  	25,173247  	25,117243  	28,252632  	26,913253  	28,130803  	27,896411  	30,997790  	30,101029  	32,852652  	58,286385  	28,086138  	27,462047  	27,517911  	63,544487  	0,214676  	0,108778  	-3389,635084  	-27100,120806  	-0,102482  	-0,050000  	0,278061  	0,140896  	-3,586194  	9526,897289  	77515,943859  	11,242737  	-0,047951  
26,563000  	22,663378  	30,171618  	26,213706  	357,439972  	70,413246  	64,315598  	0,007551  	0,008656  	0,003962  	0,004292  	0,004364  	0,000002  	-0,000000  	26,004112  	24,268204  	25,163101  	25,107982  	28,248035  	26,898995  	28,128262  	27,892695  	30,995406  	30,091811  	32,834315  	58,287156  	28,074784  	27,463058  	27,506551  	63,535143  	0,243529  	0,123398  	-3873,837208  	12430,360369  	-0,036403  	-0,049978  	0,314331  	0,159274  	-4,066160  	10016,312774  	77435,094340  	11,231011  	-0,047933  
27,563000  	22,640348  	30,169033  	26,214905  	357,439972  	70,414866  	64,307296  	0,007551  	0,008642  	0,003962  	0,004248  	0,004367  	0,000001  	-0,000000  	26,010746  	24,268385  	25,149481  	25,101972  	28,230775  	26,904242  	28,129593  	27,885551  	30,994246  	30,089962  	32,833157  	58,276361  	28,068101  	27,463505  	27,507228  	63,525491  	0,207298  	0,105039  	-3306,494403  	12433,416791  	-0,036413  	-0,049992  	0,316663  	0,160455  	-4,102986  	9985,084687  	77445,361170  	11,232500  	-0,047945  
28,564000  	22,639611  	30,147183  	26,217302  	956,927186  	70,413495  	64,303627  	0,007558  	0,008498  	0,003963  	0,004289  	0,004386  	0,000000  	-0,000000  	26,018486  	24,273700  	25,172000  	25,111429  	28,249696  	26,916175  	28,144383  	27,897854  	30,999467  	30,092543  	32,835216  	58,294985  	28,082974  	27,475736  	27,515703  	63,545152  	0,240676  	0,121952  	-3828,130782  	22438,270589  	-0,022142  	-0,049997  	0,331775  	0,168113  	-4,300414  	9674,976378  	77581,950959  	11,252311  	-0,047949  
29,565000  	22,663071  	30,117179  	26,218194  	1256,670793  	70,410006  	64,310063  	0,007544  	0,008432  	0,003964  	0,004291  	0,004338  	-0,000001  	-0,000000  	26,027017  	24,274075  	25,167846  	25,117340  	28,250273  	26,917036  	28,135418  	27,895615  	31,007281  	30,100464  	32,850427  	58,293448  	28,077206  	27,483615  	27,504583  	63,549644  	0,242098  	0,122673  	-3823,323077  	25498,885817  	-0,018517  	-0,050007  	0,293886  	0,148914  	-3,803116  	9532,965762  	77277,455432  	11,208147  	-0,047957  
30,564000  	22,676397  	30,098284  	26,218194  	657,183579  	70,412685  	64,324055  	0,007551  	0,008450  	0,003963  	0,004296  	0,004442  	0,000001  	-0,000000  	26,024058  	24,268784  	25,167021  	25,115001  	28,244814  	26,910156  	28,140027  	27,891756  	31,005946  	30,097531  	32,849669  	58,290818  	28,074568  	27,481970  	27,500287  	63,539649  	0,246380  	0,124842  	-3874,114246  	18399,278705  	-0,027537  	-0,049993  	0,376513  	0,190782  	-4,863339  	9572,944251  	77440,150083  	11,231744  	-0,047945  
31,564000  	22,687267  	30,089053  	26,219300  	657,183579  	70,415520  	64,312364  	0,007552  	0,008530  	0,003964  	0,004232  	0,004364  	-0,000001  	-0,000000  	26,032474  	24,270595  	25,167114  	25,122899  	28,257352  	26,912128  	28,136146  	27,899909  	31,006975  	30,100846  	32,852020  	58,296278  	28,077895  	27,488557  	27,511569  	63,549858  	0,194940  	0,098778  	-3056,967208  	18404,124653  	-0,027544  	-0,050008  	0,314351  	0,159284  	-4,070094  	9745,019206  	77463,882418  	11,235186  	-0,047958  
32,563000  	22,695558  	30,088006  	26,220530  	57,696365  	70,413215  	64,296755  	0,007554  	0,008566  	0,003964  	0,004267  	0,004370  	0,000001  	-0,000000  	26,026532  	24,282073  	25,175738  	25,126616  	28,258152  	26,923468  	28,146773  	27,900561  	31,008433  	30,105905  	32,854744  	58,297944  	28,092223  	27,513276  	27,523585  	63,545819  	0,223076  	0,113034  	-3493,757548  	1701,456178  	-0,053731  	-0,049993  	0,319507  	0,161897  	-4,145859  	9823,072446  	77493,757904  	11,239519  	-0,047945  
33,567000  	22,718128  	30,087422  	26,220345  	1256,670793  	70,403807  	64,314883  	0,007551  	0,008456  	0,003964  	0,004265  	0,004318  	-0,000001  	-0,000000  	26,025953  	24,282999  	25,176034  	25,123719  	28,259716  	26,927495  	28,148183  	27,908254  	31,014387  	30,108109  	32,854236  	58,293456  	28,089321  	27,520856  	27,516917  	63,540999  	0,221002  	0,111983  	-3450,430466  	25500,376998  	-0,018518  	-0,050010  	0,278444  	0,141089  	-3,596769  	9585,565090  	77439,062675  	11,231586  	-0,047960  
34,565000  	22,747053  	30,087545  	26,220161  	657,183579  	70,392032  	64,324086  	0,007550  	0,008483  	0,003962  	0,004289  	0,004453  	0,000001  	-0,000000  	26,029178  	24,282240  	25,176943  	25,122304  	28,252068  	26,927733  	28,147041  	27,909105  	31,015016  	30,099207  	32,855577  	58,293963  	28,089012  	27,547773  	27,513404  	63,540322  	0,240774  	0,122002  	-3744,429047  	18397,101169  	-0,027534  	-0,049987  	0,384678  	0,194919  	-4,951926  	9643,737679  	77410,938340  	11,227507  	-0,047940  
35,564000  	22,763267  	30,094099  	26,220991  	-242,047242  	70,386549  	64,305679  	0,007550  	0,008521  	0,003963  	0,004308  	0,004344  	0,000000  	-0,000000  	26,031999  	24,283902  	25,180476  	25,132812  	28,256640  	26,923285  	28,155229  	27,905775  	31,021558  	30,100732  	32,861127  	58,298159  	28,095994  	27,576721  	27,517768  	63,544491  	0,256071  	0,129753  	-3977,081218  	-27100,170729  	-0,102479  	-0,050000  	0,298858  	0,151434  	-3,855366  	9724,888826  	77414,483009  	11,228021  	-0,047951  
36,566000  	22,753870  	30,102162  	26,221360  	-242,047242  	70,386736  	64,297657  	0,007552  	0,008482  	0,003962  	0,004202  	0,004323  	0,000000  	-0,000000  	26,031667  	24,279581  	25,185110  	25,127335  	28,256035  	26,922142  	28,147464  	27,910397  	31,017212  	30,106813  	32,857779  	58,300266  	28,098004  	27,600895  	27,516760  	63,545159  	0,169985  	0,086132  	-2646,346966  	-27097,919928  	-0,102470  	-0,049995  	0,282110  	0,142947  	-3,644218  	9640,506065  	77448,270340  	11,232922  	-0,047947  
37,563000  	22,760964  	30,111086  	26,221329  	1256,670793  	70,390536  	64,287272  	0,007551  	0,008525  	0,003963  	0,004281  	0,004366  	0,000000  	-0,000000  	26,028480  	24,279962  	25,184542  	25,125688  	28,256353  	26,921500  	28,145222  	27,903730  	31,014115  	30,112832  	32,855263  	58,297959  	28,100748  	27,604413  	27,520333  	63,540812  	0,234143  	0,118642  	-3646,075354  	25495,362039  	-0,018514  	-0,049999  	0,315986  	0,160113  	-4,091325  	9733,767982  	77444,485594  	11,232373  	-0,047951  
38,565000  	22,774352  	30,119641  	26,221452  	657,183579  	70,394586  	64,291874  	0,007547  	0,008459  	0,003963  	0,004284  	0,004364  	0,000000  	-0,000000  	26,022384  	24,281224  	25,175686  	25,119192  	28,251311  	26,916459  	28,144897  	27,899754  	31,008592  	30,109397  	32,853984  	58,297567  	28,105203  	27,611760  	27,517924  	63,537821  	0,236369  	0,119770  	-3678,316734  	18400,955578  	-0,027540  	-0,049999  	0,314488  	0,159354  	-4,071563  	9590,870229  	77344,797079  	11,217914  	-0,047950  
39,568000  	22,763666  	30,125642  	26,222190  	657,183579  	70,394524  	64,275519  	0,007555  	0,008410  	0,003961  	0,004311  	0,004427  	0,000001  	-0,000000  	26,018426  	24,276520  	25,173910  	25,110156  	28,249126  	26,911767  	28,141379  	27,895250  	31,007293  	30,103405  	32,844920  	58,298288  	28,101149  	27,618694  	27,513252  	63,531816  	0,258332  	0,130899  	-4029,244813  	18397,633614  	-0,027535  	-0,049989  	0,364277  	0,184582  	-4,728745  	9484,864377  	77513,091177  	11,242323  	-0,047942  
40,562000  	22,736889  	30,129335  	26,223173  	57,696365  	70,393028  	64,279685  	0,007553  	0,008425  	0,003963  	0,004139  	0,004345  	-0,000001  	-0,000000  	26,017176  	24,276710  	25,175349  	25,115913  	28,253100  	26,914277  	28,139801  	27,896244  	31,010266  	30,106050  	32,845320  	58,299004  	28,101992  	27,624507  	27,518402  	63,532960  	0,119139  	0,060368  	-1865,916095  	1701,734247  	-0,053744  	-0,050007  	0,299389  	0,151703  	-3,882825  	9518,632903  	77490,425068  	11,239036  	-0,047957  
41,564000  	22,725651  	30,134935  	26,223020  	1256,670793  	70,388574  	64,278380  	0,007548  	0,008379  	0,003964  	0,004282  	0,004387  	-0,000000  	-0,000000  	26,019703  	24,275649  	25,171235  	25,122925  	28,249329  	26,918772  	28,138394  	27,898849  	31,009092  	30,106078  	32,849335  	58,296546  	28,104894  	27,623729  	27,514642  	63,532669  	0,234844  	0,118997  	-3686,441979  	25496,644106  	-0,018515  	-0,050002  	0,333019  	0,168743  	-4,316745  	9419,294024  	77367,357272  	11,221186  	-0,047953  
42,565000  	22,754761  	30,136351  	26,223880  	1256,670793  	70,385583  	64,270793  	0,007551  	0,008435  	0,003962  	0,004268  	0,004327  	0,000001  	-0,000000  	26,021706  	24,266576  	25,164111  	25,121445  	28,246328  	26,917587  	28,137266  	27,892276  	31,006227  	30,100437  	32,847484  	58,293471  	28,104065  	27,614910  	27,506853  	63,520777  	0,224049  	0,113527  	-3503,835353  	25490,186201  	-0,018511  	-0,049988  	0,285200  	0,144513  	-3,699672  	9540,579297  	77430,158636  	11,230295  	-0,047941  
43,562000  	22,761025  	30,132935  	26,223511  	357,439972  	70,387951  	64,268368  	0,007556  	0,008462  	0,003963  	0,004346  	0,004418  	-0,000001  	-0,000000  	26,017180  	24,267886  	25,158811  	25,117917  	28,250288  	26,915965  	28,137771  	27,895823  	31,005195  	30,102435  	32,849985  	58,294470  	28,107295  	27,619384  	27,506606  	63,515318  	0,286924  	0,145387  	-4481,237465  	12436,484559  	-0,036422  	-0,050008  	0,357672  	0,181235  	-4,643435  	9597,810275  	77545,501595  	11,247024  	-0,047958  
44,566000  	22,755129  	30,126411  	26,224495  	956,927186  	70,390817  	64,266751  	0,007559  	0,008419  	0,003963  	0,004230  	0,004377  	-0,000000  	-0,000000  	26,015666  	24,274273  	25,167534  	25,115422  	28,249493  	26,918358  	28,138100  	27,903419  	31,010273  	30,107885  	32,846892  	58,294814  	28,103820  	27,624670  	27,500552  	63,512290  	0,193093  	0,097842  	-3015,511008  	22439,937428  	-0,022144  	-0,050002  	0,324622  	0,164488  	-4,217448  	9505,770117  	77617,030471  	11,257399  	-0,047953  
45,564000  	22,768456  	30,126196  	26,224034  	956,927186  	70,388356  	64,266440  	0,007540  	0,008423  	0,003962  	0,004279  	0,004360  	0,000001  	-0,000000  	26,017502  	24,268624  	25,174806  	25,117206  	28,250738  	26,917825  	28,134339  	27,902779  	31,011066  	30,104279  	32,846916  	58,298081  	28,105031  	27,627115  	27,511042  	63,508825  	0,232937  	0,118031  	-3631,062383  	22431,738298  	-0,022136  	-0,049982  	0,311501  	0,157840  	-4,045564  	9513,607913  	77209,195843  	11,198247  	-0,047936  
46,564000  	22,755129  	30,128596  	26,224587  	-242,047242  	70,385739  	64,266067  	0,007551  	0,008483  	0,003962  	0,004269  	0,004349  	-0,000001  	-0,000000  	26,020115  	24,269248  	25,165663  	25,108616  	28,248795  	26,915353  	28,135899  	27,898020  	31,005661  	30,096335  	32,841812  	58,293775  	28,099297  	27,614917  	27,511766  	63,506680  	0,224339  	0,113674  	-3504,515562  	-27105,505937  	-0,102498  	-0,050011  	0,303060  	0,153563  	-3,934499  	9643,053578  	77439,867639  	11,231703  	-0,047961  
47,565000  	22,694422  	30,127304  	26,224403  	657,183579  	70,379166  	64,259910  	0,007550  	0,008479  	0,003961  	0,004254  	0,004346  	-0,000000  	-0,000000  	26,020859  	24,278838  	25,167489  	25,121364  	28,248270  	26,924661  	28,150357  	27,906227  	31,012981  	30,110640  	32,853991  	58,296577  	28,100206  	27,606494  	27,516708  	63,512264  	0,212263  	0,107555  	-3342,597093  	18401,405750  	-0,027541  	-0,050000  	0,300620  	0,152326  	-3,902544  	9634,608086  	77419,242186  	11,228712  	-0,047952  
48,568000  	22,642221  	30,129827  	26,223973  	57,696365  	70,375864  	64,264636  	0,007556  	0,008376  	0,003963  	0,004320  	0,004359  	-0,000001  	-0,000000  	26,024308  	24,285025  	25,179054  	25,130605  	28,262929  	26,931644  	28,155897  	27,910033  	31,017290  	30,106653  	32,861172  	58,301034  	28,104108  	27,596665  	27,510155  	63,513808  	0,265751  	0,134658  	-4215,723758  	1701,923725  	-0,053752  	-0,050014  	0,310379  	0,157271  	-4,023948  	9412,714774  	77541,716849  	11,246475  	-0,047964  
49,561000  	22,640195  	30,132135  	26,223143  	956,927186  	70,379197  	64,256988  	0,007554  	0,008458  	0,003964  	0,004240  	0,004384  	-0,000001  	-0,000000  	26,030794  	24,276842  	25,185887  	25,122023  	28,263037  	26,924696  	28,157016  	27,912626  	31,016875  	30,100921  	32,856711  	58,305876  	28,103297  	27,587405  	27,522405  	63,513098  	0,200972  	0,101834  	-3189,954382  	22441,792951  	-0,022146  	-0,050007  	0,330681  	0,167559  	-4,294866  	9589,655544  	77498,284064  	11,240176  	-0,047957  
50,565000  	22,653583  	30,120687  	26,223819  	-242,047242  	70,386549  	64,254127  	0,007549  	0,008448  	0,003961  	0,004318  	0,004373  	0,000002  	-0,000000  	26,017861  	24,277478  	25,172561  	25,121225  	28,257311  	26,917539  	28,143170  	27,909952  	31,002154  	30,098014  	32,853675  	58,297183  	28,098500  	27,580728  	27,506983  	63,507562  	0,264447  	0,133997  	-4183,549524  	-27088,135230  	-0,102432  	-0,049975  	0,321512  	0,162913  	-4,182742  	9567,436075  	77394,189427  	11,225078  	-0,047930  
51,564000  	22,662610  	30,095484  	26,223358  	657,183579  	70,387951  	64,246136  	0,007548  	0,008470  	0,003962  	0,004285  	0,004324  	-0,000000  	-0,000000  	26,033759  	24,282203  	25,177760  	25,132383  	28,263038  	26,925366  	28,144383  	27,904556  	31,013141  	30,108175  	32,851376  	58,295538  	28,092547  	27,564150  	27,516251  	63,516491  	0,237678  	0,120433  	-3742,814137  	18401,525561  	-0,027541  	-0,050001  	0,283035  	0,143416  	-3,687812  	9614,957355  	77374,587832  	11,222235  	-0,047952  
52,564000  	22,653767  	30,076220  	26,222251  	1256,670793  	70,386892  	64,245390  	0,007556  	0,008363  	0,003961  	0,004261  	0,004427  	-0,000000  	-0,000000  	26,022969  	24,288014  	25,181200  	25,126082  	28,259183  	26,919448  	28,152601  	27,907988  	31,004232  	30,104547  	32,845860  	58,299830  	28,090980  	27,546457  	27,514242  	63,507217  	0,218004  	0,110464  	-3428,200882  	25498,002043  	-0,018516  	-0,050005  	0,364434  	0,184661  	-4,748154  	9384,419759  	77542,041660  	11,246522  	-0,047956  
53,563000  	22,640717  	30,067050  	26,222436  	-242,047242  	70,395926  	64,242747  	0,007554  	0,008429  	0,003965  	0,004259  	0,004362  	0,000000  	-0,000000  	26,025398  	24,279829  	25,168530  	25,119407  	28,249538  	26,919111  	28,147435  	27,901100  	31,009062  	30,098822  	32,850250  	58,294029  	28,077451  	27,527398  	27,502086  	63,524068  	0,216609  	0,109757  	-3408,042134  	-27099,063382  	-0,102474  	-0,049997  	0,312824  	0,158510  	-4,083484  	9526,810273  	77492,536334  	11,239342  	-0,047949  
54,562000  	22,635620  	30,066004  	26,222559  	-242,047242  	70,401533  	64,240198  	0,007546  	0,008510  	0,003963  	0,004205  	0,004325  	0,000001  	-0,000000  	26,012987  	24,274046  	25,179126  	25,109857  	28,249729  	26,916658  	28,144764  	27,909020  	31,005069  	30,100555  	32,833401  	58,301651  	28,061630  	27,520847  	27,497302  	63,526295  	0,172977  	0,087649  	-2723,042564  	-27095,378634  	-0,102460  	-0,049990  	0,283278  	0,143539  	-3,702699  	9700,394210  	77333,605246  	11,216291  	-0,047943  
55,566000  	22,667677  	30,062865  	26,222097  	657,183579  	70,401034  	64,238892  	0,007551  	0,008405  	0,003964  	0,004314  	0,004346  	0,000000  	-0,000000  	26,029654  	24,288044  	25,188108  	25,130093  	28,264811  	26,922287  	28,159052  	27,912154  	31,007487  	30,118208  	32,858252  	58,306785  	28,078387  	27,520851  	27,511352  	63,539444  	0,261219  	0,132362  	-4092,674215  	18399,385268  	-0,027538  	-0,049994  	0,300545  	0,152288  	-3,928907  	9473,936456  	77438,942636  	11,231569  	-0,047946  
56,567000  	22,692303  	30,056279  	26,222159  	57,696365  	70,405583  	64,243431  	0,007557  	0,008592  	0,003963  	0,004290  	0,004386  	0,000000  	-0,000000  	26,039565  	24,291822  	25,187246  	25,126630  	28,265331  	26,931600  	28,158383  	27,910393  	31,016814  	30,115918  	32,869927  	58,313514  	28,080695  	27,504457  	27,507108  	63,553977  	0,241920  	0,122583  	-3774,308285  	1701,481555  	-0,053735  	-0,049997  	0,332193  	0,168325  	-4,342642  	9878,892069  	77568,266560  	11,250326  	-0,047948  
57,564000  	22,709622  	30,046709  	26,222190  	1256,670793  	70,407016  	64,253163  	0,007555  	0,008441  	0,003963  	0,004316  	0,004373  	0,000000  	-0,000000  	26,029421  	24,286481  	25,181592  	25,130551  	28,261735  	26,921906  	28,148590  	27,907210  	31,015154  	30,108445  	32,857033  	58,304987  	28,079886  	27,492409  	27,507955  	63,551521  	0,262941  	0,133234  	-4087,273719  	25494,912229  	-0,018514  	-0,049999  	0,321321  	0,162816  	-4,194867  	9551,876505  	77514,298624  	11,242499  	-0,047950  
58,568000  	22,712508  	30,051633  	26,222313  	1256,670793  	70,401907  	64,268585  	0,007543  	0,008610  	0,003962  	0,004181  	0,004360  	0,000001  	-0,000000  	26,025865  	24,278821  	25,176956  	25,131339  	28,258584  	26,919348  	28,143165  	27,900488  	31,006616  	30,108311  	32,854585  	58,304526  	28,085485  	27,486560  	27,510355  	63,552746  	0,153077  	0,077565  	-2380,154260  	25492,286937  	-0,018512  	-0,049993  	0,311674  	0,157927  	-4,055350  	9916,403693  	77272,540911  	11,207435  	-0,047945  
59,563000  	22,734433  	30,061511  	26,222220  	1256,670793  	70,398355  	64,271881  	0,007548  	0,008702  	0,003964  	0,004287  	0,004368  	0,000002  	-0,000000  	26,026032  	24,275590  	25,178971  	25,121435  	28,255277  	26,924295  	28,143653  	27,901329  	31,012574  	30,110114  	32,855187  	58,305899  	28,089917  	27,479811  	27,510896  	63,549696  	0,239413  	0,121312  	-3716,457737  	25486,134319  	-0,018508  	-0,049979  	0,317779  	0,161021  	-4,130181  	10116,090978  	77369,609761  	11,221513  	-0,047934  
60,567000  	22,763605  	30,074128  	26,223266  	1256,670793  	70,399041  	64,283012  	0,007549  	0,008344  	0,003962  	0,004265  	0,004342  	-0,000000  	-0,000000  	26,033199  	24,281439  	25,179279  	25,119861  	28,261102  	26,924438  	28,146611  	27,904286  	31,014312  	30,109980  	32,851718  	58,306053  	28,090517  	27,478975  	27,509231  	63,562761  	0,221235  	0,112102  	-3426,519349  	25497,730224  	-0,018516  	-0,050005  	0,297067  	0,150526  	-3,854402  	9343,987089  	77385,539587  	11,223824  	-0,047956  
61,564000  	22,770207  	30,085914  	26,223327  	-242,047242  	70,397359  	64,298124  	0,007554  	0,008471  	0,003965  	0,004294  	0,004451  	-0,000001  	-0,000000  	26,026053  	24,281713  	25,181007  	25,119763  	28,250334  	26,917767  	28,141963  	27,902881  	31,008168  	30,107329  	32,854087  	58,302367  	28,092465  	27,482848  	27,518645  	63,555066  	0,245232  	0,124261  	-3800,880973  	-27104,557126  	-0,102495  	-0,050009  	0,383783  	0,194466  	-4,965863  	9618,239198  	77496,935396  	11,239980  	-0,047959  
62,563000  	22,778006  	30,101977  	26,223511  	357,439972  	70,398916  	64,301295  	0,007551  	0,008383  	0,003961  	0,004141  	0,004339  	0,000001  	-0,000000  	26,020152  	24,274252  	25,170791  	25,115377  	28,250303  	26,916439  	28,137030  	27,894974  	31,004761  	30,101862  	32,846248  	58,298557  	28,088196  	27,492789  	27,524020  	63,555783  	0,120987  	0,061305  	-1877,311272  	12432,343195  	-0,036410  	-0,049989  	0,294402  	0,149176  	-3,808341  	9427,628446  	77438,547215  	11,231512  	-0,047942  
63,568000  	22,794957  	30,121180  	26,223696  	357,439972  	70,401221  	64,300393  	0,007550  	0,008450  	0,003962  	0,004302  	0,004340  	0,000001  	-0,000000  	26,022051  	24,277261  	25,171922  	25,118003  	28,249885  	26,917977  	28,138622  	27,895467  	31,009683  	30,100591  	32,851422  	58,303580  	28,084700  	27,511272  	27,515828  	63,563727  	0,251556  	0,127465  	-3904,494162  	12432,815707  	-0,036412  	-0,049991  	0,295148  	0,149554  	-3,819992  	9572,785783  	77418,423099  	11,228593  	-0,047944  
64,564000  	22,797352  	30,137736  	26,223266  	-242,047242  	70,404523  	64,290568  	0,007560  	0,008449  	0,003964  	0,004302  	0,004323  	0,000001  	-0,000000  	26,020254  	24,276071  	25,168750  	25,114849  	28,245361  	26,911025  	28,133278  	27,897363  	31,007721  	30,099344  	32,848130  	58,299704  	28,082700  	27,520390  	27,513514  	63,562190  	0,250961  	0,127164  	-3902,781525  	-27094,297744  	-0,102456  	-0,049988  	0,282328  	0,143058  	-3,661927  	9569,536483  	77628,653030  	11,259084  	-0,047941  
65,562000  	22,772448  	30,142906  	26,223942  	-242,047242  	70,405240  	64,289791  	0,007549  	0,008624  	0,003961  	0,004278  	0,004407  	-0,000001  	-0,000000  	26,021685  	24,280681  	25,165111  	25,116726  	28,248502  	26,914205  	28,137871  	27,900616  	31,004808  	30,101304  	32,845094  	58,301091  	28,082345  	27,524959  	27,510766  	63,565834  	0,231716  	0,117412  	-3618,270874  	-27103,702561  	-0,102491  	-0,050007  	0,348613  	0,176645  	-4,522780  	9947,776099  	77393,801067  	11,225022  	-0,047957  
66,564000  	22,713061  	30,145860  	26,223942  	357,439972  	70,407794  	64,276483  	0,007544  	0,008409  	0,003963  	0,004233  	0,004350  	-0,000000  	-0,000000  	26,023295  	24,286503  	25,169296  	25,123236  	28,251792  	26,925538  	28,147094  	27,906557  	31,002806  	30,100401  	32,851354  	58,307556  	28,081127  	27,529484  	27,508001  	63,570780  	0,195698  	0,099161  	-3081,694158  	12435,059891  	-0,036418  	-0,050002  	0,303175  	0,153621  	-3,943480  	9484,350771  	77279,227767  	11,208404  	-0,047953  
67,563000  	22,642037  	30,150661  	26,224034  	1256,670793  	70,412654  	64,281396  	0,007549  	0,008605  	0,003963  	0,004257  	0,004366  	0,000001  	-0,000000  	26,015434  	24,279608  	25,172624  	25,121536  	28,248699  	26,921506  	28,141604  	27,901770  	30,997216  	30,092741  	32,848727  	58,301852  	28,074642  	27,525914  	27,509824  	63,568495  	0,214823  	0,108852  	-3417,387706  	25489,376538  	-0,018510  	-0,049986  	0,316246  	0,160244  	-4,113460  	9906,079931  	77398,200128  	11,225660  	-0,047940  
68,565000  	22,622017  	30,149553  	26,223358  	57,696365  	70,410224  	64,286743  	0,007560  	0,008687  	0,003963  	0,004286  	0,004364  	-0,000001  	-0,000000  	26,012934  	24,273301  	25,174382  	25,119217  	28,248889  	26,915177  	28,136975  	27,895666  	30,995203  	30,095373  	32,846522  	58,298863  	28,071913  	27,524895  	27,513205  	63,563324  	0,238582  	0,120891  	-3804,914506  	1702,041161  	-0,053754  	-0,050017  	0,314599  	0,159409  	-4,086848  	10083,680748  	77630,354754  	11,259331  	-0,047966  
69,566000  	22,573348  	30,133243  	26,223788  	1256,670793  	70,410224  	64,284878  	0,007556  	0,008434  	0,003962  	0,004289  	0,004357  	-0,000000  	-0,000000  	26,018869  	24,272708  	25,174186  	25,118800  	28,248804  	26,919035  	28,139641  	27,898563  	31,001229  	30,102561  	32,852173  	58,301522  	28,073145  	27,525438  	27,516979  	63,557397  	0,240694  	0,121962  	-3855,116999  	25495,990040  	-0,018515  	-0,050001  	0,308858  	0,156501  	-4,013495  	9537,704236  	77544,167049  	11,246831  	-0,047952  
70,563000  	22,553206  	30,109117  	26,223850  	1256,670793  	70,409975  	64,303409  	0,007549  	0,008452  	0,003963  	0,004293  	0,004375  	-0,000000  	-0,000000  	26,018389  	24,277102  	25,178089  	25,118275  	28,245411  	26,917892  	28,142327  	27,899364  	31,008486  	30,100201  	32,852224  	58,298769  	28,070547  	27,512602  	27,512833  	63,555581  	0,244178  	0,123727  	-3908,860974  	25497,046655  	-0,018516  	-0,050003  	0,323011  	0,163672  	-4,184555  	9575,967168  	77390,757735  	11,224580  	-0,047954  
71,563000  	22,582775  	30,087606  	26,223020  	1256,670793  	70,403838  	64,311587  	0,007549  	0,008462  	0,003963  	0,004193  	0,004327  	0,000000  	-0,000000  	26,021765  	24,280927  	25,182258  	25,119501  	28,253826  	26,917085  	28,148465  	27,907065  	31,003935  	30,103947  	32,849279  	58,301648  	28,070910  	27,503117  	27,510462  	63,553550  	0,162757  	0,082470  	-2587,831823  	25494,108680  	-0,018514  	-0,049997  	0,285115  	0,144470  	-3,684956  	9598,074860  	77388,830057  	11,224301  	-0,047949  
72,566000  	22,643879  	30,068589  	26,223388  	1256,670793  	70,397359  	64,322096  	0,007556  	0,008461  	0,003964  	0,004302  	0,004369  	0,000001  	-0,000000  	26,026089  	24,276782  	25,169529  	25,121827  	28,253055  	26,913226  	28,145660  	27,906182  	31,003331  	30,099320  	32,847238  	58,301856  	28,059089  	27,496702  	27,503550  	63,560859  	0,251655  	0,127515  	-3958,572993  	25488,441510  	-0,018509  	-0,049984  	0,318515  	0,161394  	-4,105156  	9596,110282  	77534,239152  	11,245391  	-0,047938  
73,565000  	22,712293  	30,047263  	26,223204  	-242,047242  	70,396362  	64,312489  	0,007550  	0,008529  	0,003961  	0,004237  	0,004343  	-0,000001  	-0,000000  	26,021858  	24,280300  	25,162303  	25,120698  	28,253309  	26,907792  	28,143167  	27,904964  	31,005071  	30,097260  	32,842830  	58,306067  	28,058866  	27,487679  	27,505582  	63,552222  	0,198541  	0,100602  	-3085,326441  	-27107,686202  	-0,102507  	-0,050015  	0,298020  	0,151009  	-3,846455  	9742,733447  	77416,241221  	11,228276  	-0,047964  
74,565000  	22,764372  	30,040678  	26,223327  	357,439972  	70,398293  	64,304902  	0,007546  	0,008492  	0,003963  	0,004306  	0,004386  	-0,000001  	-0,000000  	26,018168  	24,274905  	25,169175  	25,111446  	28,252546  	26,912431  	28,147358  	27,901735  	31,007502  	30,096131  	32,841316  	58,302138  	28,060325  	27,469257  	27,513081  	63,552030  	0,254408  	0,128910  	-3921,852591  	12438,168328  	-0,036427  	-0,050015  	0,332294  	0,168376  	-4,295526  	9663,262485  	77333,697040  	11,216304  	-0,047965  
75,567000  	22,790443  	30,046217  	26,222866  	1256,670793  	70,398200  	64,289666  	0,007556  	0,008433  	0,003962  	0,004214  	0,004341  	-0,000001  	-0,000000  	26,022147  	24,273130  	25,167899  	25,116728  	28,253950  	26,916048  	28,145866  	27,902366  	31,003370  	30,096568  	32,846052  	58,296784  	28,058983  	27,477938  	27,515190  	63,553358  	0,179739  	0,091075  	-2762,967259  	25498,652404  	-0,018517  	-0,050007  	0,296479  	0,150228  	-3,842060  	9534,432298  	77547,344541  	11,247291  	-0,047957  
76,562000  	22,798120  	30,064865  	26,222804  	1256,670793  	70,398262  	64,283821  	0,007555  	0,008447  	0,003962  	0,004253  	0,004339  	0,000001  	-0,000000  	26,018506  	24,271902  	25,165097  	25,127709  	28,257595  	26,915430  	28,145194  	27,904099  	30,994180  	30,101970  	32,845048  	58,315062  	28,060606  	27,475254  	27,521655  	63,547193  	0,211856  	0,107349  	-3261,600072  	25488,600438  	-0,018510  	-0,049985  	0,295030  	0,149494  	-3,826986  	9565,928508  	77523,470984  	11,243829  	-0,047938  
77,567000  	22,791487  	30,094192  	26,222682  	1256,670793  	70,395521  	64,275177  	0,007555  	0,008594  	0,003961  	0,004226  	0,004342  	-0,000000  	-0,000000  	26,020754  	24,281179  	25,172912  	25,116474  	28,244654  	26,917622  	28,137475  	27,900861  	31,007062  	30,108463  	32,849323  	58,302195  	28,055554  	27,471911  	27,509246  	63,548474  	0,189992  	0,096270  	-2939,460172  	25495,721536  	-0,018515  	-0,050000  	0,297468  	0,150729  	-3,862328  	9882,306911  	77512,293274  	11,242208  	-0,047952  
78,564000  	22,786574  	30,113271  	26,222251  	657,183579  	70,391720  	64,276358  	0,007553  	0,008475  	0,003964  	0,004290  	0,004425  	-0,000000  	-0,000000  	26,013084  	24,279036  	25,171758  	25,111335  	28,258736  	26,913715  	28,134456  	27,893969  	31,001952  	30,101806  	32,850541  	58,305546  	28,055894  	27,472693  	27,505830  	63,549235  	0,241247  	0,122242  	-3744,731670  	18402,274581  	-0,027542  	-0,050003  	0,362520  	0,183691  	-4,703126  	9626,481653  	77474,226920  	11,236687  	-0,047954  
79,564000  	22,759674  	30,127673  	26,222343  	657,183579  	70,390505  	64,285096  	0,007552  	0,008381  	0,003962  	0,004210  	0,004357  	-0,000000  	-0,000000  	26,018192  	24,279998  	25,169132  	25,114475  	28,241631  	26,905004  	28,129435  	27,904232  	31,010349  	30,105390  	32,846468  	58,297282  	28,060772  	27,463536  	27,514623  	63,544799  	0,176881  	0,089627  	-2761,100449  	18402,142652  	-0,027542  	-0,050002  	0,309132  	0,156639  	-4,003978  	9422,843281  	77461,043858  	11,234775  	-0,047953  
80,574000  	22,729458  	30,136536  	26,222343  	1256,670793  	70,390131  	64,291687  	0,007557  	0,008443  	0,003962  	0,004291  	0,004331  	0,000002  	-0,000000  	26,016348  	24,277264  	25,167251  	25,107058  	28,243728  	26,916866  	28,146582  	27,904122  	31,004075  	30,101534  	32,850598  	58,305215  	28,070220  	27,450456  	27,504636  	63,546906  	0,242054  	0,122651  	-3798,490921  	25485,618774  	-0,018507  	-0,049978  	0,288589  	0,146230  	-3,733641  	9557,018931  	77557,011178  	11,248693  	-0,047933  
81,564000  	22,715825  	30,144383  	26,222497  	956,927186  	70,387764  	64,286992  	0,007548  	0,008553  	0,003963  	0,004267  	0,004318  	-0,000000  	-0,000000  	26,018167  	24,277138  	25,176140  	25,126750  	28,251700  	26,916077  	28,143053  	27,906502  	31,003025  	30,100162  	32,839889  	58,309337  	28,077669  	27,435163  	27,512126  	63,541703  	0,223039  	0,113016  	-3510,246015  	22440,281879  	-0,022144  	-0,050003  	0,277962  	0,140845  	-3,597526  	9793,910101  	77378,457311  	11,222796  	-0,047954  
82,566000  	22,697953  	30,141182  	26,222682  	-242,047242  	70,387016  	64,275861  	0,007552  	0,008456  	0,003963  	0,004294  	0,004440  	0,000000  	-0,000000  	26,008464  	24,271113  	25,158932  	25,109689  	28,238295  	26,907929  	28,134049  	27,900508  	30,995361  	30,092859  	32,839482  	58,310195  	28,075991  	27,420449  	27,507685  	63,536445  	0,244841  	0,124063  	-3860,978610  	-27099,939668  	-0,102477  	-0,049999  	0,374900  	0,189964  	-4,860390  	9584,963761  	77457,816939  	11,234307  	-0,047951  
83,569000  	22,659263  	30,130843  	26,222866  	-242,047242  	70,387328  	64,270606  	0,007554  	0,008561  	0,003962  	0,004238  	0,004345  	-0,000000  	-0,000000  	26,016161  	24,283226  	25,166870  	25,117516  	28,250403  	26,907553  	28,133397  	27,902103  	31,004851  	30,093542  	32,838953  	58,305525  	28,067731  	27,411052  	27,505606  	63,532940  	0,199846  	0,101263  	-3163,453571  	-27101,009172  	-0,102481  	-0,050001  	0,299423  	0,151720  	-3,885401  	9810,371665  	77510,210251  	11,241906  	-0,047953  
84,562000  	22,646674  	30,120133  	26,222436  	956,927186  	70,389571  	64,275208  	0,007558  	0,008401  	0,003962  	0,004263  	0,004357  	0,000000  	-0,000000  	26,023168  	24,286920  	25,181220  	25,124303  	28,258053  	26,922547  	28,151098  	27,908652  	31,018609  	30,115723  	32,852329  	58,314083  	28,075169  	27,419489  	27,516693  	63,542378  	0,219864  	0,111407  	-3481,202772  	22437,572831  	-0,022141  	-0,049996  	0,309013  	0,156579  	-4,008298  	9465,957171  	77580,658779  	11,252123  	-0,047948  
85,565000  	22,657697  	30,106778  	26,223050  	57,696365  	70,392250  	64,278628  	0,007552  	0,008875  	0,003965  	0,004324  	0,004374  	-0,000001  	-0,000000  	26,026697  	24,281897  	25,173416  	25,120917  	28,254723  	26,918318  	28,138824  	27,902625  	31,013674  	30,107551  	32,853008  	58,313294  	28,071380  	27,414179  	27,518922  	63,538999  	0,269051  	0,136330  	-4246,099978  	1702,035772  	-0,053754  	-0,050016  	0,322272  	0,163297  	-4,179783  	10488,924291  	77449,957942  	11,233167  	-0,047965  
86,569000  	22,658864  	30,092068  	26,222497  	657,183579  	70,392499  	64,275457  	0,007551  	0,008323  	0,003961  	0,004296  	0,004401  	0,000000  	-0,000000  	26,018658  	24,280271  	25,171920  	25,123904  	28,252569  	26,915537  	28,139081  	27,901850  	31,001232  	30,106007  	32,847107  	58,308475  	28,054965  	27,410623  	27,505370  	63,534136  	0,246654  	0,124981  	-3884,344064  	18401,178039  	-0,027540  	-0,049999  	0,344114  	0,174365  	-4,465573  	9297,929516  	77430,603485  	11,230360  	-0,047951  
87,565000  	22,650758  	30,078497  	26,221667  	657,183579  	70,395022  	64,280991  	0,007555  	0,008495  	0,003961  	0,004253  	0,004372  	-0,000001  	-0,000000  	26,014692  	24,275172  	25,163022  	25,114563  	28,244856  	26,914235  	28,138003  	27,899729  	30,999300  	30,095910  	32,842796  	58,306977  	28,036797  	27,397977  	27,506109  	63,525181  	0,211699  	0,107269  	-3331,414622  	18404,626546  	-0,027545  	-0,050010  	0,320700  	0,162501  	-4,159673  	9668,518810  	77519,417917  	11,243241  	-0,047960  
88,577000  	22,636080  	30,072958  	26,222405  	1256,670793  	70,399072  	64,293615  	0,007552  	0,008364  	0,003962  	0,004288  	0,004335  	0,000000  	-0,000000  	26,019424  	24,277770  	25,167557  	25,116663  	28,253793  	26,916753  	28,137058  	27,903957  	31,003076  	30,099836  	32,842824  	58,313977  	28,038371  	27,398963  	27,508567  	63,530517  	0,239998  	0,121609  	-3781,397847  	25494,838051  	-0,018514  	-0,049998  	0,291302  	0,147605  	-3,773073  	9387,001937  	77465,930135  	11,235483  	-0,047950  
89,565000  	22,637308  	30,074805  	26,221513  	1256,670793  	70,399913  	64,287987  	0,007554  	0,008507  	0,003964  	0,004297  	0,004363  	-0,000002  	-0,000000  	26,019101  	24,276754  	25,170097  	25,114886  	28,252435  	26,915767  	28,133424  	27,897465  	31,000896  	30,105616  	32,843736  	58,306462  	28,040088  	27,408965  	27,510312  	63,530468  	0,246926  	0,125119  	-3890,875285  	25509,272933  	-0,018525  	-0,050030  	0,313735  	0,158972  	-4,067941  	9694,904428  	77494,266302  	11,239593  	-0,047977  
90,568000  	22,668260  	30,074374  	26,221636  	657,183579  	70,400162  	64,276607  	0,007552  	0,008717  	0,003963  	0,004305  	0,004382  	-0,000000  	-0,000000  	26,020432  	24,272067  	25,168745  	25,114678  	28,248382  	26,919307  	28,136905  	27,894129  	30,998854  	30,104582  	32,846890  	58,301488  	28,045023  	27,420476  	27,508531  	63,529217  	0,254074  	0,128741  	-3986,612139  	18401,637686  	-0,027541  	-0,050001  	0,328965  	0,166689  	-4,273522  	10147,285816  	77464,383755  	11,235259  	-0,047952  
91,566000  	22,693961  	30,068188  	26,221083  	657,183579  	70,402156  	64,283075  	0,007554  	0,008398  	0,003961  	0,004253  	0,004373  	-0,000000  	-0,000000  	26,016947  	24,268291  	25,164976  	25,117145  	28,243861  	26,917225  	28,137466  	27,895486  	31,001170  	30,100849  	32,845555  	58,301148  	28,047830  	27,423055  	27,506737  	63,532213  	0,211400  	0,107118  	-3302,738508  	18401,785138  	-0,027541  	-0,050001  	0,321919  	0,163119  	-4,178942  	9459,936804  	77493,108283  	11,239425  	-0,047952  
92,564000  	22,714289  	30,059449  	26,220837  	1256,670793  	70,401907  	64,285189  	0,007553  	0,008689  	0,003962  	0,004279  	0,004350  	0,000001  	-0,000000  	26,009622  	24,268931  	25,166839  	25,115355  	28,241966  	26,909133  	28,137772  	27,894252  	30,999720  	30,100059  	32,844910  	58,300192  	28,049943  	27,433011  	27,504653  	63,537392  	0,232717  	0,117919  	-3621,431889  	25492,715568  	-0,018512  	-0,049994  	0,303628  	0,153850  	-3,939973  	10087,118936  	77490,008463  	11,238976  	-0,047946  
93,565000  	22,730441  	30,061234  	26,220929  	1256,670793  	70,404648  	64,296196  	0,007553  	0,008384  	0,003963  	0,004323  	0,004393  	-0,000000  	-0,000000  	26,016967  	24,272216  	25,171176  	25,115485  	28,249868  	26,917070  	28,146482  	27,898108  	31,003776  	30,105532  	32,850505  	58,304657  	28,058958  	27,457846  	27,511298  	63,547820  	0,268285  	0,135942  	-4166,765564  	25495,746514  	-0,018515  	-0,050000  	0,337488  	0,171008  	-4,373448  	9430,098848  	77479,953466  	11,237517  	-0,047952  
94,564000  	22,749602  	30,071881  	26,221237  	1256,670793  	70,404710  	64,313297  	0,007552  	0,008522  	0,003961  	0,004278  	0,004383  	-0,000001  	-0,000000  	26,023465  	24,274200  	25,171277  	25,117911  	28,249748  	26,925975  	28,149232  	27,897860  	31,008446  	30,105045  	32,847197  	58,309767  	28,063160  	27,477662  	27,518853  	63,547217  	0,231729  	0,117419  	-3594,822738  	25502,106883  	-0,018519  	-0,050014  	0,329399  	0,166909  	-4,256715  	9728,160057  	77463,112759  	11,235075  	-0,047964  
95,564000  	22,733757  	30,084437  	26,220591  	1256,670793  	70,400941  	64,318801  	0,007548  	0,008397  	0,003962  	0,004247  	0,004336  	-0,000001  	-0,000000  	26,014426  	24,275672  	25,174178  	25,118736  	28,244638  	26,914568  	28,140266  	27,891009  	31,004092  	30,098209  	32,840340  	58,311962  	28,062040  	27,488333  	27,516711  	63,538486  	0,206546  	0,104659  	-3216,595816  	25498,800727  	-0,018517  	-0,050007  	0,292393  	0,148157  	-3,772749  	9457,931195  	77373,182674  	11,222031  	-0,047957  
96,565000  	22,708946  	30,101608  	26,221206  	1256,670793  	70,395396  	64,315691  	0,007558  	0,008444  	0,003962  	0,004288  	0,004312  	-0,000001  	-0,000000  	26,011778  	24,276418  	25,169722  	25,116420  	28,245052  	26,906470  	28,132105  	27,894514  	31,004211  	30,100825  	32,845307  	58,309934  	28,064012  	27,492957  	27,520083  	63,545285  	0,240002  	0,121611  	-3758,954935  	25503,233699  	-0,018520  	-0,050017  	0,273210  	0,138438  	-3,523822  	9558,893663  	77582,445236  	11,252382  	-0,047966  
97,568000  	22,696326  	30,116348  	26,220868  	1256,670793  	70,393465  	64,300518  	0,007556  	0,008572  	0,003963  	0,004368  	0,004361  	-0,000000  	-0,000000  	26,008979  	24,276660  	25,160689  	25,108088  	28,233772  	26,903692  	28,132871  	27,896178  	30,993291  	30,100116  	32,843503  	58,303206  	28,065458  	27,495738  	27,507722  	63,543394  	0,305014  	0,154553  	-4794,873723  	25497,749965  	-0,018516  	-0,050005  	0,311880  	0,158032  	-4,031342  	9835,889955  	77544,979074  	11,246948  	-0,047955  
98,569000  	22,723102  	30,116718  	26,220499  	1256,670793  	70,397078  	64,276763  	0,007553  	0,008367  	0,003960  	0,004308  	0,004368  	-0,000002  	-0,000000  	26,004686  	24,270144  	25,161090  	25,104282  	28,236656  	26,898628  	28,129966  	27,895639  	30,996718  	30,097045  	32,845707  	58,304181  	28,066843  	27,497621  	27,508224  	63,542001  	0,255879  	0,129656  	-4008,148052  	25504,219982  	-0,018521  	-0,050019  	0,317584  	0,160922  	-4,123492  	9392,935288  	77479,317968  	11,237425  	-0,047968  
99,564000  	22,762161  	30,108316  	26,220591  	357,439972  	70,397483  	64,266564  	0,007549  	0,008621  	0,003962  	0,004294  	0,004347  	-0,000000  	-0,000000  	26,011978  	24,275343  	25,173616  	25,110241  	28,246056  	26,917859  	28,132938  	27,897110  	31,002790  	30,104848  	32,855994  	58,312333  	28,068179  	27,509930  	27,523552  	63,553363  	0,244466  	0,123873  	-3804,773145  	12435,275144  	-0,036419  	-0,050002  	0,301107  	0,152573  	-3,916330  	9940,662021  	77400,240784  	11,225956  	-0,047953  
100,564000  	22,798150  	30,099638  	26,220530  	956,927186  	70,398355  	64,272969  	0,007553  	0,008634  	0,003961  	0,004266  	0,004318  	-0,000000  	-0,000000  	26,016105  	24,266847  	25,164821  	25,106131  	28,240339  	26,926072  	28,132053  	27,897134  	30,998777  	30,096828  	32,850099  	58,302129  	28,074954  	27,508166  	27,520279  	63,557599  	0,221831  	0,112404  	-3431,498918  	22440,753374  	-0,022145  	-0,050004  	0,277990  	0,140860  	-3,612399  	9967,913554  	77479,543923  	11,237458  	-0,047955  
101,564000  	22,827814  	30,098808  	26,220192  	956,927186  	70,393714  	64,277416  	0,007550  	0,008428  	0,003961  	0,004342  	0,004353  	0,000000  	-0,000000  	26,017400  	24,275345  	25,166330  	25,111959  	28,235719  	26,910788  	28,135056  	27,894278  	30,997223  	30,099764  	32,850928  	58,306662  	28,067810  	27,511732  	27,514843  	63,551497  	0,283735  	0,143771  	-4370,741144  	22438,146490  	-0,022142  	-0,049997  	0,305729  	0,154915  	-3,966963  	9523,974122  	77419,595241  	11,228763  	-0,047949  
102,563000  	22,809082  	30,109147  	26,220130  	357,439972  	70,385116  	64,305026  	0,007557  	0,008458  	0,003962  	0,004314  	0,004350  	-0,000002  	-0,000000  	26,009260  	24,266528  	25,164701  	25,110273  	28,242078  	26,900648  	28,126510  	27,897364  	30,990024  	30,088665  	32,845194  	58,305817  	28,068195  	27,509283  	27,509946  	63,547013  	0,261308  	0,132407  	-4041,364734  	12439,361232  	-0,036430  	-0,050020  	0,303359  	0,153714  	-3,912918  	9589,678182  	77576,012580  	11,251449  	-0,047969  
103,566000  	22,766522  	30,129458  	26,220407  	357,439972  	70,378543  	64,307949  	0,007551  	0,008596  	0,003958  	0,004292  	0,004395  	-0,000001  	-0,000000  	26,011991  	24,274830  	25,169239  	25,109830  	28,252315  	26,907429  	28,126494  	27,900142  	31,009052  	30,107011  	32,842802  	58,314935  	28,075683  	27,526090  	27,508205  	63,568585  	0,243165  	0,123213  	-3793,164238  	12438,200992  	-0,036427  	-0,050015  	0,338806  	0,171675  	-4,363312  	9886,956955  	77426,564540  	11,229774  	-0,047964  
104,563000  	22,757617  	30,154077  	26,221513  	956,927186  	70,375241  	64,311494  	0,007558  	0,008448  	0,003965  	0,004288  	0,004318  	0,000000  	-0,000000  	26,022992  	24,266572  	25,164671  	25,113011  	28,247760  	26,898749  	28,132616  	27,894261  	30,998343  	30,094751  	32,840829  	58,305451  	28,067297  	27,517700  	27,506884  	63,556539  	0,239578  	0,121396  	-3754,233493  	22438,742131  	-0,022143  	-0,049999  	0,278502  	0,141119  	-3,582647  	9568,391128  	77592,676760  	11,253866  	-0,047950  
105,564000  	22,744750  	30,166509  	26,221175  	1256,670793  	70,377546  	64,304529  	0,007548  	0,008569  	0,003965  	0,004306  	0,004329  	0,000000  	-0,000000  	26,014746  	24,265698  	25,159504  	25,108305  	28,248127  	26,909619  	28,132665  	27,890948  	31,009719  	30,103611  	32,837553  	58,313468  	28,079416  	27,523842  	27,505433  	63,569247  	0,254210  	0,128810  	-3997,147642  	25494,394289  	-0,018514  	-0,049997  	0,286768  	0,145307  	-3,694613  	9828,299058  	77364,857645  	11,220824  	-0,047949  
106,574000  	22,700717  	30,161278  	26,222097  	1256,670793  	70,377795  	64,295450  	0,007550  	0,008658  	0,003961  	0,004325  	0,004371  	-0,000001  	-0,000000  	26,026177  	24,276483  	25,170974  	25,119776  	28,258239  	26,922588  	28,144957  	27,905038  	31,007474  	30,109959  	32,861397  	58,315944  	28,082613  	27,532563  	27,520119  	63,567629  	0,269635  	0,136626  	-4261,869829  	25501,319133  	-0,018519  	-0,050013  	0,320054  	0,162174  	-4,129788  	10019,688000  	77415,026713  	11,228100  	-0,047962  
107,565000  	22,626746  	30,153061  	26,222835  	357,439972  	70,377826  	64,297906  	0,007548  	0,008642  	0,003961  	0,004276  	0,004371  	-0,000001  	-0,000000  	26,014722  	24,273900  	25,171142  	25,128855  	28,251159  	26,915656  	28,140755  	27,906797  	31,003907  	30,106747  	32,849096  	58,314577  	28,075105  	27,509192  	27,522400  	63,566300  	0,229890  	0,116487  	-3665,695471  	12438,760146  	-0,036429  	-0,050018  	0,320073  	0,162183  	-4,128394  	9986,990547  	77364,335124  	11,220748  	-0,047967  
108,563000  	22,611884  	30,146168  	26,223511  	956,927186  	70,374774  	64,305119  	0,007559  	0,008431  	0,003963  	0,004272  	0,004295  	-0,000001  	-0,000000  	26,012627  	24,272984  	25,159914  	25,115154  	28,244801  	26,920231  	28,136659  	27,904431  	31,002759  	30,098326  	32,835769  	58,317730  	28,064239  	27,490441  	27,515984  	63,561180  	0,226917  	0,114981  	-3622,133682  	22442,850787  	-0,022147  	-0,050009  	0,259556  	0,131519  	-3,342183  	9530,873844  	77609,439795  	11,256298  	-0,047959  
109,566000  	22,635466  	30,134597  	26,223696  	1256,670793  	70,372998  	64,317090  	0,007555  	0,008418  	0,003962  	0,004281  	0,004336  	-0,000001  	-0,000000  	26,016611  	24,276642  	25,172327  	25,118020  	28,245948  	26,919845  	28,141242  	27,905633  	31,003600  	30,105117  	32,847413  	58,319908  	28,080848  	27,486652  	27,517055  	63,559399  	0,234457  	0,118801  	-3725,021386  	25499,129632  	-0,018517  	-0,050008  	0,292140  	0,148029  	-3,753226  	9502,992684  	77516,247486  	11,242781  	-0,047958  
110,564000  	22,661013  	30,113671  	26,224987  	1256,670793  	70,371939  	64,305088  	0,007551  	0,008397  	0,003962  	0,004368  	0,004372  	-0,000000  	-0,000000  	26,018402  	24,280762  	25,172839  	25,118274  	28,249696  	26,919167  	28,146709  	27,914277  	31,010458  	30,102652  	32,851198  	58,314816  	28,081117  	27,469579  	27,514821  	63,563284  	0,304424  	0,154254  	-4806,665862  	25497,586747  	-0,018516  	-0,050005  	0,321072  	0,162689  	-4,132377  	9457,692078  	77444,520900  	11,232378  	-0,047955  
111,567000  	22,682201  	30,091607  	26,225540  	1256,670793  	70,378200  	64,284660  	0,007549  	0,008685  	0,003960  	0,004248  	0,004330  	-0,000001  	-0,000000  	26,016697  	24,274567  	25,157789  	25,120594  	28,247604  	26,912020  	28,139939  	27,902239  	31,005536  	30,102216  	32,848318  	58,308280  	28,065934  	27,452555  	27,504664  	63,561522  	0,207457  	0,105120  	-3256,606168  	25502,510847  	-0,018520  	-0,050015  	0,287236  	0,145545  	-3,713147  	10079,213226  	77391,654494  	11,224710  	-0,047965  
112,566000  	22,695343  	30,076774  	26,225725  	57,696365  	70,385365  	64,264885  	0,007556  	0,008477  	0,003962  	0,004290  	0,004361  	-0,000000  	-0,000000  	26,019140  	24,270922  	25,166087  	25,117158  	28,249918  	26,912693  	28,144640  	27,900689  	31,005862  	30,103149  	32,850782  	58,302448  	28,059080  	27,446857  	27,508631  	63,558231  	0,241954  	0,122600  	-3783,781364  	1701,516483  	-0,053742  	-0,050004  	0,311998  	0,158091  	-4,051063  	9630,700861  	77539,817415  	11,246200  	-0,047955  
113,563000  	22,666694  	30,071143  	26,226893  	956,927186  	70,385022  	64,262522  	0,007557  	0,008432  	0,003964  	0,004275  	0,004323  	-0,000001  	-0,000000  	26,022079  	24,275102  	25,172511  	25,120852  	28,255560  	26,915878  	28,142458  	27,903701  	31,008205  	30,104539  	32,853781  	58,300144  	28,062341  	27,433321  	27,511904  	63,554641  	0,229834  	0,116459  	-3605,463458  	22441,821287  	-0,022146  	-0,050007  	0,281878  	0,142830  	-3,661185  	9534,067256  	77576,372695  	11,251502  	-0,047957  
114,564000  	22,646489  	30,074097  	26,227323  	-242,047242  	70,381970  	64,274835  	0,007554  	0,008408  	0,003962  	0,004366  	0,004331  	-0,000001  	-0,000000  	26,021049  	24,273996  	25,171622  	25,123431  	28,252538  	26,915586  	28,145772  	27,908481  	31,012898  	30,104388  	32,852506  	58,306441  	28,063857  	27,417827  	27,507603  	63,557409  	0,302899  	0,153481  	-4766,503977  	-27104,300195  	-0,102492  	-0,050008  	0,288575  	0,146223  	-3,738775  	9480,817785  	77509,108720  	11,241746  	-0,047958  
115,564000  	22,656622  	30,082406  	26,228522  	657,183579  	70,379696  	64,286370  	0,007553  	0,008439  	0,003962  	0,004306  	0,004347  	-0,000003  	-0,000000  	26,021529  	24,278217  	25,170680  	25,123402  	28,258443  	26,922614  	28,149646  	27,904947  	31,016200  	30,107665  	32,854787  	58,312182  	28,064161  	27,401754  	27,510558  	63,556172  	0,254184  	0,128797  	-3998,929324  	18412,192928  	-0,027557  	-0,050034  	0,300772  	0,152403  	-3,887991  	9547,276690  	77471,600193  	11,236306  	-0,047980  
116,570000  	22,678547  	30,082529  	26,229014  	1256,670793  	70,373777  	64,274120  	0,007566  	0,008545  	0,003962  	0,004262  	0,004372  	0,000001  	-0,000000  	26,025727  	24,282495  	25,172392  	25,126535  	28,259726  	26,919735  	28,147875  	27,908550  	31,016581  	30,112619  	32,853328  	58,314507  	28,062181  	27,391966  	27,514467  	63,557201  	0,218555  	0,110743  	-3428,294554  	25491,453934  	-0,018512  	-0,049991  	0,320639  	0,162470  	-4,149111  	9776,142591  	77752,292774  	11,277017  	-0,047944  
117,569000  	22,696817  	30,070250  	26,230089  	1256,670793  	70,371004  	64,265321  	0,007550  	0,008419  	0,003962  	0,004254  	0,004323  	-0,000001  	-0,000000  	26,024440  	24,276950  	25,172411  	25,123952  	28,250244  	26,924242  	28,144971  	27,903214  	31,008068  	30,110857  	32,848621  	58,309107  	28,057010  	27,380726  	27,512516  	63,554152  	0,212248  	0,107547  	-3315,621688  	25498,231843  	-0,018517  	-0,050006  	0,282246  	0,143016  	-3,655898  	9504,643156  	77410,726507  	11,227477  	-0,047957  
118,564000  	22,685456  	30,063726  	26,231257  	657,183579  	70,369011  	64,257858  	0,007552  	0,008443  	0,003963  	0,004328  	0,004362  	-0,000000  	-0,000000  	26,019021  	24,273073  	25,168555  	25,122975  	28,245958  	26,927668  	28,142433  	27,896056  	31,004675  	30,107350  	32,848367  	58,305839  	28,053002  	27,366773  	27,510383  	63,546910  	0,272181  	0,137916  	-4254,668248  	18402,846406  	-0,027543  	-0,050006  	0,313045  	0,158622  	-4,058467  	9556,289554  	77453,191923  	11,233636  	-0,047956  
119,565000  	22,689140  	30,065204  	26,232548  	657,183579  	70,363871  	64,254034  	0,007550  	0,008550  	0,003962  	0,004335  	0,004350  	-0,000002  	-0,000000  	26,019071  	24,269514  	25,164844  	25,122547  	28,246626  	26,916916  	28,136789  	27,902217  	31,005249  	30,099936  	32,849696  	58,309299  	28,055165  	27,356638  	27,504576  	63,550023  	0,278384  	0,141059  	-4350,321207  	18408,711159  	-0,027552  	-0,050024  	0,303329  	0,153699  	-3,931648  	9788,673585  	77410,733568  	11,227478  	-0,047972  
120,566000  	22,703450  	30,070004  	26,233962  	57,696365  	70,364369  	64,246385  	0,007562  	0,008599  	0,003961  	0,004257  	0,004355  	-0,000001  	-0,000000  	26,022899  	24,269525  	25,167749  	25,118810  	28,248713  	26,912654  	28,135236  	27,905336  	31,001680  	30,099743  	32,851601  	58,312066  	28,067032  	27,356159  	27,502385  	63,558522  	0,215061  	0,108973  	-3356,441601  	1701,308997  	-0,053749  	-0,050013  	0,307126  	0,155623  	-3,986179  	9892,599545  	77673,702806  	11,265618  	-0,047962  
121,570000  	22,721536  	30,073204  	26,235407  	-242,047242  	70,371222  	64,252324  	0,007553  	0,008426  	0,003962  	0,004256  	0,004442  	0,000001  	-0,000000  	26,021459  	24,274703  	25,172720  	25,121762  	28,249891  	26,914586  	28,139512  	27,904250  	31,006707  	30,109843  	32,855153  	58,311778  	28,073858  	27,363210  	27,509325  	63,559095  	0,214297  	0,108586  	-3337,741637  	-27096,645778  	-0,102460  	-0,049992  	0,376413  	0,190731  	-4,886186  	9520,736848  	77473,188939  	11,236536  	-0,047944  
122,573000  	22,747023  	30,073635  	26,236698  	357,439972  	70,376269  	64,267684  	0,007550  	0,008975  	0,003963  	0,004238  	0,004337  	-0,000000  	-0,000000  	26,018819  	24,266666  	25,172840  	25,122029  	28,245888  	26,917179  	28,140483  	27,902528  	31,012917  	30,105480  	32,853047  	58,308993  	28,070711  	27,365438  	27,510227  	63,559113  	0,199056  	0,100863  	-3089,796062  	12435,035082  	-0,036420  	-0,050004  	0,293424  	0,148680  	-3,802500  	10703,229536  	77413,226134  	11,227839  	-0,047955  
123,562000  	22,751537  	30,078067  	26,237620  	1256,670793  	70,377266  	64,264636  	0,007555  	0,008395  	0,003964  	0,004249  	0,004362  	0,000001  	-0,000000  	26,022657  	24,266975  	25,174504  	25,121682  	28,246747  	26,917349  	28,145307  	27,897830  	31,011177  	30,105172  	32,846086  	58,312604  	28,077105  	27,369921  	27,510383  	63,561901  	0,208295  	0,105544  	-3233,159460  	25487,176267  	-0,018509  	-0,049983  	0,312670  	0,158432  	-4,054591  	9454,212150  	77524,607820  	11,243994  	-0,047937  
124,565000  	22,730779  	30,086991  	26,239034  	1256,670793  	70,379696  	64,292869  	0,007553  	0,008499  	0,003962  	0,004294  	0,004367  	-0,000001  	-0,000000  	26,016502  	24,266958  	25,166783  	25,118610  	28,241808  	26,914625  	28,139606  	27,890570  	31,000912  	30,094622  	32,843493  	58,310545  	28,065005  	27,366099  	27,503137  	63,550808  	0,244787  	0,124035  	-3814,987598  	25497,953460  	-0,018517  	-0,050006  	0,317192  	0,160724  	-4,095879  	9678,590013  	77475,653260  	11,236893  	-0,047957  
125,565000  	22,717513  	30,104070  	26,240018  	1256,670793  	70,386175  	64,314883  	0,007551  	0,008456  	0,003963  	0,004290  	0,004374  	0,000000  	-0,000000  	26,017449  	24,266744  	25,163780  	25,112950  	28,244986  	26,907623  	28,133753  	27,893694  	31,005439  	30,099603  	32,844229  	58,312246  	28,069240  	27,366424  	27,511084  	63,558971  	0,241774  	0,122509  	-3783,588296  	25494,129761  	-0,018514  	-0,049998  	0,322797  	0,163564  	-4,157629  	9584,252070  	77426,317401  	11,229738  	-0,047950  
126,564000  	22,749387  	30,120626  	26,240755  	1256,670793  	70,391284  	64,316064  	0,007551  	0,008411  	0,003965  	0,004282  	0,004294  	-0,000001  	-0,000000  	26,023466  	24,275134  	25,160888  	25,108619  	28,245450  	26,908330  	28,136262  	27,900231  	31,001205  	30,094594  	32,845693  	58,306027  	28,064418  	27,375334  	27,515132  	63,562484  	0,234918  	0,119035  	-3668,664097  	25497,966811  	-0,018517  	-0,050007  	0,259282  	0,131380  	-3,341716  	9487,191167  	77445,417659  	11,232508  	-0,047957  
127,564000  	22,766153  	30,126719  	26,242415  	1256,670793  	70,395770  	64,303005  	0,007555  	0,008663  	0,003961  	0,004338  	0,004293  	-0,000000  	-0,000000  	26,012515  	24,268126  	25,159614  	25,110389  	28,238799  	26,902804  	28,136566  	27,893357  	31,001892  	30,088092  	32,835328  	58,310091  	28,074623  	27,372262  	27,518053  	63,566513  	0,280499  	0,142131  	-4374,145150  	25495,220883  	-0,018515  	-0,050001  	0,258199  	0,130831  	-3,337358  	10030,347091  	77520,124026  	11,243343  	-0,047952  
128,563000  	22,741772  	30,122965  	26,243399  	1256,670793  	70,396829  	64,282422  	0,007560  	0,008421  	0,003961  	0,004322  	0,004333  	-0,000001  	-0,000001  	25,989822  	24,247945  	25,145371  	25,088692  	28,226842  	26,897058  	28,118205  	27,879335  	30,977690  	30,081793  	32,827797  	58,299971  	28,056681  	27,337994  	27,488300  	63,548039  	0,267689  	0,135640  	-4186,082088  	25497,746807  	-0,018516  	-0,050006  	0,290316  	0,147105  	-3,765816  	9509,095822  	77639,407075  	11,260644  	-0,047957  
129,567000  	22,692764  	30,124319  	26,244813  	1256,670793  	70,395832  	64,283199  	0,007554  	0,008439  	0,003962  	0,004280  	0,004425  	0,000001  	-0,000000  	26,001233  	24,265310  	25,152068  	25,096265  	28,240354  	26,907059  	28,127743  	27,888085  	30,996332  	30,083418  	32,836606  	58,302090  	28,065015  	27,349270  	27,502741  	63,551319  	0,233819  	0,118478  	-3681,388344  	25490,709199  	-0,018511  	-0,049991  	0,362489  	0,183676  	-4,700637  	9548,392333  	77500,550675  	11,240505  	-0,047944  
130,566000  	22,701853  	30,127088  	26,245428  	657,183579  	70,395334  	64,296755  	0,007550  	0,008493  	0,003962  	0,004295  	0,004401  	0,000000  	-0,000000  	26,006398  	24,270262  	25,156883  	25,106837  	28,236545  	26,904042  	28,134223  	27,891783  	30,994956  	30,078735  	32,841446  	58,304035  	28,072747  	27,346182  	27,504513  	63,551539  	0,245780  	0,124539  	-3866,422190  	18399,338576  	-0,027538  	-0,049997  	0,343810  	0,174211  	-4,448164  	9664,653324  	77406,447485  	11,226856  	-0,047949  
131,569000  	22,725436  	30,126534  	26,245889  	657,183579  	70,391689  	64,285469  	0,007550  	0,008425  	0,003963  	0,004223  	0,004368  	-0,000000  	-0,000000  	26,010082  	24,266105  	25,159367  	25,105862  	28,245001  	26,918775  	28,140660  	27,900242  	31,002013  	30,099112  	32,846289  	58,315076  	28,087271  	27,341614  	27,509841  	63,552246  	0,187550  	0,095033  	-2940,802740  	18402,353475  	-0,027543  	-0,050006  	0,317646  	0,160954  	-4,114804  	9518,808350  	77417,159163  	11,228410  	-0,047957  
132,562000  	22,760565  	30,119210  	26,245704  	1256,670793  	70,384898  	64,275892  	0,007555  	0,008461  	0,003965  	0,004350  	0,004355  	0,000000  	-0,000000  	26,014216  	24,270689  	25,171139  	25,109664  	28,239520  	26,916274  	28,132863  	27,901605  	31,003592  	30,100032  	32,846420  	58,315636  	28,082104  	27,343734  	27,510194  	63,557539  	0,289971  	0,146930  	-4520,670103  	25493,669376  	-0,018513  	-0,049997  	0,307724  	0,155926  	-3,988093  	9595,073166  	77520,660669  	11,243421  	-0,047949  
133,564000  	22,795909  	30,107239  	26,248040  	1256,670793  	70,381845  	64,268554  	0,007562  	0,008673  	0,003964  	0,004236  	0,004323  	-0,000000  	-0,000000  	26,014986  	24,270841  	25,176424  	25,113768  	28,248726  	26,918038  	28,136732  	27,898825  	31,007371  	30,105898  	32,849176  	58,317531  	28,082748  	27,342564  	27,512973  	63,566227  	0,197516  	0,100083  	-3059,488974  	25496,461425  	-0,018516  	-0,050004  	0,281769  	0,142775  	-3,654273  	10052,442756  	77667,820915  	11,264765  	-0,047955  
134,563000  	22,783012  	30,104962  	26,248348  	1256,670793  	70,378481  	64,276327  	0,007549  	0,008344  	0,003962  	0,004257  	0,004429  	0,000000  	-0,000000  	26,017891  	24,273086  	25,169007  	25,120890  	28,258937  	26,913149  	28,143789  	27,904733  	31,002326  	30,096992  	32,855499  	58,320302  	28,087314  	27,340671  	27,511025  	63,558913  	0,215017  	0,108950  	-3335,404302  	25493,350438  	-0,018513  	-0,049997  	0,366108  	0,185510  	-4,739419  	9343,636196  	77383,096449  	11,223469  	-0,047949  
135,562000  	22,744873  	30,114656  	26,249639  	1256,670793  	70,374088  	64,301699  	0,007549  	0,008420  	0,003962  	0,004255  	0,004312  	-0,000001  	-0,000000  	26,007127  	24,272497  	25,163894  	25,115250  	28,256763  	26,905571  	28,137048  	27,893808  	31,001809  	30,098816  	32,848746  	58,312464  	28,089004  	27,341699  	27,511417  	63,553593  	0,212939  	0,107898  	-3324,767112  	25499,553652  	-0,018518  	-0,050011  	0,273493  	0,138581  	-3,523220  	9506,675649  	77395,192102  	11,225224  	-0,047961  
136,565000  	22,702375  	30,131273  	26,250069  	57,696365  	70,372531  	64,290754  	0,007555  	0,008573  	0,003962  	0,004356  	0,004373  	0,000001  	-0,000000  	26,021176  	24,269877  	25,174867  	25,122423  	28,250154  	26,922076  	28,147868  	27,898680  	31,010043  	30,108343  	32,851279  	58,317141  	28,096516  	27,363614  	27,516282  	63,567980  	0,295286  	0,149623  	-4647,493433  	1699,816397  	-0,053730  	-0,049994  	0,321337  	0,162824  	-4,145952  	9837,233395  	77531,012232  	11,244923  	-0,047946  
137,562000  	22,664852  	30,145798  	26,251114  	1256,670793  	70,375054  	64,273871  	0,007555  	0,008379  	0,003964  	0,004293  	0,004393  	-0,000000  	-0,000000  	26,022348  	24,274633  	25,172309  	25,114478  	28,252276  	26,920337  	28,147023  	27,899349  	31,003839  	30,107376  	32,853173  	58,320096  	28,099945  	27,376584  	27,518895  	63,568230  	0,244138  	0,123707  	-3869,414738  	25495,596462  	-0,018515  	-0,050002  	0,337514  	0,171021  	-4,368561  	9419,202056  	77518,987190  	11,243179  	-0,047953  
138,565000  	22,652446  	30,141675  	26,252528  	1256,670793  	70,379976  	64,266906  	0,007551  	0,008625  	0,003963  	0,004267  	0,004379  	0,000002  	-0,000000  	26,018060  	24,272276  	25,169217  	25,114596  	28,253056  	26,909366  	28,140425  	27,895658  	31,004837  	30,099891  	32,844410  	58,312307  	28,098318  	27,389261  	27,510916  	63,560027  	0,223095  	0,113044  	-3539,815136  	25485,836899  	-0,018508  	-0,049981  	0,326465  	0,165422  	-4,233786  	9948,681631  	77446,349723  	11,232643  	-0,047935  
139,563000  	22,673173  	30,124780  	26,253081  	1256,670793  	70,384960  	64,279250  	0,007552  	0,008493  	0,003962  	0,004285  	0,004331  	-0,000001  	-0,000000  	26,011737  	24,263017  	25,161355  	25,111678  	28,243883  	26,908216  	28,135219  	27,893143  	30,999880  	30,090853  	32,833040  	58,306903  	28,091948  	27,392885  	27,499747  	63,555988  	0,237688  	0,120438  	-3752,412244  	25498,189460  	-0,018517  	-0,050008  	0,288759  	0,146316  	-3,740287  	9663,948708  	77456,214070  	11,234074  	-0,047958  
140,562000  	22,710082  	30,106686  	26,254987  	1256,670793  	70,386642  	64,264450  	0,007556  	0,008372  	0,003962  	0,004309  	0,004356  	0,000001  	-0,000000  	26,021933  	24,271531  	25,173156  	25,119495  	28,248072  	26,918330  	28,138771  	27,896597  	31,007214  	30,102086  	32,845231  	58,314550  	28,095288  	27,408820  	27,509495  	63,567636  	0,256609  	0,130026  	-4021,199509  	25490,757028  	-0,018512  	-0,049992  	0,308087  	0,156110  	-4,001409  	9402,909571  	77545,600451  	11,247038  	-0,047944  
141,565000  	22,751782  	30,088099  	26,255448  	1256,670793  	70,380568  	64,263362  	0,007555  	0,008769  	0,003963  	0,004294  	0,004329  	0,000001  	-0,000000  	26,025683  	24,275592  	25,172572  	25,123865  	28,256650  	26,920916  	28,142017  	27,901314  	31,006798  	30,105416  	32,849509  	58,316752  	28,096853  	27,415550  	27,513215  	63,571582  	0,244812  	0,124048  	-3805,052278  	25491,393671  	-0,018512  	-0,049993  	0,286936  	0,145392  	-3,723659  	10260,881150  	77522,906097  	11,243747  	-0,047946  
142,562000  	22,776839  	30,082929  	26,255510  	1256,670793  	70,375833  	64,271010  	0,007548  	0,008343  	0,003963  	0,004282  	0,004403  	-0,000001  	-0,000000  	26,020300  	24,274575  	25,169629  	25,120331  	28,256567  	26,921505  	28,140287  	27,904433  	31,009522  	30,107739  	32,853152  	58,315296  	28,094589  	27,423226  	27,517043  	63,572083  	0,234970  	0,119061  	-3637,038601  	25502,897710  	-0,018520  	-0,050018  	0,345136  	0,174883  	-4,469881  	9341,395714  	77369,602700  	11,221512  	-0,047967  
143,564000  	22,784762  	30,088468  	26,256524  	357,439972  	70,372624  	64,294610  	0,007551  	0,008552  	0,003962  	0,004298  	0,004367  	0,000000  	-0,000000  	26,014038  	24,270491  	25,168688  	25,113882  	28,250358  	26,916630  	28,136981  	27,904451  	31,007457  	30,104800  	32,848623  	58,307546  	28,090444  	27,418922  	27,514341  	63,568474  	0,248005  	0,125666  	-3837,544571  	12431,733414  	-0,036412  	-0,049994  	0,316727  	0,160488  	-4,083958  	9791,758757  	77440,397221  	11,231780  	-0,047946  
144,565000  	22,776532  	30,102254  	26,257508  	-242,047242  	70,372250  	64,296849  	0,007558  	0,008467  	0,003963  	0,004259  	0,004354  	0,000001  	-0,000000  	26,016072  	24,270092  	25,166702  	25,112117  	28,251468  	26,911921  	28,135590  	27,906113  	31,003501  	30,096763  	32,843395  	58,302740  	28,093251  	27,414440  	27,514388  	63,567444  	0,216317  	0,109609  	-3357,299494  	-27094,837049  	-0,102445  	-0,049987  	0,306800  	0,155458  	-3,954247  	9609,529828  	77585,926355  	11,252887  	-0,047940  
145,562000  	22,768948  	30,124657  	26,258860  	57,696365  	70,374556  	64,273436  	0,007551  	0,008672  	0,003963  	0,004320  	0,004344  	-0,000000  	-0,000000  	26,023000  	24,276671  	25,170282  	25,119213  	28,253438  	26,913805  	28,141013  	27,904982  	31,008869  	30,100207  	32,846874  	58,312083  	28,105173  	27,418223  	27,518336  	63,570411  	0,266254  	0,134913  	-4149,256361  	1699,692484  	-0,053741  	-0,050006  	0,298846  	0,151428  	-3,868032  	10051,308012  	77443,722996  	11,232262  	-0,047957  
146,564000  	22,737749  	30,138197  	26,258245  	657,183579  	70,380163  	64,274058  	0,007553  	0,008272  	0,003964  	0,004323  	0,004331  	0,000000  	-0,000000  	26,020624  	24,275786  	25,170214  	25,118278  	28,249562  	26,909368  	28,141567  	27,898916  	31,008857  	30,103391  	32,844667  	58,313800  	28,102294  	27,407738  	27,512215  	63,562673  	0,268293  	0,135946  	-4206,471664  	18399,553290  	-0,027539  	-0,049999  	0,288585  	0,146228  	-3,738269  	9188,590885  	77480,998508  	11,237669  	-0,047951  
147,566000  	22,705968  	30,141521  	26,259444  	657,183579  	70,389228  	64,280680  	0,007555  	0,008380  	0,003961  	0,004252  	0,004394  	-0,000000  	-0,000000  	26,018654  	24,271542  	25,167421  	25,111112  	28,251799  	26,906627  	28,136207  	27,901375  	31,006189  	30,099894  	32,844483  	58,307689  	28,093029  	27,398163  	27,510925  	63,555069  	0,210700  	0,106763  	-3319,165816  	18401,353764  	-0,027542  	-0,050005  	0,337938  	0,171236  	-4,379335  	9421,231011  	77521,875177  	11,243597  	-0,047955  
148,568000  	22,683798  	30,140536  	26,259137  	57,696365  	70,396331  	64,274400  	0,007551  	0,008538  	0,003963  	0,004238  	0,004347  	-0,000001  	-0,000000  	26,027828  	24,274970  	25,172693  	25,118008  	28,258675  	26,918445  	28,141168  	27,906781  	31,010111  	30,103967  	32,850591  	58,314975  	28,104242  	27,402094  	27,513162  	63,559542  	0,199528  	0,101102  	-3152,136573  	1699,800025  	-0,053745  	-0,050010  	0,301305  	0,152674  	-3,913163  	9761,124217  	77442,776810  	11,232125  	-0,047960  
149,563000  	22,681157  	30,135920  	26,260858  	1256,670793  	70,395832  	64,262087  	0,007552  	0,008574  	0,003962  	0,004343  	0,004339  	0,000001  	-0,000000  	26,033341  	24,276365  	25,178981  	25,122174  	28,268247  	26,925077  	28,137921  	27,904642  	31,013346  	30,109142  	32,855301  	58,316218  	28,108284  	27,405797  	27,515971  	63,562333  	0,284579  	0,144198  	-4494,583994  	25486,327189  	-0,018508  	-0,049982  	0,294489  	0,149220  	-3,832014  	9839,823356  	77457,329723  	11,234236  	-0,047936  
150,568000  	22,714688  	30,120964  	26,260674  	1256,670793  	70,394960  	64,261527  	0,007552  	0,008352  	0,003962  	0,004276  	0,004354  	-0,000002  	-0,000000  	26,030445  	24,277452  	25,182515  	25,124214  	28,266252  	26,921299  	28,140440  	27,907339  	31,014879  	30,111172  	32,853404  	58,315219  	28,111953  	27,403338  	27,514286  	63,553913  	0,230284  	0,116687  	-3613,395071  	25506,544652  	-0,018523  	-0,050027  	0,306724  	0,155419  	-3,991020  	9360,710409  	77449,979125  	11,233170  	-0,047974  
151,569000  	22,737903  	30,103793  	26,261319  	357,439972  	70,392935  	64,265289  	0,007556  	0,008419  	0,003962  	0,004298  	0,004415  	0,000001  	-0,000000  	26,027289  	24,282739  	25,179638  	25,116171  	28,250864  	26,917594  	28,144448  	27,910294  	31,012173  	30,109465  	32,858244  	58,311845  	28,108342  	27,415125  	27,507774  	63,545749  	0,247882  	0,125603  	-3868,306079  	12430,268997  	-0,036408  	-0,049988  	0,354821  	0,179791  	-4,612492  	9504,931086  	77542,592425  	11,246602  	-0,047941  
152,566000  	22,785683  	30,095115  	26,261073  	956,927186  	70,389758  	64,270700  	0,007559  	0,008625  	0,003963  	0,004262  	0,004282  	-0,000001  	-0,000000  	26,018316  	24,275007  	25,172655  	25,120110  	28,250341  	26,913122  	28,142447  	27,907230  	31,005303  	30,101744  	32,856216  	58,313162  	28,106011  	27,413565  	27,510411  	63,549143  	0,218744  	0,110839  	-3387,427661  	22441,330906  	-0,022146  	-0,050009  	0,249449  	0,126397  	-3,238160  	9949,832645  	77604,059242  	11,255517  	-0,047959  
153,566000  	22,824774  	30,097823  	26,260643  	956,927186  	70,387733  	64,268212  	0,007554  	0,008622  	0,003961  	0,004326  	0,004344  	0,000001  	-0,000000  	26,023765  	24,276311  	25,171921  	25,119681  	28,255652  	26,917655  	28,149017  	27,903020  	31,012251  	30,104291  	32,858698  	58,303441  	28,106682  	27,414928  	27,506941  	63,544633  	0,270486  	0,137057  	-4167,822563  	22433,665153  	-0,022138  	-0,049990  	0,298752  	0,151380  	-3,878468  	9942,973955  	77505,444013  	11,241214  	-0,047943  
154,566000  	22,789644  	30,105947  	26,261627  	-242,047242  	70,390162  	64,285686  	0,007547  	0,008602  	0,003960  	0,004315  	0,004325  	-0,000001  	-0,000000  	26,025716  	24,283306  	25,173824  	25,122968  	28,252932  	26,924154  	28,132676  	27,899692  	31,010823  	30,098252  	32,846341  	58,296402  	28,105437  	27,418855  	27,510813  	63,543258  	0,261549  	0,132529  	-4054,102517  	-27108,341851  	-0,102494  	-0,050015  	0,283407  	0,143605  	-3,670224  	9899,976794  	77355,995973  	11,219539  	-0,047964  
155,565000  	22,738793  	30,120533  	26,261442  	657,183579  	70,388200  	64,309131  	0,007543  	0,008636  	0,003960  	0,004294  	0,004390  	-0,000001  	-0,000000  	26,019812  	24,260940  	25,160420  	25,116214  	28,247339  	26,916505  	28,130390  	27,891245  	30,994465  	30,107130  	32,850602  	58,302569  	28,098835  	27,431295  	27,504437  	63,541683  	0,245069  	0,124178  	-3832,637201  	18403,454465  	-0,027545  	-0,050011  	0,334915  	0,169704  	-4,319226  	9973,495304  	77253,631303  	11,204692  	-0,047961  
156,565000  	22,721475  	30,144783  	26,260213  	1256,670793  	70,389384  	64,312800  	0,007558  	0,008571  	0,003962  	0,004294  	0,004316  	0,000001  	-0,000000  	26,029556  	24,278455  	25,165593  	25,123159  	28,261327  	26,914747  	28,135257  	27,892651  	31,007976  	30,103244  	32,846320  	58,306346  	28,102482  	27,470292  	27,498366  	63,543086  	0,244624  	0,123953  	-3847,229570  	25488,017123  	-0,018510  	-0,049986  	0,276163  	0,139934  	-3,560079  	9833,166995  	77586,413570  	11,252958  	-0,047939  
157,563000  	22,709775  	30,163524  	26,260797  	1256,670793  	70,392281  	64,306612  	0,007557  	0,008327  	0,003962  	0,004313  	0,004325  	-0,000001  	-0,000000  	26,032450  	24,285047  	25,183009  	25,120280  	28,261217  	26,932144  	28,145735  	27,910942  	31,019792  	30,120809  	32,860282  	58,313080  	28,129615  	27,492609  	27,514930  	63,563255  	0,260522  	0,132008  	-4114,066588  	25498,036759  	-0,018517  	-0,050008  	0,283326  	0,143564  	-3,657883  	9305,770141  	77565,696322  	11,249953  	-0,047958  
158,563000  	22,734157  	30,155584  	26,259998  	1256,670793  	70,392468  	64,310530  	0,007548  	0,008447  	0,003962  	0,004300  	0,004336  	-0,000001  	-0,000000  	26,029970  	24,281233  	25,183333  	25,131674  	28,261539  	26,925687  	28,152091  	27,918773  	31,015270  	30,113418  	32,857505  	58,307984  	28,126384  	27,486504  	27,516336  	63,561828  	0,250059  	0,126707  	-3931,702281  	25501,697569  	-0,018520  	-0,050016  	0,292731  	0,148329  	-3,776980  	9564,679865  	77366,559369  	11,221071  	-0,047965  
159,568000  	22,741710  	30,142013  	26,259075  	1256,670793  	70,397795  	64,301482  	0,007549  	0,008429  	0,003962  	0,004297  	0,004388  	-0,000001  	-0,000000  	26,031384  	24,283443  	25,182387  	25,123127  	28,261866  	26,926934  	28,146888  	27,904387  	31,012440  	30,109411  	32,852864  	58,310152  	28,125302  	27,499062  	27,510153  	63,558576  	0,247063  	0,125189  	-3873,543908  	25499,393747  	-0,018518  	-0,050011  	0,333571  	0,169023  	-4,314089  	9527,417969  	77402,690983  	11,226311  	-0,047961  
160,564000  	22,759091  	30,132043  	26,259014  	1256,670793  	70,400661  	64,297626  	0,007562  	0,008465  	0,003967  	0,004314  	0,004331  	0,000000  	-0,000000  	26,034266  	24,285794  	25,182050  	25,129192  	28,261640  	26,931435  	28,148347  	27,907308  	31,012765  	30,114088  	32,860386  	58,315555  	28,129123  	27,500032  	27,507239  	63,560919  	0,261381  	0,132444  	-4082,874575  	25493,587674  	-0,018514  	-0,049998  	0,288759  	0,146317  	-3,738660  	9605,049572  	77673,709867  	11,265619  	-0,047950  
161,563000  	22,788692  	30,129273  	26,258829  	956,927186  	70,400006  	64,295170  	0,007548  	0,008412  	0,003963  	0,004246  	0,004352  	-0,000001  	-0,000000  	26,026598  	24,279001  	25,175273  	25,122802  	28,258745  	26,911230  	28,142903  	27,912942  	31,008640  	30,108059  	32,851650  	58,309464  	28,123466  	27,478162  	27,501496  	63,557127  	0,206109  	0,104437  	-3205,355730  	22440,833237  	-0,022145  	-0,050007  	0,304765  	0,154427  	-3,947053  	9489,636808  	77368,818919  	11,221398  	-0,047958  
162,565000  	22,798335  	30,128781  	26,258707  	-242,047242  	70,398387  	64,285717  	0,007548  	0,008555  	0,003964  	0,004330  	0,004335  	0,000000  	-0,000000  	26,029540  	24,287856  	25,184632  	25,132604  	28,266422  	26,921685  	28,148120  	27,910169  	31,016223  	30,121966  	32,862683  	58,312561  	28,135799  	27,473897  	27,507172  	63,564486  	0,274196  	0,138937  	-4258,350105  	-27100,531762  	-0,102466  	-0,049999  	0,291610  	0,147761  	-3,781518  	9798,751862  	77371,657478  	11,221810  	-0,047951  
163,566000  	22,791057  	30,130812  	26,258983  	657,183579  	70,394960  	64,271819  	0,007555  	0,008533  	0,003962  	0,004256  	0,004363  	0,000001  	-0,000000  	26,026088  	24,288285  	25,178550  	25,127186  	28,263255  	26,923346  	28,154398  	27,914849  	31,010669  	30,106243  	32,862228  	58,311072  	28,135305  	27,458454  	27,508473  	63,555423  	0,214378  	0,108627  	-3333,589564  	18397,658516  	-0,027536  	-0,049993  	0,313807  	0,159008  	-4,076329  	9751,947933  	77531,647730  	11,245015  	-0,047946  
164,563000  	22,773247  	30,137459  	26,258553  	1256,670793  	70,393465  	64,271881  	0,007556  	0,008693  	0,003964  	0,004290  	0,004324  	0,000001  	-0,000001  	26,034754  	24,290761  	25,179985  	25,130946  	28,265624  	26,928855  	28,151235  	27,912361  	31,025307  	30,115494  	32,863801  	58,314072  	28,138486  	27,456335  	27,508784  	63,555404  	0,241522  	0,122381  	-3768,191018  	25487,467817  	-0,018509  	-0,049985  	0,283167  	0,143483  	-3,677383  	10097,088267  	77552,866316  	11,248092  	-0,047938  
165,564000  	22,739039  	30,147737  	26,258399  	956,927186  	70,392779  	64,285407  	0,007553  	0,008602  	0,003963  	0,004257  	0,004381  	-0,000000  	-0,000000  	26,039643  	24,296239  	25,177756  	25,132693  	28,268498  	26,929219  	28,147099  	27,916395  	31,023733  	30,122798  	32,872598  	58,314589  	28,145308  	27,464708  	27,513594  	63,564178  	0,215193  	0,109040  	-3377,695667  	22438,584814  	-0,022143  	-0,050002  	0,328028  	0,166214  	-4,250094  	9900,658772  	77475,427305  	11,236861  	-0,047953  
166,566000  	22,757402  	30,152846  	26,259075  	357,439972  	70,389913  	64,309970  	0,007547  	0,008438  	0,003963  	0,004266  	0,004341  	-0,000000  	-0,000000  	26,038430  	24,299825  	25,181313  	25,128427  	28,270351  	26,932943  	28,156854  	27,920310  	31,019490  	30,118625  	32,871199  	58,315229  	28,146920  	27,473096  	27,509096  	63,570197  	0,221747  	0,112361  	-3474,337182  	12434,325825  	-0,036420  	-0,050006  	0,296196  	0,150085  	-3,820436  	9545,949521  	77356,454944  	11,219605  	-0,047957  
167,565000  	22,766061  	30,155061  	26,260274  	357,439972  	70,383558  	64,324895  	0,007555  	0,008634  	0,003963  	0,004347  	0,004311  	0,000001  	-0,000000  	26,040060  	24,289022  	25,186544  	25,127597  	28,267730  	26,935097  	28,159585  	27,917136  	31,024225  	30,117854  	32,866286  	58,319600  	28,146870  	27,483456  	27,510702  	63,560168  	0,288096  	0,145980  	-4509,961864  	12431,344422  	-0,036411  	-0,049993  	0,272728  	0,138193  	-3,505430  	9969,056079  	77513,790225  	11,242425  	-0,047945  
168,565000  	22,759613  	30,153030  	26,259905  	956,927186  	70,382188  	64,318863  	0,007554  	0,008419  	0,003963  	0,004219  	0,004347  	0,000000  	-0,000000  	26,033498  	24,286512  	25,183660  	25,127388  	28,264137  	26,928448  	28,156550  	27,917167  	31,023449  	30,116600  	32,866478  	58,318747  	28,139188  	27,484680  	27,505298  	63,551443  	0,183743  	0,093104  	-2878,101186  	22435,514431  	-0,022140  	-0,049994  	0,301424  	0,152734  	-3,877243  	9504,715315  	77509,828952  	11,241850  	-0,047946  
169,567000  	22,740636  	30,153215  	26,260182  	57,696365  	70,379851  	64,321848  	0,007558  	0,008497  	0,003964  	0,004277  	0,004393  	0,000001  	-0,000000  	26,032557  	24,289511  	25,187229  	25,127259  	28,264643  	26,927471  	28,161241  	27,914351  	31,018613  	30,115121  	32,865923  	58,314698  	28,134730  	27,477596  	27,500147  	63,550927  	0,230954  	0,117026  	-3626,978175  	1698,874295  	-0,053717  	-0,049982  	0,337813  	0,171172  	-4,341515  	9673,608177  	77589,075602  	11,253344  	-0,047936  
170,563000  	22,677626  	30,153523  	26,260489  	1256,670793  	70,377484  	64,328066  	0,007546  	0,008531  	0,003962  	0,004288  	0,004380  	-0,000001  	-0,000000  	26,033570  	24,288310  	25,187257  	25,131936  	28,265222  	26,927820  	28,159602  	27,910073  	31,015448  	30,114598  	32,861971  	58,314702  	28,131974  	27,468984  	27,501146  	63,545336  	0,239991  	0,121605  	-3801,117409  	25500,195559  	-0,018518  	-0,050013  	0,327441  	0,165917  	-4,202257  	9745,794567  	77321,636693  	11,214555  	-0,047962  
171,564000  	22,657267  	30,157031  	26,261227  	1256,670793  	70,378045  	64,308882  	0,007552  	0,008420  	0,003964  	0,004245  	0,004321  	0,000000  	-0,000000  	26,029679  	24,290561  	25,184795  	25,135571  	28,264901  	26,928924  	28,153998  	27,913680  	31,015605  	30,112642  	32,864921  	58,314038  	28,126796  	27,461197  	27,503963  	63,545839  	0,205192  	0,103972  	-3260,325940  	25492,494821  	-0,018513  	-0,049996  	0,280155  	0,141956  	-3,607127  	9507,035739  	77454,265209  	11,233791  	-0,047948  
172,564000  	22,677349  	30,153523  	26,260920  	57,696365  	70,376051  	64,286246  	0,007553  	0,008388  	0,003962  	0,004310  	0,004344  	0,000001  	-0,000000  	26,030231  	24,294918  	25,185432  	25,131283  	28,267082  	26,932460  	28,149270  	27,914831  	31,015780  	30,111514  	32,866089  	58,307367  	28,128779  	27,452743  	27,503186  	63,548991  	0,257691  	0,130574  	-4081,602759  	1699,116768  	-0,053726  	-0,049991  	0,299002  	0,151507  	-3,862878  	9437,335315  	77480,617209  	11,237613  	-0,047944  
173,566000  	22,690246  	30,130873  	26,262303  	-242,047242  	70,378512  	64,268026  	0,007552  	0,008409  	0,003962  	0,004221  	0,004370  	0,000000  	-0,000000  	26,034191  	24,295034  	25,183922  	25,133177  	28,272089  	26,932133  	28,146294  	27,914402  	31,016673  	30,117834  	32,866346  	58,306811  	28,133508  	27,444220  	27,502340  	63,547387  	0,185529  	0,094009  	-2924,649175  	-27100,085954  	-0,102463  	-0,049998  	0,319674  	0,161981  	-4,143958  	9484,578568  	77467,201132  	11,235668  	-0,047950  
174,565000  	22,700195  	30,106193  	26,263225  	357,439972  	70,381191  	64,256459  	0,007548  	0,008533  	0,003963  	0,004251  	0,004320  	0,000000  	-0,000000  	26,043370  	24,292337  	25,191916  	25,141540  	28,276896  	26,937473  	28,159724  	27,923480  	31,026311  	30,128656  	32,877687  	58,315637  	28,134229  	27,438313  	27,512854  	63,558347  	0,209593  	0,106202  	-3288,615962  	12432,400989  	-0,036415  	-0,049998  	0,279597  	0,141674  	-3,632881  	9751,788758  	77372,243549  	11,221895  	-0,047950  
175,565000  	22,711894  	30,092438  	26,263686  	357,439972  	70,382935  	64,252479  	0,007546  	0,008509  	0,003961  	0,004294  	0,004342  	-0,000001  	-0,000000  	26,048390  	24,297467  	25,188467  	25,138653  	28,276684  	26,939800  	28,163676  	27,931006  	31,031798  	30,130052  	32,869257  	58,316585  	28,135623  	27,428726  	27,509021  	63,557365  	0,244497  	0,123888  	-3823,078670  	12434,628627  	-0,036421  	-0,050009  	0,297150  	0,150568  	-3,864561  	9698,307244  	77338,929311  	11,217063  	-0,047959  
176,564000  	22,743399  	30,087637  	26,265530  	-242,047242  	70,381752  	64,256273  	0,007557  	0,008550  	0,003961  	0,004261  	0,004285  	0,000001  	-0,000000  	26,049284  	24,304234  	25,193008  	25,148951  	28,276245  	26,945943  	28,167935  	27,937744  	31,033727  	30,132974  	32,870411  	58,322407  	28,138548  	27,425523  	27,512224  	63,561400  	0,217762  	0,110342  	-3388,280655  	-27094,321721  	-0,102440  	-0,049986  	0,251722  	0,127550  	-3,271098  	9787,400182  	77563,818071  	11,249681  	-0,047939  
177,567000  	22,747146  	30,089545  	26,266022  	-242,047242  	70,379571  	64,267062  	0,007557  	0,008518  	0,003962  	0,004291  	0,004341  	0,000000  	-0,000000  	26,040082  	24,293338  	25,185833  	25,134589  	28,269781  	26,935395  	28,166139  	27,923788  	31,028151  	30,121692  	32,865928  	58,315789  	28,118682  	27,409823  	27,511814  	63,560758  	0,242031  	0,122639  	-3764,950519  	-27099,283462  	-0,102458  	-0,049996  	0,296509  	0,150243  	-3,844938  	9717,865300  	77558,564618  	11,248919  	-0,047948  
178,572000  	22,731178  	30,094407  	26,267006  	357,439972  	70,380256  	64,267808  	0,007549  	0,008568  	0,003962  	0,004353  	0,004327  	-0,000001  	-0,000000  	26,039115  	24,291334  	25,186660  	25,137815  	28,272115  	26,936712  	28,159028  	27,924871  	31,027800  	30,116786  	32,867101  	58,310076  	28,117027  	27,398519  	27,511668  	63,557209  	0,292989  	0,148459  	-4570,568404  	12434,546009  	-0,036421  	-0,050009  	0,285155  	0,144490  	-3,697671  	9827,380085  	77385,024128  	11,223749  	-0,047959  
179,566000  	22,742877  	30,105485  	26,268850  	1256,670793  	70,383309  	64,274120  	0,007554  	0,008464  	0,003960  	0,004263  	0,004348  	-0,000001  	-0,000000  	26,036538  	24,289695  	25,181976  	25,128841  	28,261842  	26,927590  	28,161369  	27,914346  	31,022260  	30,117356  	32,867550  	58,311056  	28,115271  	27,387262  	27,511181  	63,551758  	0,219569  	0,111257  	-3424,940550  	25498,351042  	-0,018517  	-0,050009  	0,301742  	0,152895  	-3,910675  	9601,904974  	77494,534624  	11,239632  	-0,047959  
180,565000  	22,762346  	30,113794  	26,269711  	1256,670793  	70,384617  	64,296134  	0,007556  	0,008415  	0,003961  	0,004263  	0,004312  	0,000000  	-0,000000  	26,031210  	24,288513  	25,182144  	25,139728  	28,268871  	26,928050  	28,165195  	27,918379  	31,032225  	30,114898  	32,862449  	58,311262  	28,124718  	27,371105  	27,507213  	63,552573  	0,219561  	0,111253  	-3419,620735  	25493,655880  	-0,018514  	-0,049999  	0,273242  	0,138454  	-3,529321  	9496,093669  	77547,182136  	11,247268  	-0,047951  
181,564000  	22,768211  	30,118502  	26,269588  	1256,670793  	70,383340  	64,301824  	0,007556  	0,008432  	0,003963  	0,004309  	0,004306  	-0,000001  	-0,000000  	26,036342  	24,294382  	25,185171  	25,138051  	28,269425  	26,932082  	28,154228  	27,921380  	31,027365  	30,118224  	32,869011  	58,316262  	28,126673  	27,357826  	27,508700  	63,551529  	0,257104  	0,130277  	-4003,722396  	25497,882831  	-0,018517  	-0,050008  	0,268649  	0,136127  	-3,466025  	9534,014197  	77544,851975  	11,246930  	-0,047959  
182,566000  	22,774352  	30,123980  	26,270633  	657,183579  	70,377982  	64,288516  	0,007547  	0,008444  	0,003964  	0,004329  	0,004347  	-0,000001  	-0,000001  	26,051001  	24,301089  	25,184383  	25,146562  	28,270405  	26,945845  	28,163560  	27,915073  	31,030104  	30,124931  	32,874248  	58,321616  	28,132375  	27,358671  	27,518382  	63,570429  	0,273356  	0,138511  	-4256,415064  	18402,912141  	-0,027545  	-0,050011  	0,301221  	0,152631  	-3,891335  	9558,829286  	77348,518275  	11,218454  	-0,047961  
183,564000  	22,777668  	30,129427  	26,272385  	657,183579  	70,372001  	64,280743  	0,007556  	0,008739  	0,003963  	0,004242  	0,004349  	0,000002  	-0,000000  	26,032943  	24,295926  	25,182888  	25,131460  	28,265925  	26,940234  	28,151516  	27,915422  	31,014397  	30,121378  	32,862276  	58,309871  	28,122879  	27,331447  	27,507730  	63,540326  	0,202702  	0,102711  	-3157,176711  	18390,517426  	-0,027526  	-0,049973  	0,302858  	0,153460  	-3,913626  	10195,177090  	77537,833248  	11,245912  	-0,047929  
184,563000  	22,766368  	30,132997  	26,271770  	1256,670793  	70,372313  	64,271912  	0,007558  	0,008511  	0,003962  	0,004322  	0,004320  	-0,000001  	-0,000000  	26,031183  	24,286630  	25,171393  	25,126385  	28,263735  	26,928529  	28,144902  	27,904840  	31,012873  	30,116767  	32,860814  	58,303476  	28,133553  	27,321581  	27,504934  	63,541477  	0,267308  	0,135447  	-4171,865242  	25501,661752  	-0,018520  	-0,050017  	0,279403  	0,141575  	-3,615944  	9703,908803  	77585,658033  	11,252848  	-0,047966  
185,565000  	22,788938  	30,134628  	26,273553  	57,696365  	70,372219  	64,275177  	0,007556  	0,008298  	0,003962  	0,004300  	0,004373  	0,000000  	-0,000000  	26,040852  	24,289631  	25,191131  	25,143209  	28,269417  	26,943495  	28,157312  	27,920544  	31,020467  	30,120860  	32,876328  	58,310018  	28,133563  	27,341696  	27,522377  	63,552649  	0,249743  	0,126547  	-3886,655657  	1698,522033  	-0,053729  	-0,049995  	0,321763  	0,163040  	-4,161867  	9244,760693  	77542,189943  	11,246544  	-0,047947  
186,563000  	22,787403  	30,138259  	26,274721  	1256,670793  	70,375584  	64,290102  	0,007552  	0,008431  	0,003961  	0,004219  	0,004371  	0,000000  	-0,000000  	26,033608  	24,291368  	25,192019  	25,135499  	28,279169  	26,937971  	28,161269  	27,924116  	31,020469  	30,123598  	32,866225  	58,317357  	28,138814  	27,360116  	27,515224  	63,549106  	0,184093  	0,093281  	-2866,976735  	25493,708392  	-0,018514  	-0,050000  	0,319975  	0,162134  	-4,130905  	9532,060938  	77466,149029  	11,235515  	-0,047951  
187,720000  	22,771373  	30,143798  	26,274998  	1256,670793  	70,380848  	64,278131  	0,007543  	0,008417  	0,003963  	0,004266  	0,004374  	0,000001  	-0,000001  	26,029958  	24,298126  	25,188525  	25,138813  	28,267793  	26,937390  	28,162207  	27,928001  	31,021453  	30,127695  	32,867928  	58,316386  	28,141077  	27,369534  	27,524475  	63,560162  	0,222029  	0,112504  	-3467,930766  	25489,741596  	-0,018511  	-0,049991  	0,322459  	0,163392  	-4,174749  	9499,869309  	77270,154262  	11,207088  	-0,047944  
188,564000  	22,762714  	30,149276  	26,275490  	1256,670793  	70,382966  	64,262211  	0,007556  	0,008427  	0,003964  	0,004256  	0,004357  	-0,000000  	-0,000000  	26,030886  	24,297651  	25,188610  	25,132108  	28,262432  	26,939238  	28,153419  	27,925545  	31,022197  	30,115916  	32,872763  	58,311174  	28,141739  	27,376787  	27,510630  	63,559336  	0,213794  	0,108331  	-3345,716339  	25495,701642  	-0,018515  	-0,050004  	0,308792  	0,156467  	-4,009619  	9522,949740  	77547,605801  	11,247329  	-0,047955  
189,565000  	22,753686  	30,154415  	26,276811  	956,927186  	70,386331  	64,268337  	0,007559  	0,008536  	0,003961  	0,004280  	0,004396  	0,000000  	-0,000000  	26,024700  	24,295232  	25,179051  	25,130288  	28,264738  	26,927900  	28,144495  	27,920464  	31,017177  	30,116878  	32,860020  	58,313156  	28,142130  	27,379434  	27,505922  	63,556140  	0,233876  	0,118507  	-3667,006908  	22437,153358  	-0,022142  	-0,050000  	0,339662  	0,172109  	-4,408473  	9757,023152  	77599,462471  	11,254850  	-0,047951  
190,563000  	22,761793  	30,150168  	26,277119  	357,439972  	70,391004  	64,260812  	0,007549  	0,008448  	0,003961  	0,004254  	0,004301  	0,000000  	-0,000000  	26,041035  	24,292925  	25,185877  	25,136063  	28,273918  	26,934109  	28,155940  	27,922525  	31,031836  	30,125215  	32,864923  	58,318559  	28,153844  	27,414299  	27,511679  	63,565728  	0,212510  	0,107680  	-3326,430845  	12430,922938  	-0,036412  	-0,049995  	0,264667  	0,134109  	-3,441959  	9567,240820  	77385,278327  	11,223786  	-0,047947  
191,565000  	22,775427  	30,144814  	26,278133  	1256,670793  	70,394430  	64,249370  	0,007552  	0,008560  	0,003963  	0,004291  	0,004335  	-0,000000  	-0,000000  	26,053961  	24,299151  	25,196341  	25,141620  	28,282769  	26,941075  	28,171039  	27,925445  	31,035078  	30,131884  	32,875880  	58,322292  	28,164500  	27,438237  	27,521247  	63,577568  	0,242640  	0,122948  	-3788,301284  	25493,911587  	-0,018514  	-0,050000  	0,291952  	0,147934  	-3,806003  	9809,214991  	77461,552257  	11,234848  	-0,047952  
192,564000  	22,803309  	30,139828  	26,278625  	1256,670793  	70,394555  	64,256086  	0,007552  	0,008483  	0,003964  	0,004341  	0,004385  	-0,000001  	-0,000000  	26,046059  	24,295889  	25,196041  	25,134162  	28,272758  	26,944305  	28,160945  	27,919699  	31,028615  	30,123580  	32,873461  	58,319919  	28,157949  	27,431534  	27,513734  	63,569748  	0,282703  	0,143247  	-4394,089956  	25500,289792  	-0,018519  	-0,050014  	0,331317  	0,167881  	-4,314556  	9642,340473  	77463,621157  	11,235148  	-0,047964  
193,566000  	22,819891  	30,138413  	26,280039  	1256,670793  	70,395676  	64,263237  	0,007556  	0,008415  	0,003960  	0,004258  	0,004348  	-0,000002  	-0,000000  	26,040364  	24,290296  	25,187805  	25,133840  	28,269264  	26,937980  	28,151978  	27,915818  	31,029011  	30,115850  	32,866452  	58,313608  	28,150578  	27,436861  	27,509810  	63,560868  	0,215628  	0,109260  	-3343,312553  	25503,731369  	-0,018521  	-0,050022  	0,301937  	0,152994  	-3,928090  	9497,146349  	77540,022187  	11,246229  	-0,047970  
194,563000  	22,787096  	30,143890  	26,279547  	657,183579  	70,399975  	64,273436  	0,007550  	0,008654  	0,003964  	0,004266  	0,004290  	0,000000  	-0,000000  	26,038413  	24,290225  	25,195087  	25,140237  	28,271558  	26,937927  	28,153765  	27,924039  	31,025887  	30,123888  	32,867838  	58,313171  	28,153976  	27,462059  	27,511939  	63,560020  	0,222411  	0,112697  	-3466,529530  	18398,499858  	-0,027539  	-0,049999  	0,255707  	0,129569  	-3,323460  	10012,729560  	77421,501736  	11,229039  	-0,047950  
195,564000  	22,765355  	30,154323  	26,280100  	-242,047242  	70,398823  	64,275395  	0,007549  	0,008385  	0,003962  	0,004273  	0,004319  	0,000001  	-0,000000  	26,044136  	24,297877  	25,198865  	25,145675  	28,270883  	26,947199  	28,163395  	27,928368  	31,026066  	30,124123  	32,870529  	58,317276  	28,156670  	27,485585  	27,516900  	63,558539  	0,227538  	0,115295  	-3561,959272  	-27092,436987  	-0,102427  	-0,049981  	0,279222  	0,141484  	-3,627243  	9430,850156  	77390,941324  	11,224607  	-0,047935  
196,564000  	22,773339  	30,165401  	26,280346  	-242,047242  	70,392842  	64,300020  	0,007559  	0,008577  	0,003963  	0,004377  	0,004368  	-0,000000  	-0,000000  	26,050459  	24,304211  	25,195693  	25,150031  	28,273790  	26,949870  	28,169595  	27,931387  	31,036122  	30,125924  	32,870090  	58,319433  	28,161637  	27,503811  	27,522643  	63,563058  	0,312010  	0,158098  	-4886,341689  	-27102,079426  	-0,102463  	-0,050001  	0,317530  	0,160895  	-4,104281  	9845,424207  	77600,436901  	11,254992  	-0,047952  
197,565000  	22,745948  	30,164016  	26,280992  	1256,670793  	70,388293  	64,312862  	0,007554  	0,008469  	0,003960  	0,004214  	0,004360  	-0,000001  	-0,000000  	26,049316  	24,302059  	25,196371  	25,150708  	28,273749  	26,944566  	28,163606  	27,928382  	31,037429  	30,128829  	32,872837  	58,320996  	28,160551  	27,521465  	27,521649  	63,570491  	0,180308  	0,091363  	-2833,712085  	25496,947964  	-0,018516  	-0,050007  	0,311676  	0,157929  	-4,017128  	9612,485538  	77509,878380  	11,241857  	-0,047958  
198,565000  	22,730165  	30,162355  	26,280930  	1256,670793  	70,389477  	64,305462  	0,007543  	0,008405  	0,003966  	0,004323  	0,004312  	0,000001  	-0,000000  	26,046709  	24,302052  	25,192614  	25,143354  	28,269966  	26,942569  	28,161576  	27,918637  	31,027693  	30,122336  	32,870822  	58,320816  	28,150782  	27,536431  	27,515997  	63,566761  	0,268474  	0,136038  	-4227,365018  	25488,821505  	-0,018510  	-0,049989  	0,273008  	0,138335  	-3,523715  	9475,898912  	77265,056152  	11,206349  	-0,047942  
199,566000  	22,725743  	30,161431  	26,281391  	1256,670793  	70,390848  	64,286277  	0,007547  	0,008593  	0,003963  	0,004268  	0,004337  	0,000002  	-0,000000  	26,048183  	24,308070  	25,196119  	25,143289  	28,273378  	26,947605  	28,169614  	27,925334  	31,028262  	30,126788  	32,868241  	58,319281  	28,157545  	27,551840  	27,515888  	63,564826  	0,224133  	0,113570  	-3530,843902  	25482,614105  	-0,018506  	-0,049976  	0,293359  	0,148647  	-3,799168  	9879,704217  	77345,333722  	11,217992  	-0,047931  
200,563000  	22,711556  	30,154107  	26,280900  	1256,670793  	70,389976  	64,269487  	0,007554  	0,008413  	0,003961  	0,004264  	0,004365  	-0,000001  	-0,000000  	26,053562  	24,311612  	25,203494  	25,155609  	28,279187  	26,953349  	28,170567  	27,934016  	31,037652  	30,129355  	32,879036  	58,318300  	28,166328  	27,568139  	27,520258  	63,571593  	0,220612  	0,111786  	-3478,586685  	25498,405258  	-0,018517  	-0,050010  	0,315708  	0,159972  	-4,099254  	9492,130556  	77500,931974  	11,240560  	-0,047960  
201,566000  	22,664852  	30,142013  	26,280961  	57,696365  	70,392779  	64,264263  	0,007560  	0,008588  	0,003963  	0,004259  	0,004331  	0,000000  	-0,000000  	26,049672  	24,313642  	25,196614  	25,150915  	28,283355  	26,950926  	28,167982  	27,933235  	31,037992  	30,128824  	32,878468  	58,314283  	28,157892  	27,571894  	27,513843  	63,569908  	0,216652  	0,109779  	-3432,039911  	1698,067651  	-0,053727  	-0,049994  	0,288608  	0,146240  	-3,752289  	9869,675460  	77639,746008  	11,260693  	-0,047946  
202,564000  	22,660184  	30,136659  	26,281207  	1256,670793  	70,393651  	64,264885  	0,007543  	0,008472  	0,003963  	0,004272  	0,004344  	-0,000000  	-0,000000  	26,052470  	24,314395  	25,203030  	25,155671  	28,282357  	26,942228  	28,173920  	27,931409  	31,038814  	30,136973  	32,876799  	58,322402  	28,155773  	27,573143  	27,507636  	63,574621  	0,227324  	0,115187  	-3600,768381  	25495,322403  	-0,018515  	-0,050004  	0,299052  	0,151532  	-3,888230  	9618,435160  	77265,006725  	11,206342  	-0,047955  
203,566000  	22,682201  	30,127888  	26,281207  	1256,670793  	70,394025  	64,287645  	0,007553  	0,008652  	0,003963  	0,004296  	0,004430  	0,000001  	-0,000000  	26,057545  	24,312075  	25,193891  	25,152565  	28,287060  	26,947963  	28,173264  	27,928283  	31,042908  	30,136691  	32,879906  	58,324157  	28,154755  	27,583527  	27,521215  	63,578389  	0,246050  	0,124675  	-3881,326780  	25490,634638  	-0,018512  	-0,049993  	0,366658  	0,185788  	-4,749829  	10007,521341  	77487,332309  	11,238587  	-0,047946  
204,564000  	22,700195  	30,111148  	26,281207  	57,696365  	70,396019  	64,305741  	0,007555  	0,008364  	0,003963  	0,004266  	0,004374  	-0,000000  	-0,000000  	26,065290  	24,312188  	25,198947  	25,155998  	28,286362  	26,952864  	28,171316  	27,933474  	31,038506  	30,130816  	32,880506  	58,326543  	28,162533  	27,584646  	27,521156  	63,567930  	0,222264  	0,112623  	-3489,762528  	1698,431415  	-0,053739  	-0,050006  	0,322079  	0,163200  	-4,161350  	9386,305810  	77526,839126  	11,244317  	-0,047957  
205,563000  	22,775089  	30,096930  	26,281361  	1256,670793  	70,393745  	64,308136  	0,007554  	0,008365  	0,003963  	0,004246  	0,004381  	0,000000  	-0,000000  	26,056616  	24,314163  	25,200282  	25,154260  	28,289238  	26,944585  	28,165557  	27,935578  	31,035017  	30,130078  	32,881106  	58,322981  	28,159576  	27,585360  	27,516098  	63,562008  	0,206218  	0,104492  	-3198,869695  	25492,884868  	-0,018513  	-0,049998  	0,327916  	0,166157  	-4,233512  	9388,713249  	77493,877942  	11,239537  	-0,047950  
206,567000  	22,824651  	30,098531  	26,281791  	657,183579  	70,393122  	64,298186  	0,007544  	0,008696  	0,003961  	0,004259  	0,004337  	-0,000001  	-0,000000  	26,051373  	24,298147  	25,190804  	25,141313  	28,270810  	26,938112  	28,158375  	27,931884  	31,021040  	30,136033  	32,872835  	58,304839  	28,154027  	27,571782  	27,512773  	63,545751  	0,216346  	0,109624  	-3333,988530  	18404,966198  	-0,027548  	-0,050019  	0,292773  	0,148350  	-3,785591  	10102,665773  	77281,501439  	11,208734  	-0,047967  
207,563000  	22,829165  	30,105085  	26,281883  	-242,047242  	70,395271  	64,291563  	0,007549  	0,008469  	0,003962  	0,004288  	0,004380  	-0,000000  	-0,000001  	26,055489  	24,309369  	25,204922  	25,146234  	28,279755  	26,944443  	28,172702  	27,930627  	31,031503  	30,142987  	32,881936  	58,310066  	28,168992  	27,575702  	27,518221  	63,565027  	0,239633  	0,121424  	-3693,889170  	-27101,718158  	-0,102461  	-0,050000  	0,326942  	0,165664  	-4,233481  	9612,389325  	77400,975137  	11,226062  	-0,047952  
208,566000  	22,835061  	30,118072  	26,282252  	956,927186  	70,393153  	64,294921  	0,007553  	0,008542  	0,003964  	0,004253  	0,004347  	-0,000001  	-0,000000  	26,046774  	24,302856  	25,197603  	25,147329  	28,281287  	26,938168  	28,165550  	27,920899  	31,024444  	30,122481  	32,876590  	58,310212  	28,156116  	27,556633  	27,500255  	63,556134  	0,211535  	0,107186  	-3263,936350  	22442,796418  	-0,022148  	-0,050014  	0,300728  	0,152381  	-3,890558  	9770,056432  	77488,073723  	11,238695  	-0,047964  
209,563000  	22,870928  	30,144814  	26,281453  	-242,047242  	70,390474  	64,302414  	0,007555  	0,008590  	0,003963  	0,004333  	0,004346  	0,000001  	-0,000001  	26,042689  	24,307996  	25,202069  	25,148105  	28,276313  	26,941223  	28,170671  	27,930644  	31,043106  	30,129911  	32,883766  	58,305123  	28,169304  	27,544977  	27,512531  	63,546797  	0,276693  	0,140202  	-4263,946158  	-27095,032979  	-0,102436  	-0,049987  	0,300654  	0,152344  	-3,883119  	9874,991211  	77525,102097  	11,244065  	-0,047940  
210,563000  	22,868962  	30,162170  	26,281084  	357,439972  	70,393963  	64,308011  	0,007554  	0,008368  	0,003961  	0,004257  	0,004317  	-0,000000  	-0,000000  	26,055494  	24,303761  	25,199659  	25,142596  	28,277442  	26,945618  	28,176607  	27,927357  	31,035865  	30,123986  	32,885558  	58,327798  	28,173753  	27,527117  	27,519192  	63,556728  	0,214840  	0,108861  	-3319,569976  	12432,384062  	-0,036417  	-0,050002  	0,277039  	0,140378  	-3,576880  	9395,921418  	77495,636154  	11,239792  	-0,047953  
211,567000  	22,856065  	30,173710  	26,280254  	1256,670793  	70,393215  	64,316873  	0,007549  	0,008532  	0,003966  	0,004248  	0,004354  	0,000001  	-0,000000  	26,064710  	24,305699  	25,192819  	25,151963  	28,284307  	26,948122  	28,172614  	27,933617  	31,032025  	30,125477  	32,881809  	58,322098  	28,176021  	27,518296  	27,513086  	63,558761  	0,207885  	0,105337  	-3222,868818  	25489,448264  	-0,018511  	-0,049991  	0,306562  	0,155337  	-3,951805  	9748,783527  	77395,700501  	11,225297  	-0,047943  
212,565000  	22,851275  	30,192359  	26,280930  	57,696365  	70,391907  	64,306612  	0,007552  	0,008452  	0,003964  	0,004229  	0,004330  	0,000000  	-0,000000  	26,062492  	24,309810  	25,196354  	25,154889  	28,279297  	26,943732  	28,170897  	27,943143  	31,038238  	30,140437  	32,876808  	58,323463  	28,173132  	27,523836  	27,520596  	63,560840  	0,192567  	0,097575  	-2994,952668  	1698,125977  	-0,053729  	-0,049996  	0,287496  	0,145676  	-3,711490  	9576,419934  	77455,493839  	11,233970  	-0,047948  
213,567000  	22,797383  	30,209316  	26,281053  	-242,047242  	70,390100  	64,306052  	0,007559  	0,008748  	0,003962  	0,004296  	0,004363  	0,000001  	-0,000000  	26,051975  	24,301187  	25,190225  	25,142672  	28,274759  	26,943447  	28,162360  	27,925519  	31,032473  	30,134254  	32,864880  	58,310763  	28,162531  	27,523583  	27,509381  	63,561347  	0,246097  	0,124699  	-3864,451927  	-27096,834727  	-0,102443  	-0,049990  	0,313868  	0,159039  	-4,051105  	10215,555076  	77615,837146  	11,257225  	-0,047943  
214,564000  	22,738425  	30,209254  	26,280316  	357,439972  	70,389041  	64,300082  	0,007548  	0,008476  	0,003962  	0,004324  	0,004350  	0,000001  	-0,000000  	26,049662  	24,299609  	25,199009  	25,145736  	28,275975  	26,941099  	28,171606  	27,925889  	31,028732  	30,125992  	32,873976  	58,313398  	28,168576  	27,541488  	27,514657  	63,565948  	0,268760  	0,136183  	-4253,877622  	12429,741282  	-0,036409  	-0,049990  	0,303260  	0,153664  	-3,917349  	9628,787927  	77382,644539  	11,223404  	-0,047943  
215,565000  	22,731424  	30,208054  	26,279762  	1256,670793  	70,387546  	64,322470  	0,007553  	0,008415  	0,003962  	0,004329  	0,004318  	0,000001  	-0,000001  	26,054528  	24,296903  	25,199329  	25,148409  	28,273921  	26,952104  	28,169655  	27,934306  	31,028198  	30,126495  	32,877885  	58,314044  	28,161713  	27,551841  	27,515042  	63,561177  	0,272838  	0,138249  	-4321,781010  	25490,240810  	-0,018511  	-0,049992  	0,277944  	0,140836  	-3,576255  	9497,224876  	77489,817814  	11,238948  	-0,047945  
216,565000  	22,748374  	30,196606  	26,279148  	1256,670793  	70,386487  	64,322718  	0,007555  	0,008709  	0,003962  	0,004228  	0,004344  	0,000000  	-0,000000  	26,061044  	24,304981  	25,210706  	25,151761  	28,282837  	26,951763  	28,172957  	27,933453  	31,035769  	30,133742  	32,878660  	58,316852  	28,162491  	27,552289  	27,513667  	63,562797  	0,191461  	0,097015  	-3021,234022  	25492,726877  	-0,018513  	-0,049998  	0,298462  	0,151233  	-3,839426  	10129,534577  	77518,415241  	11,243096  	-0,047950  
217,564000  	22,774751  	30,178265  	26,279332  	1256,670793  	70,386331  	64,293584  	0,007558  	0,008550  	0,003968  	0,004299  	0,004365  	0,000001  	-0,000001  	26,058564  	24,310797  	25,212227  	25,160708  	28,292991  	26,957545  	28,169010  	27,943279  	31,042878  	30,141096  	32,888138  	58,324560  	28,160724  	27,560323  	27,514384  	63,563818  	0,248627  	0,125981  	-3899,739675  	25486,997004  	-0,018509  	-0,049985  	0,315356  	0,159793  	-4,076126  	9788,237090  	77597,506548  	11,254567  	-0,047939  
218,564000  	22,790965  	30,166078  	26,277979  	1256,670793  	70,380973  	64,301482  	0,007549  	0,008380  	0,003966  	0,004286  	0,004384  	-0,000000  	-0,000000  	26,060843  	24,311232  	25,211444  	25,165681  	28,292283  	26,958422  	28,177833  	27,940657  	31,043200  	30,142887  	32,895190  	58,322351  	28,154709  	27,563509  	27,517128  	63,556233  	0,238380  	0,120789  	-3724,668358  	25494,650254  	-0,018515  	-0,050002  	0,330720  	0,167578  	-4,265424  	9422,152813  	77391,322623  	11,224662  	-0,047953  
219,564000  	22,796676  	30,156292  	26,277150  	1256,670793  	70,377266  	64,320417  	0,007552  	0,008504  	0,003962  	0,004261  	0,004360  	0,000001  	-0,000000  	26,061793  	24,308667  	25,210012  	25,162644  	28,285337  	26,956581  	28,180355  	27,936911  	31,037841  	30,137771  	32,882798  	58,317605  	28,148415  	27,546995  	27,519474  	63,548807  	0,218122  	0,110524  	-3400,972178  	25486,991087  	-0,018509  	-0,049985  	0,311359  	0,157768  	-4,000766  	9688,436248  	77465,315820  	11,235394  	-0,047939  
220,565000  	22,797290  	30,160970  	26,277211  	57,696365  	70,376518  	64,304435  	0,007552  	0,008471  	0,003962  	0,004279  	0,004350  	-0,000000  	-0,000000  	26,063290  	24,316038  	25,212120  	25,167076  	28,287861  	26,962552  	28,181867  	27,952391  	31,043459  	30,142605  	32,884679  	58,320942  	28,151059  	27,538355  	27,514129  	63,554666  	0,232497  	0,117808  	-3627,114660  	1698,619278  	-0,053738  	-0,050005  	0,303412  	0,153741  	-3,908454  	9616,636125  	77465,619447  	11,235438  	-0,047956  
221,564000  	22,788938  	30,172387  	26,277057  	57,696365  	70,375116  	64,287770  	0,007559  	0,008489  	0,003963  	0,004350  	0,004333  	-0,000001  	-0,000000  	26,066469  	24,320597  	25,211229  	25,168907  	28,291048  	26,963399  	28,182409  	27,958799  	31,047546  	30,147127  	32,894953  	58,325982  	28,151002  	27,527373  	27,511845  	63,555346  	0,290424  	0,147160  	-4542,980529  	1698,933456  	-0,053748  	-0,050015  	0,290134  	0,147013  	-3,746797  	9657,055352  	77612,822059  	11,256788  	-0,047964  
222,565000  	22,761117  	30,173495  	26,277057  	1256,670793  	70,375677  	64,280307  	0,007557  	0,008549  	0,003960  	0,004297  	0,004354  	-0,000001  	-0,000000  	26,058757  	24,310990  	25,201742  	25,161301  	28,286996  	26,959562  	28,175486  	27,949004  	31,040312  	30,139887  	32,887269  	58,319305  	28,139089  	27,502971  	27,508098  	63,545886  	0,247189  	0,125252  	-3881,832461  	25497,805298  	-0,018517  	-0,050009  	0,306348  	0,155229  	-3,961398  	9785,642178  	77558,056219  	11,248845  	-0,047959  
223,564000  	22,748036  	30,171925  	26,276965  	1256,670793  	70,371658  	64,277385  	0,007549  	0,008745  	0,003961  	0,004286  	0,004335  	-0,000000  	-0,000000  	26,051466  	24,307176  	25,199859  	25,158532  	28,285689  	26,958493  	28,172587  	27,944531  	31,036862  	30,136607  	32,878972  	58,315757  	28,134159  	27,492608  	27,504123  	63,542282  	0,238491  	0,120845  	-3751,055001  	25494,179026  	-0,018514  	-0,050001  	0,291814  	0,147865  	-3,772781  	10207,330307  	77389,656205  	11,224421  	-0,047952  
224,564000  	22,736552  	30,166448  	26,276904  	57,696365  	70,369229  	64,281924  	0,007555  	0,008389  	0,003961  	0,004293  	0,004396  	-0,000000  	-0,000001  	26,058414  	24,316314  	25,207259  	25,165379  	28,289811  	26,960941  	28,178546  	27,943319  	31,040973  	30,141916  	32,887165  	58,323867  	28,134956  	27,485250  	27,512358  	63,545731  	0,243809  	0,123540  	-3837,813382  	1698,646387  	-0,053738  	-0,050005  	0,339506  	0,172030  	-4,384353  	9440,507503  	77516,063897  	11,242755  	-0,047956  
225,565000  	22,704770  	30,158508  	26,276596  	57,696365  	70,369821  	64,298745  	0,007556  	0,008765  	0,003964  	0,004257  	0,004286  	0,000001  	-0,000000  	26,066012  	24,321598  	25,211824  	25,169696  	28,296544  	26,969306  	28,186929  	27,945554  	31,047688  	30,149739  	32,895074  	58,323540  	28,130785  	27,466634  	27,518208  	63,552075  	0,214922  	0,108903  	-3393,970692  	1698,147987  	-0,053722  	-0,049988  	0,252477  	0,127932  	-3,251780  	10250,416607  	77543,672772  	11,246759  	-0,047941  
226,568000  	22,685302  	30,152230  	26,277027  	657,183579  	70,369197  	64,310063  	0,007552  	0,008581  	0,003963  	0,004299  	0,004380  	0,000000  	-0,000000  	26,067414  	24,321525  	25,216004  	25,164429  	28,299239  	26,972327  	28,189212  	27,952078  	31,050010  	30,152724  	32,893903  	58,321313  	28,131081  	27,456252  	27,517915  	63,553296  	0,248832  	0,126085  	-3936,406979  	18398,719986  	-0,027539  	-0,049999  	0,327437  	0,165915  	-4,208938  	9855,508851  	77461,898251  	11,234898  	-0,047951  
227,563000  	22,684105  	30,150753  	26,276750  	657,183579  	70,368668  	64,300238  	0,007552  	0,008525  	0,003961  	0,004306  	0,004368  	0,000001  	-0,000000  	26,068618  	24,324874  	25,216693  	25,164869  	28,291382  	26,967775  	28,184729  	27,950659  	31,044219  	30,145192  	32,895067  	58,326822  	28,130548  	27,437594  	27,520428  	63,546725  	0,254684  	0,129050  	-4028,833954  	18394,917357  	-0,027533  	-0,049987  	0,317727  	0,160995  	-4,090389  	9733,395866  	77459,109119  	11,234494  	-0,047941  
228,566000  	22,701177  	30,142998  	26,276135  	1256,670793  	70,367920  	64,311120  	0,007555  	0,008669  	0,003963  	0,004214  	0,004370  	0,000000  	-0,000000  	26,078284  	24,327798  	25,224685  	25,171035  	28,294274  	26,967543  	28,188470  	27,960286  	31,054589  	30,156287  	32,894009  	58,325838  	28,144885  	27,435260  	27,513290  	63,555857  	0,180051  	0,091233  	-2838,747691  	25493,317246  	-0,018514  	-0,049999  	0,319169  	0,161725  	-4,101086  	10043,616658  	77512,653389  	11,242260  	-0,047950  
229,569000  	22,709130  	30,126257  	26,276381  	956,927186  	70,365677  	64,324864  	0,007554  	0,008341  	0,003961  	0,004271  	0,004350  	0,000001  	-0,000000  	26,073145  	24,319576  	25,225441  	25,169402  	28,294237  	26,966221  	28,183544  	27,948573  	31,053689  	30,146242  	32,899104  	58,318194  	28,136737  	27,427890  	27,512069  	63,561634  	0,226163  	0,114598  	-3553,929799  	22434,517235  	-0,022140  	-0,049993  	0,303526  	0,153799  	-3,889798  	9336,842591  	77492,839961  	11,239386  	-0,047946  
230,563000  	22,692856  	30,117641  	26,275643  	-242,047242  	70,361939  	64,325734  	0,007551  	0,008601  	0,003962  	0,004252  	0,004408  	-0,000000  	-0,000000  	26,061848  	24,318047  	25,207452  	25,165434  	28,291016  	26,958875  	28,183970  	27,949400  	31,044716  	30,142035  	32,879788  	58,313691  	28,136947  	27,425559  	27,503553  	63,553769  	0,210897  	0,106863  	-3317,475331  	-27102,434950  	-0,102466  	-0,050002  	0,349121  	0,176902  	-4,470695  	9898,530066  	77442,868604  	11,232138  	-0,047953  
231,564000  	22,682723  	30,120318  	26,275736  	-242,047242  	70,365241  	64,313328  	0,007546  	0,008452  	0,003962  	0,004276  	0,004363  	0,000001  	-0,000000  	26,067475  	24,321716  	25,218845  	25,168802  	28,291008  	26,964358  	28,184811  	27,936557  	31,047598  	30,145911  	32,897826  	58,323005  	28,142758  	27,439244  	27,509036  	63,550986  	0,230149  	0,116618  	-3626,548021  	-27098,310817  	-0,102451  	-0,049994  	0,313589  	0,158898  	-4,026137  	9575,620520  	77320,069130  	11,214328  	-0,047946  
232,569000  	22,676029  	30,122226  	26,275305  	-242,047242  	70,370849  	64,300331  	0,007555  	0,008579  	0,003962  	0,004250  	0,004363  	0,000000  	-0,000000  	26,065016  	24,318145  	25,214714  	25,169412  	28,296288  	26,963872  	28,184767  	27,939263  	31,054369  	30,153606  	32,881043  	58,318615  	28,144499  	27,448719  	27,511257  	63,553204  	0,209160  	0,105983  	-3299,635670  	-27098,432930  	-0,102451  	-0,049994  	0,313770  	0,158990  	-4,040842  	9850,130138  	77529,967190  	11,244771  	-0,047946  
233,566000  	22,665650  	30,117241  	26,276473  	1256,670793  	70,368138  	64,288547  	0,007560  	0,008439  	0,003963  	0,004274  	0,004385  	-0,000001  	-0,000000  	26,078460  	24,321668  	25,216858  	25,167240  	28,305978  	26,963030  	28,189022  	27,943583  	31,049777  	30,156292  	32,887000  	58,326508  	28,147503  	27,463986  	27,515201  	63,560032  	0,228573  	0,115820  	-3608,500058  	25499,151573  	-0,018518  	-0,050012  	0,331059  	0,167750  	-4,269856  	9548,549386  	77628,773069  	11,259102  	-0,047961  
234,568000  	22,662457  	30,109855  	26,277150  	1256,670793  	70,356488  	64,285686  	0,007553  	0,008838  	0,003957  	0,004280  	0,004354  	0,000000  	-0,000000  	26,059249  	24,313504  	25,205466  	25,143891  	28,282919  	26,952013  	28,178460  	27,943923  	31,049236  	30,132832  	32,888424  	58,317555  	28,138336  	27,459453  	27,508238  	63,555616  	0,233650  	0,118392  	-3686,586821  	25492,561921  	-0,018513  	-0,049997  	0,306565  	0,155339  	-3,948223  	10409,062819  	77489,231743  	11,238863  	-0,047949  
235,567000  	22,681249  	30,099700  	26,277518  	1256,670793  	70,346083  	64,286868  	0,007544  	0,008495  	0,003963  	0,004312  	0,004303  	0,000001  	-0,000000  	26,063884  	24,315146  	25,217173  	25,162288  	28,292063  	26,965163  	28,182855  	27,953070  	31,048265  	30,148388  	32,888169  	58,318203  	28,154178  	27,470472  	27,514885  	63,552452  	0,259599  	0,131541  	-4080,085970  	25490,892174  	-0,018512  	-0,049994  	0,265892  	0,134729  	-3,417862  	9668,975112  	77293,653580  	11,210497  	-0,047946  
236,569000  	22,708762  	30,092561  	26,276719  	1256,670793  	70,345522  	64,301233  	0,007549  	0,008622  	0,003963  	0,004320  	0,004374  	0,000001  	-0,000000  	26,074171  	24,331432  	25,215751  	25,165736  	28,297930  	26,969916  	28,179435  	27,954081  	31,053896  	30,144989  	32,901377  	58,329652  	28,151991  	27,477342  	27,525731  	63,572701  	0,266048  	0,134809  	-4161,909495  	25490,830296  	-0,018512  	-0,049993  	0,322229  	0,163276  	-4,131840  	9942,291270  	77402,938121  	11,226347  	-0,047946  
237,568000  	22,736490  	30,088468  	26,277949  	57,696365  	70,351753  	64,303907  	0,007559  	0,008408  	0,003963  	0,004340  	0,004358  	-0,000002  	-0,000001  	26,054403  	24,311670  	25,204709  	25,151501  	28,285953  	26,949299  	28,170984  	27,941051  	31,034768  	30,137716  	32,878637  	58,307692  	28,137814  	27,460569  	27,506372  	63,559196  	0,281956  	0,142869  	-4391,735864  	1699,119155  	-0,053755  	-0,050023  	0,309959  	0,157058  	-3,976848  	9481,443874  	77616,550316  	11,257329  	-0,047971  
238,564000  	22,744904  	30,091914  	26,277580  	1256,670793  	70,356986  	64,294579  	0,007552  	0,008475  	0,003961  	0,004276  	0,004349  	-0,000001  	-0,000000  	26,060824  	24,317879  	25,207824  	25,150059  	28,281867  	26,958293  	28,178220  	27,947011  	31,044196  	30,143572  	32,884221  	58,322695  	28,145852  	27,463697  	27,508653  	63,559086  	0,230446  	0,116769  	-3586,999883  	25497,480342  	-0,018517  	-0,050008  	0,302326  	0,153191  	-3,888254  	9625,485568  	77451,447832  	11,233383  	-0,047958  
239,564000  	22,723348  	30,100500  	26,277580  	357,439972  	70,356083  	64,289884  	0,007551  	0,008474  	0,003965  	0,004280  	0,004286  	-0,000000  	-0,000000  	26,055530  	24,317008  	25,199822  	25,157361  	28,289920  	26,951815  	28,172909  	27,939830  	31,043559  	30,143457  	32,887925  	58,323094  	28,148055  	27,469518  	27,508399  	63,562982  	0,233667  	0,118401  	-3652,060348  	12433,124962  	-0,036418  	-0,050005  	0,252921  	0,128157  	-3,254875  	9624,662101  	77436,308848  	11,231187  	-0,047956  
240,564000  	22,725743  	30,110901  	26,278195  	956,927186  	70,354401  	64,266689  	0,007554  	0,008733  	0,003963  	0,004255  	0,004388  	-0,000001  	-0,000000  	26,061008  	24,314666  	25,209801  	25,162248  	28,285999  	26,963256  	28,179295  	27,943232  	31,043134  	30,146191  	32,892096  	58,320573  	28,162216  	27,485235  	27,518740  	63,567640  	0,213322  	0,108092  	-3337,698191  	22441,294060  	-0,022146  	-0,050010  	0,333505  	0,168990  	-4,307142  	10181,335906  	77508,889827  	11,241714  	-0,047960  
241,565000  	22,721352  	30,119210  	26,278318  	1256,670793  	70,346706  	64,256117  	0,007555  	0,008432  	0,003961  	0,004274  	0,004354  	-0,000001  	-0,000000  	26,053460  	24,315285  	25,212487  	25,150461  	28,285624  	26,953781  	28,174964  	27,944430  	31,038733  	30,138857  	32,887163  	58,322490  	28,143058  	27,475693  	27,514436  	63,563751  	0,228802  	0,115936  	-3586,059797  	25496,842249  	-0,018516  	-0,050007  	0,306891  	0,155504  	-3,965291  	9533,175874  	77526,987409  	11,244339  	-0,047957  
242,566000  	22,714044  	30,116010  	26,279178  	657,183579  	70,339417  	64,262460  	0,007549  	0,008760  	0,003962  	0,004271  	0,004326  	0,000000  	-0,000000  	26,051774  	24,312544  	25,202670  	25,143688  	28,281355  	26,949831  	28,176372  	27,939000  	31,038878  	30,142803  	32,887465  	58,324080  	28,147170  	27,479807  	27,512088  	63,560765  	0,226040  	0,114536  	-3544,739552  	18396,963363  	-0,027536  	-0,049994  	0,284765  	0,144293  	-3,671179  	10241,121472  	77383,470687  	11,223524  	-0,047946  
243,565000  	22,707042  	30,111394  	26,279363  	657,183579  	70,334370  	64,270886  	0,007551  	0,008362  	0,003963  	0,004308  	0,004330  	-0,000000  	-0,000000  	26,056769  	24,313199  	25,204649  	25,150731  	28,287200  	26,949986  	28,172498  	27,929040  	31,037414  	30,140769  	32,879849  	58,317785  	28,145094  	27,471563  	27,513703  	63,564579  	0,255979  	0,129706  	-4015,535322  	18399,855032  	-0,027541  	-0,050003  	0,287444  	0,145650  	-3,697496  	9381,318315  	77439,867639  	11,231703  	-0,047954  
244,564000  	22,680942  	30,110778  	26,279117  	1256,670793  	70,333498  	64,273436  	0,007548  	0,008399  	0,003961  	0,004266  	0,004447  	-0,000000  	-0,000000  	26,055135  	24,312966  	25,206197  	25,151320  	28,285211  	26,948649  	28,170279  	27,931541  	31,037046  	30,137315  	32,884940  	58,318970  	28,145277  	27,463351  	27,507847  	63,567053  	0,221747  	0,112361  	-3490,512680  	25495,991208  	-0,018516  	-0,050005  	0,380213  	0,192657  	-4,888058  	9462,599632  	77379,918957  	11,223008  	-0,047956  
245,565000  	22,641454  	30,112286  	26,280992  	1256,670793  	70,333342  	64,270979  	0,007553  	0,008352  	0,003964  	0,004261  	0,004397  	0,000001  	-0,000000  	26,046407  	24,311813  	25,193910  	25,146449  	28,284411  	26,947885  	28,169185  	27,933914  	31,033110  	30,135332  	32,883203  	58,314544  	28,145327  	27,456829  	27,508422  	63,568662  	0,217807  	0,110364  	-3447,420001  	25489,433723  	-0,018511  	-0,049991  	0,340668  	0,172619  	-4,381333  	9361,664046  	77479,960527  	11,237518  	-0,047943  
246,564000  	22,607616  	30,108101  	26,281115  	1256,670793  	70,337454  	64,256863  	0,007555  	0,008498  	0,003964  	0,004341  	0,004310  	-0,000000  	-0,000000  	26,045275  	24,303884  	25,192459  	25,147488  	28,277188  	26,945373  	28,168295  	27,931860  	31,034089  	30,134476  	32,877578  	58,314973  	28,143981  	27,450272  	27,510481  	63,567152  	0,283217  	0,143508  	-4500,532022  	25496,273769  	-0,018516  	-0,050006  	0,271865  	0,137756  	-3,506964  	9676,600674  	77515,739087  	11,242707  	-0,047956  
247,563000  	22,596470  	30,100346  	26,281115  	1256,670793  	70,340071  	64,235005  	0,007551  	0,008394  	0,003964  	0,004320  	0,004367  	-0,000001  	-0,000000  	26,047144  	24,303947  	25,201297  	25,153670  	28,272609  	26,945914  	28,175661  	27,935900  	31,037741  	30,139517  	32,881918  	58,321989  	28,143428  	27,443100  	27,511096  	63,572065  	0,266059  	0,134814  	-4229,784797  	25497,787818  	-0,018517  	-0,050009  	0,317134  	0,160694  	-4,107374  	9450,268845  	77432,192231  	11,230590  	-0,047959  
248,567000  	22,622631  	30,084467  	26,283205  	57,696365  	70,342812  	64,229968  	0,007553  	0,008468  	0,003966  	0,004290  	0,004304  	-0,000001  	-0,000000  	26,046327  	24,306784  	25,201293  	25,149792  	28,274039  	26,942776  	28,177715  	27,933357  	31,036857  	30,135877  	32,883904  	58,323399  	28,142443  	27,440458  	27,509669  	63,575302  	0,241809  	0,122526  	-3822,723574  	1698,664343  	-0,053750  	-0,050018  	0,266843  	0,135212  	-3,460431  	9610,182093  	77485,602341  	11,238336  	-0,047966  
249,565000  	22,719080  	30,057295  	26,283266  	956,927186  	70,346270  	64,234477  	0,007552  	0,008821  	0,003962  	0,004322  	0,004339  	0,000000  	-0,000000  	26,047481  	24,302133  	25,197578  	25,142913  	28,273545  	26,940108  	28,167571  	27,925198  	31,033208  	30,128865  	32,879175  	58,320160  	28,141602  	27,439883  	27,506167  	63,570814  	0,267246  	0,135415  	-4154,825210  	22436,293782  	-0,022142  	-0,049998  	0,294962  	0,149459  	-3,824413  	10372,309577  	77453,396694  	11,233665  	-0,047950  
250,567000  	22,785407  	30,041416  	26,284557  	357,439972  	70,349821  	64,234290  	0,007558  	0,008579  	0,003961  	0,004209  	0,004347  	-0,000000  	-0,000000  	26,049720  	24,304376  	25,200739  	25,144838  	28,276550  	26,946453  	28,166420  	27,929731  	31,032792  	30,131571  	32,878652  	58,323242  	28,143193  	27,441254  	27,508679  	63,572723  	0,175892  	0,089126  	-2703,923266  	12431,689318  	-0,036415  	-0,050000  	0,300743  	0,152389  	-3,901761  	9849,612995  	77580,729390  	11,252133  	-0,047951  
251,566000  	22,788170  	30,037908  	26,285111  	1256,670793  	70,349977  	64,246447  	0,007545  	0,008463  	0,003961  	0,004253  	0,004324  	0,000001  	-0,000000  	26,046763  	24,309557  	25,204525  	25,139795  	28,279994  	26,942421  	28,170369  	27,931658  	31,034135  	30,129967  	32,875366  	58,328482  	28,141989  	27,446180  	27,514876  	63,577845  	0,211955  	0,107399  	-3255,490610  	25487,377528  	-0,018509  	-0,049986  	0,282852  	0,143323  	-3,662454  	9599,879555  	77301,830326  	11,211683  	-0,047940  
252,565000  	22,787188  	30,054895  	26,285541  	1256,670793  	70,348731  	64,272938  	0,007553  	0,008524  	0,003964  	0,004263  	0,004308  	-0,000002  	-0,000000  	26,042616  	24,307987  	25,199783  	25,134610  	28,276149  	26,933045  	28,163285  	27,918316  	31,029933  	30,127305  	32,867497  	58,322774  	28,135557  	27,449464  	27,516908  	63,574588  	0,219428  	0,111186  	-3378,620291  	25502,434934  	-0,018520  	-0,050020  	0,270380  	0,137004  	-3,485062  	9732,672148  	77479,353273  	11,237430  	-0,047968  
253,565000  	22,839544  	30,096530  	26,287109  	-242,047242  	70,352656  	64,276390  	0,007553  	0,008445  	0,003962  	0,004283  	0,004419  	0,000001  	-0,000000  	26,044325  	24,307503  	25,191509  	25,144573  	28,269204  	26,940003  	28,162664  	27,915114  	31,027787  	30,126386  	32,872574  	58,322247  	28,136517  	27,465742  	27,516837  	63,568610  	0,236081  	0,119624  	-3629,657493  	-27097,836768  	-0,102444  	-0,049992  	0,357769  	0,181284  	-4,611821  	9560,893613  	77482,686109  	11,237914  	-0,047945  
254,566000  	22,848020  	30,125826  	26,287662  	357,439972  	70,354961  	64,269425  	0,007555  	0,008506  	0,003963  	0,004242  	0,004386  	-0,000001  	-0,000000  	26,034679  	24,299059  	25,192279  	25,140251  	28,266551  	26,936222  	28,163083  	27,926924  	31,026681  	30,123242  	32,871460  	58,325036  	28,132197  	27,474011  	27,515000  	63,571824  	0,202335  	0,102525  	-3119,746628  	12433,282488  	-0,036420  	-0,050008  	0,332159  	0,168307  	-4,288220  	9691,841187  	77533,533042  	11,245288  	-0,047958  
255,565000  	22,824344  	30,136536  	26,288400  	1256,670793  	70,354650  	64,274151  	0,007551  	0,008383  	0,003963  	0,004366  	0,004355  	0,000000  	-0,000000  	26,035379  	24,292966  	25,196984  	25,136055  	28,263378  	26,931157  	28,160939  	27,925940  	31,027636  	30,131276  	32,868353  	58,319696  	28,121118  	27,474027  	27,510432  	63,574161  	0,303237  	0,153652  	-4697,625600  	25493,215218  	-0,018514  	-0,050000  	0,307284  	0,155703  	-3,963796  	9426,694618  	77442,353144  	11,232064  	-0,047951  
256,564000  	22,789276  	30,149461  	26,289445  	1256,670793  	70,360506  	64,259848  	0,007554  	0,008453  	0,003962  	0,004315  	0,004330  	-0,000002  	-0,000000  	26,038704  	24,290942  	25,189257  	25,137700  	28,261044  	26,931753  	28,155463  	27,914441  	31,027327  	30,127441  	32,871686  	58,324224  	28,121191  	27,480544  	27,506897  	63,574018  	0,261622  	0,132566  	-4079,549507  	25503,617204  	-0,018521  	-0,050022  	0,287777  	0,145819  	-3,724476  	9577,439364  	77500,162315  	11,240448  	-0,047971  
257,565000  	22,739929  	30,168971  	26,289537  	1256,670793  	70,362220  	64,257952  	0,007556  	0,008466  	0,003961  	0,004273  	0,004402  	-0,000001  	-0,000000  	26,034087  	24,294459  	25,194293  	25,138253  	28,275669  	26,927940  	28,159106  	27,915159  	31,024657  	30,119645  	32,869965  	58,322590  	28,121477  	27,480526  	27,507211  	63,567948  	0,227963  	0,115511  	-3587,965678  	25496,589179  	-0,018516  	-0,050007  	0,345012  	0,174820  	-4,467864  	9606,968873  	77551,115165  	11,247838  	-0,047957  
258,569000  	22,710267  	30,170879  	26,290705  	1256,670793  	70,361223  	64,258947  	0,007555  	0,008483  	0,003962  	0,004282  	0,004307  	-0,000000  	-0,000000  	26,036393  	24,299188  	25,193622  	25,128006  	28,272222  	26,935015  	28,150792  	27,908729  	31,023146  	30,123238  	32,870197  	58,317103  	28,115069  	27,478348  	27,511862  	63,577554  	0,235136  	0,119145  	-3716,590272  	25493,401957  	-0,018514  	-0,050000  	0,269688  	0,136653  	-3,491292  	9642,989201  	77520,208759  	11,243356  	-0,047951  
259,568000  	22,669089  	30,163309  	26,290982  	1256,670793  	70,363902  	64,257920  	0,007549  	0,008591  	0,003962  	0,004317  	0,004358  	0,000000  	-0,000000  	26,028966  	24,286801  	25,189805  	25,130434  	28,257820  	26,930837  	28,156332  	27,908823  	31,023523  	30,110660  	32,860870  	58,317243  	28,119940  	27,476540  	27,510864  	63,569750  	0,263677  	0,133607  	-4186,511858  	25491,668015  	-0,018513  	-0,049996  	0,309566  	0,156859  	-4,009966  	9875,767987  	77400,459678  	11,225988  	-0,047948  
260,566000  	22,618731  	30,146999  	26,292211  	1256,670793  	70,368014  	64,260408  	0,007555  	0,008562  	0,003961  	0,004246  	0,004339  	-0,000001  	-0,000000  	26,032466  	24,288755  	25,184275  	25,116933  	28,262019  	26,925713  	28,160929  	27,910594  	31,016923  	30,112428  	32,862654  	58,318777  	28,118199  	27,487169  	27,500286  	63,573648  	0,206010  	0,104387  	-3285,777194  	25501,011085  	-0,018519  	-0,050017  	0,295013  	0,149485  	-3,822468  	9814,123252  	77520,766586  	11,243437  	-0,047966  
261,564000  	22,638659  	30,133704  	26,293963  	-242,047242  	70,367733  	64,264668  	0,007552  	0,008677  	0,003964  	0,004293  	0,004373  	0,000001  	-0,000000  	26,028950  	24,286619  	25,196262  	25,136532  	28,271212  	26,944073  	28,159030  	27,915650  	31,016689  	30,124360  	32,868333  	58,311770  	28,125054  	27,510136  	27,508986  	63,574725  	0,243675  	0,123472  	-3869,368990  	-27097,271537  	-0,102440  	-0,049991  	0,321531  	0,162922  	-4,162967  	10062,423406  	77459,116180  	11,234495  	-0,047943  
262,564000  	22,652907  	30,116225  	26,293656  	357,439972  	70,368606  	64,275115  	0,007555  	0,008754  	0,003960  	0,004252  	0,004372  	0,000001  	-0,000000  	26,033667  	24,295553  	25,193048  	25,133760  	28,263813  	26,933977  	28,158219  	27,922823  	31,025382  	30,112786  	32,861072  	58,317585  	28,116436  	27,524929  	27,504780  	63,568692  	0,210593  	0,106709  	-3329,887302  	12429,282326  	-0,036409  	-0,049991  	0,320934  	0,162620  	-4,148732  	10228,293351  	77519,806277  	11,243297  	-0,047944  
263,565000  	22,683583  	30,094069  	26,295408  	1256,670793  	70,370599  	64,279996  	0,007549  	0,008794  	0,003965  	0,004245  	0,004387  	-0,000000  	-0,000000  	26,047915  	24,300232  	25,190878  	25,145824  	28,270571  	26,942089  	28,167554  	27,932519  	31,033214  	30,116402  	32,871762  	58,317246  	28,122887  	27,529607  	27,512055  	63,573841  	0,204803  	0,103775  	-3215,398348  	25495,975336  	-0,018516  	-0,050006  	0,332502  	0,168481  	-4,296233  	10313,646020  	77383,633092  	11,223547  	-0,047957  
264,567000  	22,717790  	30,079544  	26,296146  	57,696365  	70,373839  	64,288143  	0,007546  	0,008514  	0,003963  	0,004202  	0,004351  	0,000001  	-0,000000  	26,038616  	24,302661  	25,196593  	25,144455  	28,264110  	26,941638  	28,167582  	27,919983  	31,026000  	30,127674  	32,865981  	58,325608  	28,127438  	27,539591  	27,510993  	63,568701  	0,170274  	0,086279  	-2655,714159  	1697,191656  	-0,053725  	-0,049993  	0,303888  	0,153982  	-3,923353  	9709,591718  	77336,698005  	11,216740  	-0,047946  
265,567000  	22,715917  	30,077605  	26,295900  	-242,047242  	70,375210  	64,318396  	0,007557  	0,008711  	0,003963  	0,004274  	0,004371  	0,000000  	-0,000000  	26,041374  	24,295896  	25,194052  	25,141748  	28,275456  	26,938122  	28,162966  	27,923908  	31,027188  	30,122748  	32,874079  	58,322205  	28,126410  	27,548421  	27,513251  	63,570174  	0,228301  	0,115682  	-3560,708790  	-27100,592090  	-0,102451  	-0,049997  	0,320097  	0,162196  	-4,113021  	10134,986864  	77558,190380  	11,248864  	-0,047949  
266,567000  	22,733235  	30,088437  	26,296945  	357,439972  	70,375646  	64,333508  	0,007554  	0,008679  	0,003962  	0,004290  	0,004417  	-0,000000  	-0,000000  	26,040126  	24,299151  	25,192872  	25,137247  	28,266406  	26,942254  	28,161169  	27,922436  	31,030931  	30,128698  	32,873626  	58,317592  	28,127427  	27,555587  	27,523326  	63,576904  	0,241754  	0,122498  	-3767,200712  	12431,237680  	-0,036415  	-0,050001  	0,356800  	0,180793  	-4,573530  	10065,805706  	77511,318843  	11,242066  	-0,047952  
267,568000  	22,742447  	30,106993  	26,297591  	357,439972  	70,376518  	64,337923  	0,007550  	0,008463  	0,003964  	0,004285  	0,004328  	0,000000  	-0,000000  	26,035675  	24,289163  	25,185051  	25,133282  	28,271798  	26,937061  	28,165917  	27,919549  	31,028649  	30,126331  	32,865368  	58,315914  	28,116684  	27,539472  	27,512374  	63,568029  	0,237397  	0,120291  	-3704,006028  	12430,441753  	-0,036413  	-0,049997  	0,286374  	0,145108  	-3,668649  	9599,562619  	77412,421170  	11,227722  	-0,047949  
268,564000  	22,699826  	30,117395  	26,297960  	-242,047242  	70,376082  	64,352786  	0,007544  	0,008440  	0,003961  	0,004341  	0,004365  	0,000001  	-0,000000  	26,037418  	24,294620  	25,189027  	25,150209  	28,273499  	26,940847  	28,171629  	27,921913  	31,030731  	30,130068  	32,871931  	58,324994  	28,122725  	27,554573  	27,512233  	63,577414  	0,283200  	0,143499  	-4450,475597  	-27098,135862  	-0,102441  	-0,049992  	0,315470  	0,159851  	-4,031149  	9549,678470  	77291,090403  	11,210125  	-0,047945  
269,567000  	22,661720  	30,129427  	26,299927  	956,927186  	70,372593  	64,334782  	0,007558  	0,008649  	0,003960  	0,004254  	0,004332  	-0,000001  	-0,000000  	26,039005  	24,298693  	25,197213  	25,143719  	28,277578  	26,938049  	28,158495  	27,920187  	31,024332  	30,132707  	32,873377  	58,323394  	28,112954  	27,560693  	27,514101  	63,580945  	0,212239  	0,107543  	-3357,891758  	22440,289471  	-0,022146  	-0,050010  	0,289020  	0,146449  	-3,702065  	10002,183660  	77596,539178  	11,254426  	-0,047960  
270,565000  	22,640471  	30,137982  	26,300972  	-242,047242  	70,367983  	64,319671  	0,007556  	0,008361  	0,003967  	0,004297  	0,004389  	0,000001  	-0,000000  	26,035381  	24,296024  	25,189752  	25,131387  	28,270727  	26,933176  	28,158485  	27,917825  	31,022269  	30,125575  	32,865230  	58,323380  	28,098368  	27,549634  	27,510552  	63,583442  	0,247103  	0,125209  	-3925,081293  	-27097,154025  	-0,102437  	-0,049990  	0,334015  	0,169248  	-4,285833  	9379,813577  	77554,815177  	11,248375  	-0,047943  
271,563000  	22,641669  	30,132627  	26,301617  	657,183579  	70,362905  	64,309690  	0,007546  	0,008385  	0,003963  	0,004243  	0,004366  	-0,000000  	-0,000000  	26,037875  	24,299851  	25,189657  	25,134862  	28,273088  	26,938071  	28,167155  	27,914997  	31,028285  	30,123386  	32,870694  	58,323430  	28,102863  	27,547531  	27,517065  	63,577305  	0,203401  	0,103065  	-3228,074490  	18398,984786  	-0,027540  	-0,050003  	0,316034  	0,160137  	-4,058396  	9431,315656  	77338,223201  	11,216961  	-0,047954  
272,565000  	22,685333  	30,114594  	26,302970  	1256,670793  	70,359977  	64,293335  	0,007551  	0,008762  	0,003962  	0,004277  	0,004376  	-0,000000  	-0,000000  	26,038852  	24,299574  	25,194420  	25,139422  	28,276458  	26,938347  	28,166805  	27,920815  	31,024911  	30,128696  	32,873101  	58,324103  	28,104233  	27,553982  	27,523737  	63,571072  	0,230773  	0,116935  	-3632,319165  	25493,940245  	-0,018514  	-0,050002  	0,323853  	0,164099  	-4,168026  	10244,984128  	77434,105787  	11,230868  	-0,047953  
273,565000  	22,719847  	30,091637  	26,303523  	-242,047242  	70,359696  	64,270948  	0,007549  	0,008346  	0,003962  	0,004239  	0,004348  	0,000000  	-0,000000  	26,041240  	24,300544  	25,191578  	25,144283  	28,276742  	26,940872  	28,164847  	27,926169  	31,027497  	30,130936  	32,880084  	58,333335  	28,104780  	27,558663  	27,522517  	63,573184  	0,200209  	0,101448  	-3126,862420  	-27100,794890  	-0,102449  	-0,049998  	0,301894  	0,152972  	-3,899554  	9348,064101  	77389,973954  	11,224467  	-0,047949  
274,567000  	22,770329  	30,076805  	26,305122  	357,439972  	70,354837  	64,269518  	0,007556  	0,008492  	0,003964  	0,004301  	0,004324  	-0,000000  	-0,000000  	26,046954  	24,303166  	25,194715  	25,146203  	28,275345  	26,941387  	28,163044  	27,924992  	31,037003  	30,129541  	32,882208  	58,333262  	28,104706  	27,561570  	27,526419  	63,570529  	0,250849  	0,127107  	-3883,024397  	12432,016332  	-0,036418  	-0,050006  	0,282566  	0,143178  	-3,647834  	9661,688417  	77544,216476  	11,246838  	-0,047957  
275,563000  	22,794650  	30,075882  	26,305398  	1256,670793  	70,344962  	64,265538  	0,007549  	0,008354  	0,003961  	0,004228  	0,004355  	0,000000  	-0,000000  	26,039636  	24,298771  	25,195512  	25,133005  	28,272470  	26,930436  	28,157819  	27,919512  	31,033548  	30,125826  	32,869831  	58,322233  	28,097866  	27,559697  	27,523727  	63,558797  	0,191651  	0,097111  	-2956,418829  	25491,557966  	-0,018513  	-0,049997  	0,307800  	0,155965  	-3,969751  	9364,938107  	77396,230083  	11,225374  	-0,047949  
276,565000  	22,791333  	30,086160  	26,306320  	1256,670793  	70,338420  	64,270078  	0,007550  	0,008508  	0,003963  	0,004300  	0,004333  	-0,000000  	-0,000000  	26,027078  	24,293191  	25,184113  	25,119632  	28,268848  	26,925717  	28,151228  	27,915264  	31,023826  	30,117639  	32,863490  	58,315060  	28,094384  	27,554097  	27,508996  	63,549539  	0,249945  	0,126649  	-3862,855427  	25493,919530  	-0,018514  	-0,050002  	0,289940  	0,146915  	-3,732591  	9697,395346  	77424,799266  	11,229518  	-0,047953  
277,571000  	22,754853  	30,108963  	26,307888  	57,696365  	70,336956  	64,258076  	0,007548  	0,008461  	0,003964  	0,004360  	0,004339  	0,000000  	-0,000000  	26,031159  	24,295256  	25,182634  	25,129693  	28,265828  	26,934022  	28,153949  	27,920469  	31,027309  	30,116827  	32,868482  	58,316562  	28,097440  	27,557486  	27,509761  	63,551146  	0,298000  	0,150999  	-4642,985861  	1696,596967  	-0,053726  	-0,049996  	0,294730  	0,149342  	-3,800837  	9595,465799  	77368,430558  	11,221342  	-0,047948  
278,564000  	22,740912  	30,126196  	26,309302  	1256,670793  	70,341068  	64,246323  	0,007556  	0,008441  	0,003962  	0,004314  	0,004340  	-0,000001  	-0,000000  	26,040726  	24,300334  	25,189350  	25,142091  	28,272451  	26,938792  	28,164674  	27,923413  	31,035896  	30,126009  	32,874094  	58,328608  	28,102489  	27,565261  	27,521366  	63,556425  	0,260680  	0,132089  	-4078,746558  	25495,850385  	-0,018516  	-0,050007  	0,295614  	0,149790  	-3,822184  	9552,979413  	77536,385724  	11,245702  	-0,047957  
279,567000  	22,754822  	30,134228  	26,310685  	357,439972  	70,342220  	64,242094  	0,007554  	0,008591  	0,003964  	0,004271  	0,004346  	0,000001  	-0,000000  	26,040460  	24,293992  	25,187567  	25,128252  	28,275364  	26,931748  	28,156304  	27,915875  	31,026536  	30,122747  	32,865181  	58,326585  	28,100472  	27,559415  	27,519947  	63,549707  	0,225875  	0,114453  	-3531,346163  	12426,773521  	-0,036403  	-0,049984  	0,299926  	0,151975  	-3,881364  	9876,952251  	77510,478573  	11,241944  	-0,047937  
280,564000  	22,789829  	30,133920  	26,310808  	956,927186  	70,343093  	64,234632  	0,007554  	0,008420  	0,003963  	0,004325  	0,004334  	0,000001  	-0,000000  	26,032849  	24,290192  	25,180167  	25,124726  	28,268096  	26,927294  	28,152021  	27,908218  	31,019727  	30,114831  	32,866089  	58,318472  	28,100942  	27,547404  	27,510200  	63,543225  	0,269661  	0,136639  	-4195,716213  	22432,362012  	-0,022138  	-0,049991  	0,290841  	0,147371  	-3,768928  	9506,986925  	77511,537737  	11,242098  	-0,047944  
281,566000  	22,832144  	30,125057  	26,311331  	956,927186  	70,349261  	64,248406  	0,007556  	0,008806  	0,003961  	0,004298  	0,004385  	-0,000001  	-0,000000  	26,029668  	24,283599  	25,175986  	25,127602  	28,257065  	26,926970  	28,150226  	27,912494  	31,013037  	30,107805  	32,865190  	58,314931  	28,101014  	27,537213  	27,512545  	63,543627  	0,248377  	0,125854  	-3837,608637  	22440,776233  	-0,022147  	-0,050012  	0,330968  	0,167704  	-4,283592  	10340,061352  	77542,486509  	11,246587  	-0,047962  
282,569000  	22,830363  	30,123949  	26,312622  	357,439972  	70,351815  	64,256925  	0,007558  	0,008341  	0,003963  	0,004266  	0,004339  	0,000000  	-0,000000  	26,041003  	24,286865  	25,184245  	25,136157  	28,271224  	26,928717  	28,157012  	27,918745  	31,030278  	30,123408  	32,873079  	58,323677  	28,112986  	27,541902  	27,522536  	63,545218  	0,222221  	0,112601  	-3433,800527  	12429,231252  	-0,036411  	-0,049995  	0,294470  	0,149210  	-3,807491  	9336,772553  	77584,019859  	11,252611  	-0,047947  
283,567000  	22,825112  	30,134105  	26,312714  	1256,670793  	70,348513  	64,256832  	0,007548  	0,008410  	0,003962  	0,004300  	0,004352  	-0,000000  	-0,000000  	26,039081  	24,291310  	25,184378  	25,136787  	28,267244  	26,927515  	28,157743  	27,921996  	31,024437  	30,119297  	32,870762  	58,331431  	28,125617  	27,530379  	27,524433  	63,560838  	0,249680  	0,126515  	-3866,254793  	25494,470495  	-0,018515  	-0,050004  	0,304949  	0,154520  	-3,940909  	9486,461082  	77382,171446  	11,223335  	-0,047955  
284,565000  	22,815531  	30,151461  	26,313698  	1256,670793  	70,351753  	64,262864  	0,007551  	0,008512  	0,003958  	0,004250  	0,004356  	-0,000001  	-0,000000  	26,041061  	24,289157  	25,187843  	25,139736  	28,273514  	26,934412  	28,161725  	27,925195  	31,025517  	30,119239  	32,870249  	58,324315  	28,121128  	27,529366  	27,518339  	63,549056  	0,209335  	0,106072  	-3253,463443  	25498,668855  	-0,018518  	-0,050013  	0,308255  	0,156195  	-3,981809  	9706,490274  	77440,072411  	11,231733  	-0,047963  
285,564000  	22,773308  	30,168017  	26,313882  	57,696365  	70,351254  	64,273529  	0,007553  	0,008574  	0,003963  	0,004307  	0,004317  	0,000001  	-0,000000  	26,043573  	24,295190  	25,186024  	25,138784  	28,260489  	26,932970  	28,158776  	27,918523  	31,028873  	30,126032  	32,870470  	58,326131  	28,117661  	27,516776  	27,522013  	63,561879  	0,255505  	0,129466  	-4002,866833  	1696,201839  	-0,053724  	-0,049994  	0,277540  	0,140631  	-3,578481  	9840,027808  	77480,024077  	11,237527  	-0,047946  
286,566000  	22,767289  	30,174356  	26,313759  	1256,670793  	70,354245  	64,276141  	0,007556  	0,008483  	0,003961  	0,004313  	0,004366  	-0,000000  	-0,000000  	26,042787  	24,287092  	25,178024  	25,126134  	28,267744  	26,933954  	28,143863  	27,920922  	31,018275  	30,121816  	32,864414  	58,328815  	28,114447  	27,508037  	27,517472  	63,541747  	0,260157  	0,131824  	-4082,560610  	25493,225101  	-0,018514  	-0,050001  	0,315812  	0,160024  	-4,072210  	9643,393153  	77551,800091  	11,247938  	-0,047953  
287,566000  	22,777146  	30,176203  	26,314681  	1256,670793  	70,361783  	64,270637  	0,007550  	0,008594  	0,003962  	0,004253  	0,004308  	-0,000000  	-0,000000  	26,042171  	24,291552  	25,189804  	25,134916  	28,271441  	26,941857  	28,167395  	27,927380  	31,034118  	30,123670  	32,866324  	58,324849  	28,117287  	27,500983  	27,523074  	63,552360  	0,211435  	0,107136  	-3314,385921  	25494,854847  	-0,018515  	-0,050005  	0,270146  	0,136885  	-3,490843  	9881,980071  	77413,600372  	11,227893  	-0,047956  
288,565000  	22,788140  	30,170233  	26,314435  	1256,670793  	70,365833  	64,271259  	0,007553  	0,008368  	0,003963  	0,004298  	0,004369  	0,000002  	-0,000000  	26,029022  	24,288131  	25,185124  	25,132229  	28,261477  	26,920983  	28,151844  	27,913880  	31,018676  	30,117029  	32,865293  	58,311331  	28,110952  	27,501493  	27,516294  	63,543388  	0,248333  	0,125832  	-3883,861756  	25482,478371  	-0,018506  	-0,049978  	0,318388  	0,161329  	-4,116537  	9394,418095  	77469,375948  	11,235983  	-0,047932  
289,565000  	22,770053  	30,164293  	26,316095  	956,927186  	70,372842  	64,271726  	0,007559  	0,008449  	0,003962  	0,004254  	0,004370  	-0,000000  	-0,000000  	26,034387  	24,284992  	25,183807  	25,134602  	28,271155  	26,930892  	28,154769  	27,917278  	31,024724  	30,119226  	32,864096  	58,322034  	28,115876  	27,517926  	27,516333  	63,542915  	0,212579  	0,107715  	-3330,147453  	22437,591468  	-0,022144  	-0,050005  	0,319328  	0,161806  	-4,133134  	9569,543557  	77606,431770  	11,255861  	-0,047955  
290,565000  	22,772387  	30,160847  	26,315419  	-242,047242  	70,376705  	64,267746  	0,007555  	0,008432  	0,003963  	0,004281  	0,004402  	0,000001  	-0,000000  	26,042563  	24,298906  	25,186430  	25,136321  	28,273531  	26,942728  	28,166572  	27,933897  	31,036487  	30,125582  	32,873558  	58,320337  	28,120468  	27,530988  	27,517467  	63,553847  	0,234586  	0,118866  	-3672,022723  	-27098,241709  	-0,102435  	-0,049992  	0,344784  	0,174705  	-4,468344  	9533,320900  	77522,969647  	11,243756  	-0,047944  
291,564000  	22,783994  	30,159185  	26,315880  	-242,047242  	70,378107  	64,256832  	0,007551  	0,008475  	0,003961  	0,004315  	0,004324  	0,000000  	-0,000000  	26,042932  	24,293763  	25,185169  	25,143418  	28,275006  	26,941604  	28,160896  	27,929079  	31,029454  	30,121517  	32,867635  	58,322316  	28,121308  	27,533817  	27,518860  	63,543932  	0,262064  	0,132790  	-4094,771987  	-27101,490219  	-0,102447  	-0,049998  	0,282800  	0,143297  	-3,672425  	9626,167546  	77446,801633  	11,232709  	-0,047950  
292,567000  	22,752919  	30,155123  	26,316249  	956,927186  	70,380786  	64,259568  	0,007554  	0,008400  	0,003963  	0,004341  	0,004333  	-0,000002  	-0,000000  	26,039524  	24,290793  	25,184926  	25,144245  	28,270348  	26,940225  	28,155141  	27,922653  	31,027524  	30,126160  	32,866364  	58,322507  	28,114107  	27,527348  	27,511654  	63,546167  	0,282865  	0,143330  	-4435,991749  	22443,495563  	-0,022149  	-0,050019  	0,290111  	0,147001  	-3,767332  	9463,662923  	77493,651987  	11,239504  	-0,047968  
293,565000  	22,710727  	30,148999  	26,317171  	1256,670793  	70,382873  	64,258014  	0,007552  	0,008441  	0,003962  	0,004253  	0,004316  	-0,000000  	-0,000000  	26,037850  	24,283218  	25,182179  	25,131719  	28,264620  	26,931977  	28,154593  	27,911982  	31,026269  	30,122012  	32,867873  	58,310923  	28,113433  	27,521216  	27,514607  	63,543779  	0,211969  	0,107406  	-3340,382646  	25495,313754  	-0,018516  	-0,050006  	0,276875  	0,140294  	-3,597585  	9552,828727  	77466,276128  	11,235533  	-0,047957  
294,564000  	22,699243  	30,151338  	26,318339  	1256,670793  	70,380942  	64,251671  	0,007559  	0,008564  	0,003963  	0,004288  	0,004332  	0,000000  	-0,000000  	26,038658  	24,290674  	25,185144  	25,133633  	28,273647  	26,937481  	28,158490  	27,915326  	31,027071  	30,126892  	32,870870  	58,311061  	28,116996  	27,519203  	27,513367  	63,540796  	0,239852  	0,121535  	-3786,820076  	25490,980426  	-0,018513  	-0,049997  	0,289497  	0,146690  	-3,764303  	9817,819658  	77605,838638  	11,255775  	-0,047949  
295,565000  	22,712140  	30,144691  	26,318339  	1256,670793  	70,383839  	64,251329  	0,007552  	0,008466  	0,003963  	0,004276  	0,004396  	0,000000  	-0,000000  	26,044963  	24,297838  	25,195503  	25,145394  	28,280141  	26,944296  	28,162215  	27,938668  	31,028548  	30,131271  	32,873336  	58,319176  	28,121138  	27,513728  	27,523954  	63,545022  	0,229879  	0,116481  	-3619,830699  	25490,315844  	-0,018512  	-0,049995  	0,339950  	0,172255  	-4,422678  	9605,477577  	77449,809659  	11,233145  	-0,047947  
296,565000  	22,726326  	30,130412  	26,319261  	1256,670793  	70,387265  	64,257796  	0,007552  	0,008564  	0,003963  	0,004259  	0,004342  	-0,000000  	-0,000000  	26,050576  	24,295927  	25,194717  	25,140180  	28,281343  	26,939296  	28,164800  	27,932364  	31,031142  	30,125273  	32,869285  	58,322102  	28,117290  	27,505607  	27,515244  	63,549592  	0,216656  	0,109781  	-3398,554445  	25492,772577  	-0,018514  	-0,050001  	0,297128  	0,150557  	-3,863658  	9818,274546  	77449,760231  	11,233138  	-0,047952  
297,565000  	22,741281  	30,115148  	26,320276  	1256,670793  	70,388916  	64,262802  	0,007549  	0,008422  	0,003964  	0,004311  	0,004351  	-0,000001  	-0,000000  	26,048842  	24,297818  	25,199617  	25,141317  	28,282560  	26,936458  	28,166602  	27,926404  	31,035300  	30,127424  	32,871835  	58,322124  	28,121258  	27,495246  	27,504497  	63,559458  	0,258439  	0,130953  	-4037,423687  	25497,248062  	-0,018517  	-0,050011  	0,304435  	0,154259  	-3,956504  	9511,067474  	77387,241311  	11,224070  	-0,047961  
298,566000  	22,745395  	30,111086  	26,320214  	1256,670793  	70,386487  	64,275239  	0,007557  	0,008392  	0,003963  	0,004235  	0,004386  	-0,000001  	-0,000000  	26,044462  	24,302109  	25,197152  	25,144313  	28,276165  	26,935710  	28,167014  	27,926705  	31,031784  	30,127467  	32,876397  	58,322646  	28,121793  	27,485748  	27,505419  	63,564373  	0,197141  	0,099893  	-3076,392865  	25495,896623  	-0,018516  	-0,050008  	0,332028  	0,168241  	-4,304643  	9446,998322  	77564,269981  	11,249746  	-0,047958  
299,563000  	22,772203  	30,115610  	26,320307  	357,439972  	70,387234  	64,279996  	0,007553  	0,008471  	0,003963  	0,004264  	0,004304  	-0,000000  	-0,000000  	26,048193  	24,303492  	25,192358  	25,146068  	28,279102  	26,941123  	28,166276  	27,924923  	31,030778  	30,125762  	32,875454  	58,321578  	28,125887  	27,477732  	27,509258  	63,565235  	0,220737  	0,111849  	-3434,184548  	12430,100837  	-0,036414  	-0,050001  	0,267314  	0,135450  	-3,463376  	9618,219389  	77477,905749  	11,237220  	-0,047952  
300,564000  	22,797874  	30,122811  	26,320429  	956,927186  	70,392218  	64,269425  	0,007548  	0,008436  	0,003963  	0,004333  	0,004364  	-0,000000  	-0,000000  	26,057907  	24,304360  	25,199474  	25,148978  	28,288184  	26,949282  	28,169679  	27,927936  	31,037745  	30,131524  	32,881420  	58,325490  	28,132101  	27,476880  	27,519893  	63,576348  	0,276133  	0,139919  	-4285,206094  	22436,050704  	-0,022142  	-0,050001  	0,314507  	0,159363  	-4,085196  	9541,647541  	77373,034391  	11,222010  	-0,047952  
301,564000  	22,790289  	30,123980  	26,322089  	1256,670793  	70,394524  	64,272658  	0,007553  	0,008462  	0,003962  	0,004230  	0,004354  	0,000000  	-0,000000  	26,053567  	24,302514  	25,196694  	25,143920  	28,281466  	26,948371  	28,164409  	27,927758  	31,038063  	30,130519  	32,881724  	58,325806  	28,127300  	27,470962  	27,522260  	63,578699  	0,193167  	0,097879  	-3001,273427  	25491,183870  	-0,018513  	-0,049997  	0,306249  	0,155179  	-3,977328  	9598,741274  	77485,397569  	11,238307  	-0,047949  
302,564000  	22,781200  	30,130504  	26,321106  	657,183579  	70,396580  	64,271912  	0,007554  	0,008442  	0,003963  	0,004280  	0,004337  	0,000000  	-0,000000  	26,044723  	24,305233  	25,191676  	25,141909  	28,278412  	26,944729  	28,160697  	27,926488  	31,036576  	30,127416  	32,872691  	58,320448  	28,129707  	27,460392  	27,514746  	63,571863  	0,233838  	0,118487  	-3640,915653  	18395,859493  	-0,027536  	-0,049996  	0,293227  	0,148580  	-3,809944  	9555,773826  	77491,025260  	11,239123  	-0,047948  
