06/18/2020 10:31:15
Tempo T_f_e T_f_s AR AR T_q_e T_q_s Corrente_P_f Corrente_P_q Corrente_P_RESERVA Corrente_eletromag_f Corrente_eletromag_q AR AR T_1 T_2 T_3 T_4 T_5 T_6 T_7 T_8 T_9 T_10 T_11 T_12 T_13 T_14 T_15 T_16 Velocidade_f_(m/s) Vazao_f_(L/s) q_f_(W) AR AR AR Velocidade_q_(m/s) Vazao_q_(L/s) q_q_(W) DeltaP_q_(Pa) DeltaP_f_(Pa) DeltaP_f_(Psi) AR
0,008000  	19,242017  	31,742125  	22,597320  	57,696365  	70,183447  	62,528746  	0,004969  	0,006328  	0,003962  	0,004179  	0,004228  	0,000001  	-0,000000  	24,342006  	21,452880  	22,330901  	23,142851  	27,400306  	26,042311  	27,405364  	27,847601  	32,418976  	31,301317  	34,545051  	56,627390  	24,344204  	23,685787  	25,890797  	61,405913  	0,151284  	0,076657  	-4007,510730  	1907,665644  	-0,054039  	-0,049990  	0,206577  	0,104674  	-3,353926  	4997,060929  	21796,369311  	3,161296  	-0,047943  
2,566000  	19,238029  	31,742495  	22,598978  	657,183579  	70,185502  	62,545963  	0,004979  	0,006338  	0,003965  	0,004108  	0,004236  	-0,000000  	-0,000000  	24,349833  	21,459838  	22,346843  	23,140373  	27,396291  	26,046144  	27,400133  	27,834974  	32,408163  	31,307222  	34,537532  	56,621074  	24,346804  	23,677082  	25,895163  	61,394873  	0,094509  	0,047888  	-2504,422687  	18556,524122  	-0,027623  	-0,050003  	0,212949  	0,107903  	-3,450540  	5017,189186  	22013,992207  	3,192860  	-0,047954  
3,564000  	19,236833  	31,747020  	22,600728  	-242,047242  	70,191452  	62,534775  	0,004974  	0,006335  	0,003960  	0,004109  	0,004237  	-0,000000  	-0,000000  	24,356089  	21,461816  	22,344126  	23,151345  	27,398051  	26,050953  	27,402018  	27,842089  	32,423328  	31,306435  	34,539654  	56,616381  	24,347884  	23,688102  	25,902041  	61,398041  	0,095196  	0,048237  	-2523,790541  	-27025,155721  	-0,103616  	-0,050001  	0,214039  	0,108455  	-3,475976  	5010,277437  	21918,229660  	3,178970  	-0,047952  
4,562000  	19,227508  	31,749914  	22,602202  	-242,047242  	70,197682  	62,526074  	0,004969  	0,006328  	0,003968  	0,004106  	0,004232  	0,000000  	-0,000000  	24,345186  	21,450107  	22,339545  	23,140908  	27,390914  	26,036306  	27,404990  	27,839096  	32,406330  	31,297857  	34,530146  	56,620681  	24,358263  	23,691670  	25,885117  	61,389806  	0,092407  	0,046823  	-2452,228662  	-27024,199189  	-0,103611  	-0,049999  	0,209980  	0,106398  	-3,416706  	4996,519732  	21810,399704  	3,163331  	-0,047950  
5,683000  	19,229563  	31,744034  	22,602969  	57,696365  	70,201545  	62,532165  	0,004983  	0,006324  	0,003966  	0,004156  	0,004183  	-0,000001  	-0,000000  	24,347145  	21,458818  	22,334420  	23,151507  	27,394097  	26,043764  	27,405977  	27,835045  	32,412604  	31,303560  	34,530842  	56,629728  	24,363258  	23,700658  	25,885736  	61,393261  	0,132809  	0,067295  	-3522,153826  	1907,921667  	-0,054055  	-0,050007  	0,171048  	0,086671  	-2,782417  	4986,764758  	22105,405121  	3,206118  	-0,047957  
6,614000  	19,235207  	31,742187  	22,601802  	1256,670793  	70,203912  	62,518305  	0,004968  	0,006324  	0,003963  	0,004169  	0,004256  	-0,000000  	-0,000000  	24,347987  	21,458736  	22,345836  	23,154634  	27,402699  	26,044826  	27,403134  	27,839594  	32,423694  	31,309341  	34,532208  	56,640927  	24,372872  	23,713641  	25,897992  	61,401745  	0,143653  	0,072790  	-3807,457476  	25614,693086  	-0,018553  	-0,050004  	0,228956  	0,116014  	-3,732277  	4986,567380  	21777,134893  	3,158506  	-0,047955  
7,562000  	19,229317  	31,740616  	22,602816  	357,439972  	70,205002  	62,516409  	0,004984  	0,006337  	0,003969  	0,004095  	0,004262  	0,000000  	-0,000000  	24,341533  	21,454877  	22,342014  	23,148125  	27,412132  	26,054789  	27,397666  	27,839288  	32,416435  	31,311118  	34,528750  	56,638659  	24,383468  	23,730108  	25,896828  	61,410241  	0,083204  	0,042160  	-2206,065475  	12615,067856  	-0,036557  	-0,049997  	0,233633  	0,118384  	-3,809991  	5014,996103  	22134,263810  	3,210304  	-0,047948  
8,563000  	19,216557  	31,734767  	22,603430  	-242,047242  	70,209425  	62,531574  	0,004963  	0,006336  	0,003962  	0,004178  	0,004219  	0,000001  	-0,000000  	24,340330  	21,459501  	22,339019  	23,139199  	27,408212  	26,057348  	27,398841  	27,830014  	32,415227  	31,311835  	34,533619  	56,628232  	24,391041  	23,729706  	25,896316  	61,403389  	0,150589  	0,076305  	-3994,899583  	-27017,963389  	-0,103587  	-0,049986  	0,200067  	0,101376  	-3,258065  	5013,272057  	21667,539664  	3,142611  	-0,047939  
9,562000  	19,209839  	31,735998  	22,604075  	956,927186  	70,208647  	62,545000  	0,004984  	0,006332  	0,003964  	0,004180  	0,004250  	-0,000001  	-0,000000  	24,342754  	21,452009  	22,341100  	23,129052  	27,402053  	26,053233  	27,402749  	27,826803  	32,412552  	31,313477  	34,537447  	56,631557  	24,389119  	23,740048  	25,897327  	61,406401  	0,152668  	0,077358  	-4052,631730  	22577,266015  	-0,022201  	-0,050012  	0,223947  	0,113476  	-3,640198  	5004,015832  	22128,925623  	3,209529  	-0,047962  
10,563000  	19,195176  	31,737846  	22,603706  	357,439972  	70,206466  	62,558300  	0,004964  	0,006328  	0,003963  	0,004142  	0,004262  	0,000001  	-0,000000  	24,359314  	21,462023  	22,348104  	23,135681  	27,408804  	26,063869  	27,406817  	27,834950  	32,418831  	31,322330  	34,550795  	56,641590  	24,403333  	23,752054  	25,897288  	61,414116  	0,121579  	0,061605  	-3231,626099  	12613,745467  	-0,036554  	-0,049991  	0,233862  	0,118500  	-3,793696  	4996,902461  	21706,227394  	3,148222  	-0,047944  
11,565000  	19,185330  	31,740432  	22,602969  	1256,670793  	70,203507  	62,559046  	0,004979  	0,006334  	0,003963  	0,004151  	0,004232  	0,000001  	-0,000000  	24,353810  	21,468694  	22,341624  	23,130093  	27,400531  	26,060641  	27,401853  	27,832229  	32,408893  	31,323691  	34,548159  	56,640292  	24,402083  	23,747396  	25,897755  	61,406764  	0,128704  	0,065215  	-3424,403845  	25606,385544  	-0,018547  	-0,049986  	0,210179  	0,106499  	-3,407850  	5009,753220  	22029,547796  	3,195116  	-0,047939  
12,563000  	19,183489  	31,741540  	22,602846  	1256,670793  	70,198336  	62,544689  	0,004972  	0,006333  	0,003967  	0,004142  	0,004243  	0,000000  	-0,000000  	24,341147  	21,460625  	22,330513  	23,123666  	27,387391  	26,043831  	27,395927  	27,829014  	32,394643  	31,317496  	34,532716  	56,631346  	24,390869  	23,744155  	25,890741  	61,401893  	0,121473  	0,061552  	-3232,771391  	25612,665379  	-0,018551  	-0,049999  	0,218389  	0,110659  	-3,545218  	5006,917776  	21858,987087  	3,170378  	-0,047951  
13,649000  	19,182539  	31,740216  	22,603000  	956,927186  	70,191982  	62,538753  	0,004972  	0,006329  	0,003962  	0,004180  	0,004236  	-0,000001  	-0,000000  	24,349203  	21,462520  	22,337899  	23,130835  	27,396640  	26,044823  	27,400150  	27,837992  	32,401382  	31,317713  	34,540850  	56,632682  	24,404656  	23,751605  	25,895485  	61,413850  	0,152713  	0,077381  	-4064,040721  	22575,361748  	-0,022199  	-0,050008  	0,212966  	0,107911  	-3,456994  	4997,724513  	21864,162868  	3,171129  	-0,047958  
14,563000  	19,178183  	31,741325  	22,601403  	357,439972  	70,187184  	62,538753  	0,004982  	0,006336  	0,003963  	0,004135  	0,004279  	0,000000  	-0,000000  	24,347192  	21,460503  	22,335320  	23,128035  	27,392967  	26,040603  	27,399911  	27,840504  	32,402125  	31,312404  	34,544771  	56,625100  	24,414264  	23,753127  	25,896119  	61,409407  	0,116059  	0,058808  	-3089,935671  	12614,766452  	-0,036556  	-0,049995  	0,246871  	0,125092  	-4,004858  	5013,837306  	22092,730459  	3,204280  	-0,047947  
15,563000  	19,174226  	31,736152  	22,601403  	357,439972  	70,181889  	62,544906  	0,004968  	0,006326  	0,003966  	0,004111  	0,004252  	0,000001  	-0,000000  	24,339367  	21,453547  	22,327887  	23,121495  	27,378223  	26,039067  	27,394493  	27,835972  	32,399115  	31,300686  	34,534347  	56,617627  	24,413119  	23,757893  	25,890542  	61,401421  	0,096922  	0,049111  	-2580,193404  	12613,669832  	-0,036553  	-0,049990  	0,225542  	0,114284  	-3,653367  	4991,243599  	21780,665440  	3,159018  	-0,047943  
16,564000  	19,190177  	31,730733  	22,601280  	956,927186  	70,178400  	62,544720  	0,004986  	0,006333  	0,003964  	0,004196  	0,004216  	-0,000001  	-0,000000  	24,345037  	21,460083  	22,334128  	23,130412  	27,384417  	26,045798  	27,396925  	27,837285  	32,406965  	31,301445  	34,534957  	56,624522  	24,424480  	23,770868  	25,897536  	61,415659  	0,165635  	0,083928  	-4401,897934  	22577,610348  	-0,022201  	-0,050013  	0,197285  	0,099966  	-3,194283  	5006,756478  	22173,226922  	3,215955  	-0,047963  
17,563000  	19,199011  	31,728209  	22,601250  	57,696365  	70,176064  	62,533719  	0,004965  	0,006333  	0,003964  	0,004138  	0,004272  	-0,000001  	-0,000000  	24,338416  	21,457083  	22,328450  	23,134636  	27,389370  	26,033989  	27,395929  	27,835418  	32,404418  	31,300987  	34,529953  	56,617631  	24,434964  	23,777506  	25,898769  	61,408244  	0,118067  	0,059825  	-3134,890250  	1908,342859  	-0,054064  	-0,050016  	0,241958  	0,122602  	-3,922027  	5006,955978  	21728,928809  	3,151515  	-0,047965  
18,565000  	19,208152  	31,729625  	22,601925  	1256,670793  	70,174070  	62,532911  	0,004985  	0,006329  	0,003963  	0,004096  	0,004189  	0,000000  	-0,000000  	24,331356  	21,447190  	22,326176  	23,131106  	27,387769  	26,033429  	27,389404  	27,831683  	32,403484  	31,290660  	34,523727  	56,614170  	24,443448  	23,788804  	25,893967  	61,390219  	0,084458  	0,042795  	-2241,117827  	25612,241400  	-0,018551  	-0,049998  	0,175938  	0,089149  	-2,851434  	4997,989098  	22142,228723  	3,211459  	-0,047950  
19,565000  	19,231802  	31,727039  	22,601833  	1256,670793  	70,176718  	62,525173  	0,004965  	0,006333  	0,003965  	0,004174  	0,004215  	0,000000  	-0,000000  	24,336447  	21,451545  	22,329106  	23,132879  	27,386745  	26,032963  	27,388230  	27,836742  	32,406625  	31,292961  	34,530544  	56,626206  	24,450634  	23,800058  	25,888099  	61,405109  	0,147690  	0,074835  	-3910,781913  	25612,032447  	-0,018551  	-0,049998  	0,196731  	0,099685  	-3,192747  	5006,789728  	21708,444577  	3,148544  	-0,047950  
20,564000  	19,248612  	31,718726  	22,600973  	1256,670793  	70,176531  	62,522314  	0,004981  	0,006332  	0,003965  	0,004121  	0,004301  	0,000000  	-0,000000  	24,334253  	21,442681  	22,321754  	23,125532  	27,389977  	26,040008  	27,384551  	27,840911  	32,405114  	31,295520  	34,535008  	56,628114  	24,469153  	23,809721  	25,890277  	61,404644  	0,104780  	0,053093  	-2768,969610  	25612,103514  	-0,018551  	-0,049998  	0,264797  	0,134174  	-4,298894  	5004,965932  	22054,303989  	3,198706  	-0,047950  
21,562000  	19,254103  	31,712476  	22,602509  	1256,670793  	70,178649  	62,528343  	0,004970  	0,006339  	0,003963  	0,004186  	0,004224  	0,000001  	-0,000000  	24,340014  	21,443570  	22,324464  	23,141226  	27,396661  	26,031796  	27,392698  	27,838114  	32,410722  	31,304473  	34,537849  	56,630153  	24,482368  	23,821956  	25,891141  	61,418048  	0,157101  	0,079604  	-4147,711858  	25609,714736  	-0,018549  	-0,049993  	0,203283  	0,103005  	-3,298556  	5019,865455  	21822,855472  	3,165138  	-0,047945  
22,566000  	19,261281  	31,719311  	22,602816  	1256,670793  	70,179958  	62,520387  	0,004974  	0,006322  	0,003963  	0,004199  	0,004235  	0,000001  	-0,000000  	24,332438  	21,436493  	22,323136  	23,127440  	27,388159  	26,028287  	27,386580  	27,828401  	32,404349  	31,295598  	34,528818  	56,631164  	24,472366  	23,827908  	25,890149  	61,404915  	0,168226  	0,085241  	-4441,297275  	25608,466849  	-0,018548  	-0,049990  	0,212240  	0,107543  	-3,448053  	4982,386373  	21912,884412  	3,178195  	-0,047943  
23,563000  	19,258060  	31,717094  	22,602816  	357,439972  	70,181858  	62,515881  	0,004979  	0,006337  	0,003962  	0,004096  	0,004273  	-0,000001  	-0,000000  	24,331651  	21,442173  	22,322616  	23,120876  	27,384962  	26,031013  	27,377814  	27,816178  	32,393635  	31,296127  	34,515525  	56,626346  	24,472738  	23,829499  	25,893396  	61,403257  	0,084469  	0,042801  	-2230,234230  	12617,670352  	-0,036565  	-0,050008  	0,242235  	0,122742  	-3,938649  	5015,080997  	22019,951770  	3,193724  	-0,047958  
24,566000  	19,246035  	31,712969  	22,602877  	-242,047242  	70,179989  	62,518740  	0,004967  	0,006325  	0,003965  	0,004148  	0,004263  	0,000001  	-0,000000  	24,324004  	21,441208  	22,320600  	23,120100  	27,390909  	26,035361  	27,384126  	27,824129  	32,398547  	31,295853  	34,526760  	56,621622  	24,483248  	23,839424  	25,891835  	61,405434  	0,126766  	0,064233  	-3349,133088  	-27020,077238  	-0,103595  	-0,049990  	0,234186  	0,118664  	-3,805437  	4989,559170  	21752,293967  	3,154904  	-0,047943  
25,564000  	19,242385  	31,716663  	22,601096  	1256,670793  	70,176407  	62,533408  	0,004984  	0,006338  	0,003961  	0,004172  	0,004247  	0,000001  	-0,000000  	24,328753  	21,452180  	22,324069  	23,123983  	27,386252  	26,044628  	27,390666  	27,821093  	32,400380  	31,296266  	34,536194  	56,629200  	24,481122  	23,841906  	25,900387  	61,402111  	0,146354  	0,074159  	-3868,919670  	25609,786872  	-0,018549  	-0,049993  	0,221920  	0,112449  	-3,597528  	5018,545361  	22126,927334  	3,209239  	-0,047945  
26,564000  	19,257354  	31,723190  	22,601526  	1256,670793  	70,173915  	62,536578  	0,004967  	0,006328  	0,003965  	0,004100  	0,004222  	-0,000001  	-0,000000  	24,344686  	21,453715  	22,330303  	23,135092  	27,406155  	26,052130  	27,404124  	27,829062  	32,408535  	31,310813  	34,540259  	56,632119  	24,490986  	23,845125  	25,912008  	61,421176  	0,087839  	0,044508  	-2320,467735  	25619,475541  	-0,018556  	-0,050014  	0,201812  	0,102260  	-3,269143  	4996,020275  	21761,678160  	3,156265  	-0,047964  
27,562000  	19,272815  	31,725407  	22,599960  	357,439972  	70,171080  	62,528560  	0,004983  	0,006326  	0,003962  	0,004124  	0,004208  	-0,000000  	-0,000000  	24,324201  	21,447523  	22,319954  	23,121053  	27,389180  	26,039512  	27,392212  	27,830268  	32,390724  	31,305136  	34,524606  	56,629989  	24,471954  	23,827468  	25,893461  	61,404245  	0,107353  	0,054396  	-2832,961063  	12616,115683  	-0,036560  	-0,050001  	0,190904  	0,096733  	-3,094538  	4992,478800  	22109,076890  	3,206650  	-0,047952  
28,563000  	19,278950  	31,734520  	22,599837  	956,927186  	70,172638  	62,511406  	0,004968  	0,006340  	0,003961  	0,004182  	0,004258  	0,000000  	-0,000000  	24,338121  	21,437933  	22,335970  	23,122862  	27,390319  	26,031289  	27,396371  	27,821689  	32,394496  	31,299887  	34,532494  	56,621776  	24,469062  	23,830559  	25,901635  	61,412417  	0,154199  	0,078134  	-4070,176732  	22570,390478  	-0,022194  	-0,049995  	0,230281  	0,116685  	-3,741964  	5022,567192  	21777,629170  	3,158578  	-0,047947  
29,567000  	19,266833  	31,739293  	22,598978  	57,696365  	70,172731  	62,514172  	0,004982  	0,006319  	0,003967  	0,004130  	0,004303  	-0,000000  	-0,000000  	24,329285  	21,448104  	22,326789  	23,108208  	27,380564  	26,029601  	27,391813  	27,823386  	32,396488  	31,291590  	34,529204  	56,628215  	24,469321  	23,825332  	25,901719  	61,413745  	0,111833  	0,056667  	-2955,912404  	1908,111559  	-0,054054  	-0,050006  	0,266485  	0,135030  	-4,328759  	4977,563713  	22081,305610  	3,202623  	-0,047956  
30,564000  	19,254931  	31,740401  	22,600574  	1256,670793  	70,171797  	62,518025  	0,004968  	0,006337  	0,003965  	0,004110  	0,004222  	0,000001  	-0,000000  	24,330963  	21,446843  	22,327431  	23,124893  	27,371684  	26,035424  	27,395714  	27,826270  	32,391076  	31,291364  	34,527788  	56,626535  	24,471695  	23,835742  	25,902412  	61,409197  	0,095440  	0,048360  	-2525,246118  	25607,735005  	-0,018547  	-0,049988  	0,201735  	0,102220  	-3,274910  	5015,595310  	21778,518867  	3,158707  	-0,047942  
31,567000  	19,257968  	31,742156  	22,601127  	1256,670793  	70,172264  	62,517932  	0,004979  	0,006326  	0,003963  	0,004168  	0,004226  	-0,000000  	-0,000000  	24,324137  	21,450828  	22,321249  	23,123679  	27,379892  	26,032175  	27,389736  	27,830913  	32,398228  	31,283170  	34,524403  	56,619268  	24,470106  	23,838032  	25,903508  	61,415379  	0,142433  	0,072172  	-3768,234991  	25615,287099  	-0,018553  	-0,050005  	0,205544  	0,104150  	-3,336985  	4991,347594  	22026,384426  	3,194657  	-0,047956  
32,565000  	19,278398  	31,743203  	22,600636  	1256,670793  	70,173447  	62,538194  	0,004973  	0,006327  	0,003965  	0,004130  	0,004262  	-0,000001  	-0,000000  	24,330689  	21,440514  	22,326086  	23,126441  	27,380324  	26,030089  	27,390304  	27,832044  	32,402066  	31,289250  	34,521458  	56,631478  	24,478652  	23,836941  	25,901349  	61,407750  	0,112290  	0,056898  	-2966,145101  	25617,677610  	-0,018555  	-0,050010  	0,233745  	0,118440  	-3,785377  	4993,559070  	21899,200013  	3,176210  	-0,047960  
33,566000  	19,298429  	31,739878  	22,600605  	1256,670793  	70,178961  	62,526105  	0,004970  	0,006331  	0,003962  	0,004118  	0,004194  	0,000001  	-0,000000  	24,332332  	21,446716  	22,321412  	23,129202  	27,386599  	26,030652  	27,384302  	27,829290  	32,401569  	31,291999  	34,527870  	56,635591  	24,477769  	23,844748  	25,911492  	61,411019  	0,101869  	0,051618  	-2685,827257  	25605,400722  	-0,018546  	-0,049983  	0,179875  	0,091144  	-2,919699  	5002,730402  	21830,763897  	3,166285  	-0,047937  
34,568000  	19,303275  	31,745419  	22,601342  	657,183579  	70,186437  	62,522811  	0,004981  	0,006339  	0,003961  	0,004169  	0,004214  	0,000000  	-0,000000  	24,324542  	21,430853  	22,317707  	23,131045  	27,382470  	26,027740  	27,381891  	27,823671  	32,400482  	31,287555  	34,524648  	56,633393  	24,477451  	23,842656  	25,899449  	61,403873  	0,143770  	0,072850  	-3790,807411  	18554,982899  	-0,027621  	-0,049999  	0,195549  	0,099086  	-3,178580  	5020,364912  	22053,654368  	3,198612  	-0,047950  
35,563000  	19,306404  	31,748837  	22,599684  	657,183579  	70,187091  	62,522873  	0,004967  	0,006331  	0,003964  	0,004106  	0,004274  	0,000001  	-0,000000  	24,321136  	21,430873  	22,318019  	23,132363  	27,378849  	26,023889  	27,380549  	27,826732  	32,401331  	31,284369  	34,520326  	56,628289  	24,479089  	23,840970  	25,899683  	61,410148  	0,092838  	0,047042  	-2447,920235  	18550,977201  	-0,027615  	-0,049986  	0,243296  	0,123280  	-3,955002  	5002,180009  	21757,596848  	3,155673  	-0,047940  
36,571000  	19,306466  	31,744096  	22,599438  	57,696365  	70,184288  	62,535490  	0,004985  	0,006330  	0,003961  	0,004135  	0,004227  	0,000000  	-0,000000  	24,330225  	21,442132  	22,322361  	23,130122  	27,387737  	26,036945  	27,382763  	27,829065  	32,395151  	31,288015  	34,525393  	56,635789  	24,484277  	23,842763  	25,905676  	61,415695  	0,116339  	0,058950  	-3066,397884  	1907,814277  	-0,054047  	-0,049998  	0,206330  	0,104549  	-3,347343  	4999,488176  	22158,786987  	3,213860  	-0,047950  
37,563000  	19,309932  	31,743357  	22,599377  	-242,047242  	70,181266  	62,520387  	0,004965  	0,006334  	0,003968  	0,004184  	0,004251  	0,000000  	-0,000000  	24,330444  	21,440963  	22,327853  	23,119613  	27,385443  	26,045099  	27,382373  	27,824233  	32,389983  	31,281877  	34,522605  	56,641733  	24,483595  	23,842856  	25,902921  	61,413497  	0,155968  	0,079030  	-4109,529478  	-27023,381810  	-0,103609  	-0,049997  	0,224936  	0,113977  	-3,654946  	5007,982482  	21728,646365  	3,151474  	-0,047949  
38,563000  	19,302754  	31,746620  	22,599315  	357,439972  	70,181578  	62,525359  	0,004986  	0,006335  	0,003965  	0,004108  	0,004275  	-0,000000  	-0,000000  	24,329097  	21,443389  	22,327045  	23,119379  	27,388322  	26,045359  	27,380349  	27,825858  	32,395046  	31,283718  	34,528037  	56,634828  	24,487103  	23,845867  	25,903788  	61,408634  	0,094189  	0,047726  	-2483,836195  	12616,580428  	-0,036561  	-0,050002  	0,243897  	0,123584  	-3,960628  	5010,690586  	22173,198678  	3,215951  	-0,047954  
39,566000  	19,274042  	31,750869  	22,599407  	357,439972  	70,181328  	62,526695  	0,004967  	0,006331  	0,003963  	0,004123  	0,004171  	0,000001  	-0,000000  	24,329274  	21,445982  	22,326767  	23,124572  	27,394737  	26,047950  	27,378040  	27,830919  	32,398252  	31,293861  	34,532217  	56,633850  	24,486136  	23,850118  	25,905477  	61,408914  	0,106584  	0,054007  	-2818,137669  	12614,371458  	-0,036555  	-0,049993  	0,161545  	0,081856  	-2,622773  	5002,960322  	21751,227742  	3,154749  	-0,047945  
40,562000  	19,235452  	31,755610  	22,599776  	-242,047242  	70,185689  	62,528498  	0,004980  	0,006334  	0,003961  	0,004202  	0,004247  	-0,000000  	-0,000000  	24,323572  	21,446597  	22,328246  	23,123942  	27,391459  	26,047899  	27,385058  	27,825654  	32,395869  	31,303142  	34,535636  	56,634514  	24,481279  	23,852573  	25,908149  	61,410331  	0,169961  	0,086121  	-4509,500783  	-27024,943735  	-0,103615  	-0,050000  	0,222148  	0,112564  	-3,607906  	5009,550890  	22050,688709  	3,198182  	-0,047952  
41,566000  	19,192508  	31,763123  	22,599960  	956,927186  	70,185409  	62,530021  	0,004969  	0,006327  	0,003967  	0,004110  	0,004304  	0,000000  	-0,000000  	24,326009  	21,452159  	22,326934  	23,123925  	27,387935  	26,045511  	27,395433  	27,825987  	32,398912  	31,307555  	34,538022  	56,632797  	24,488101  	23,862714  	25,913053  	61,410842  	0,096129  	0,048709  	-2560,847344  	22571,447158  	-0,022195  	-0,049998  	0,267256  	0,135421  	-4,339493  	4994,209213  	21805,682893  	3,162647  	-0,047949  
42,566000  	19,155944  	31,769219  	22,599592  	357,439972  	70,179366  	62,530331  	0,004977  	0,006325  	0,003961  	0,004113  	0,004232  	0,000000  	-0,000000  	24,334351  	21,452656  	22,324668  	23,124933  	27,386140  	26,041305  	27,395521  	27,834223  	32,396723  	31,305638  	34,534685  	56,629605  	24,498744  	23,873899  	25,909338  	61,410816  	0,098063  	0,049689  	-2621,231606  	12615,329496  	-0,036558  	-0,049997  	0,209855  	0,106335  	-3,404636  	4990,021840  	21968,702355  	3,186291  	-0,047949  
43,562000  	19,147294  	31,776146  	22,598855  	357,439972  	70,172170  	62,542327  	0,004981  	0,006331  	0,003964  	0,004212  	0,004243  	0,000001  	-0,000000  	24,334397  	21,445566  	22,324342  	23,123525  	27,383164  	26,037507  	27,394269  	27,833180  	32,389445  	31,302508  	34,535811  	56,618438  	24,500600  	23,874205  	25,906325  	61,405568  	0,178241  	0,090316  	-4770,294571  	12613,632394  	-0,036553  	-0,049989  	0,218437  	0,110684  	-3,534973  	5002,072477  	22054,586433  	3,198747  	-0,047942  
44,567000  	19,168152  	31,780826  	22,600083  	-242,047242  	70,168619  	62,540960  	0,004969  	0,006325  	0,003963  	0,004121  	0,004281  	-0,000000  	-0,000000  	24,338203  	21,445309  	22,330510  	23,129097  	27,384958  	26,045584  	27,398138  	27,833722  	32,398780  	31,300040  	34,533898  	56,621807  	24,502065  	23,881360  	25,916417  	61,409504  	0,104396  	0,052898  	-2790,369149  	-27026,857968  	-0,103622  	-0,050004  	0,248771  	0,126054  	-4,024719  	4989,289633  	21803,176205  	3,162283  	-0,047955  
45,564000  	19,229686  	31,780703  	22,599530  	956,927186  	70,168900  	62,539157  	0,004985  	0,006341  	0,003964  	0,004118  	0,004210  	0,000000  	-0,000000  	24,339441  	21,452409  	22,333500  	23,140385  	27,387308  	26,046774  	27,399575  	27,835262  	32,402385  	31,301538  	34,537265  	56,635549  	24,508898  	23,895391  	25,924411  	61,418892  	0,102325  	0,051849  	-2721,630159  	22572,426682  	-0,022196  	-0,050000  	0,192676  	0,097630  	-3,118032  	5024,698727  	22150,850318  	3,212709  	-0,047951  
46,565000  	19,266189  	31,768757  	22,600022  	357,439972  	70,168713  	62,532010  	0,004965  	0,006319  	0,003961  	0,004131  	0,004226  	-0,000001  	-0,000000  	24,332534  	21,444373  	22,319894  	23,132944  	27,380780  	26,031747  	27,384733  	27,837901  	32,398196  	31,287550  	34,528689  	56,629867  	24,504007  	23,899529  	25,921462  	61,401970  	0,112500  	0,057005  	-2980,709497  	12618,227324  	-0,036566  	-0,050010  	0,205337  	0,104046  	-3,325964  	4976,843533  	21715,590404  	3,149580  	-0,047960  
47,564000  	19,274103  	31,756288  	22,601403  	1256,670793  	70,170052  	62,522438  	0,004984  	0,006341  	0,003964  	0,004152  	0,004279  	-0,000000  	-0,000000  	24,328883  	21,444026  	22,318012  	23,130850  	27,373622  	26,032757  	27,378654  	27,830360  	32,401443  	31,282849  	34,528245  	56,620394  	24,505119  	23,910339  	25,906072  	61,408803  	0,129955  	0,065849  	-3437,561457  	25615,191842  	-0,018553  	-0,050005  	0,247101  	0,125208  	-4,008143  	5023,765606  	22125,430382  	3,209022  	-0,047956  
48,564000  	19,257232  	31,746497  	22,602447  	1256,670793  	70,172856  	62,526416  	0,004967  	0,006324  	0,003970  	0,004131  	0,004225  	0,000001  	-0,000000  	24,340956  	21,453835  	22,337656  	23,145563  	27,391224  	26,043152  	27,392202  	27,839415  	32,415773  	31,295506  	34,534717  	56,632153  	24,521214  	23,928106  	25,919565  	61,427321  	0,112965  	0,057240  	-2989,838804  	25609,896790  	-0,018549  	-0,049993  	0,204563  	0,103654  	-3,317644  	4986,403960  	21752,350456  	3,154912  	-0,047946  
49,563000  	19,240023  	31,736121  	22,603215  	57,696365  	70,177403  	62,526260  	0,004982  	0,006332  	0,003961  	0,004167  	0,004231  	-0,000002  	-0,000000  	24,332751  	21,444193  	22,332978  	23,132682  	27,394687  	26,039329  	27,388633  	27,831890  	32,412980  	31,295021  	34,527906  	56,627317  	24,514755  	23,930592  	25,932003  	61,418565  	0,141770  	0,071836  	-3754,282265  	1908,342480  	-0,054067  	-0,050020  	0,208829  	0,105815  	-3,388913  	5003,848167  	22091,515951  	3,204103  	-0,047968  
50,567000  	19,255790  	31,721713  	22,605119  	657,183579  	70,179272  	62,533035  	0,004966  	0,006328  	0,003964  	0,004164  	0,004258  	0,000001  	-0,000000  	24,329841  	21,434018  	22,313888  	23,127986  	27,396766  	26,040202  	27,388842  	27,833582  	32,400428  	31,294030  	34,531876  	56,624854  	24,503956  	23,926898  	25,909197  	61,402522  	0,139193  	0,070530  	-3677,138077  	18549,697732  	-0,027613  	-0,049983  	0,230374  	0,116732  	-3,736149  	4996,088190  	21742,613208  	3,153499  	-0,047937  
51,563000  	19,261680  	31,717926  	22,605026  	-242,047242  	70,182387  	62,527255  	0,004977  	0,006332  	0,003964  	0,004118  	0,004217  	-0,000001  	-0,000000  	24,329682  	21,436950  	22,313981  	23,118153  	27,393950  	26,041472  	27,377645  	27,823911  	32,398843  	31,295819  	34,527235  	56,628797  	24,522670  	23,926939  	25,910796  	61,407174  	0,101883  	0,051625  	-2689,409020  	-27030,692419  	-0,103635  	-0,050012  	0,198216  	0,100438  	-3,218369  	5004,147417  	21986,997647  	3,188944  	-0,047962  
52,565000  	19,259164  	31,725992  	22,604781  	956,927186  	70,186312  	62,521040  	0,004976  	0,006325  	0,003963  	0,004091  	0,004242  	0,000000  	-0,000000  	24,333685  	21,438520  	22,325542  	23,131258  	27,386457  	26,044142  	27,375893  	27,814433  	32,395343  	31,297378  	34,530087  	56,627286  	24,521562  	23,926053  	25,906592  	61,412988  	0,079964  	0,040518  	-2112,613651  	22570,894282  	-0,022194  	-0,049997  	0,217523  	0,110221  	-3,536522  	4990,028207  	21948,331100  	3,183336  	-0,047949  
53,567000  	19,272784  	31,736460  	22,606009  	1256,670793  	70,188742  	62,519734  	0,004970  	0,006329  	0,003964  	0,004195  	0,004257  	0,000001  	-0,000000  	24,337090  	21,444480  	22,327754  	23,125613  	27,381754  	26,042933  	27,390106  	27,821696  	32,405323  	31,301177  	34,540554  	56,634657  	24,528667  	23,922771  	25,919910  	61,414287  	0,164283  	0,083244  	-4339,182919  	25604,805082  	-0,018545  	-0,049982  	0,229515  	0,116297  	-3,733301  	4999,154262  	21832,387948  	3,166520  	-0,047936  
54,564000  	19,279165  	31,741571  	22,606869  	1256,670793  	70,188804  	62,530735  	0,004984  	0,006321  	0,003963  	0,004140  	0,004265  	-0,000000  	-0,000000  	24,334581  	21,446184  	22,330953  	23,127258  	27,391567  	26,044409  	27,394894  	27,815824  	32,406953  	31,308092  	34,534155  	56,627069  	24,528189  	23,928721  	25,921645  	61,421575  	0,119776  	0,060691  	-3163,294121  	25613,380616  	-0,018552  	-0,050001  	0,235997  	0,119582  	-3,833274  	4980,403402  	22134,885186  	3,210394  	-0,047952  
55,564000  	19,280361  	31,746466  	22,606224  	357,439972  	70,188337  	62,534744  	0,004966  	0,006331  	0,003966  	0,004068  	0,004216  	-0,000001  	-0,000000  	24,332220  	21,440375  	22,319024  	23,099967  	27,383780  	26,041795  	27,385222  	27,810985  	32,387063  	31,296207  	34,533269  	56,615802  	24,525420  	23,916235  	25,899678  	61,404553  	0,061695  	0,031262  	-1629,863529  	12617,410516  	-0,036564  	-0,050008  	0,197522  	0,100086  	-3,206453  	5003,292822  	21750,196822  	3,154599  	-0,047958  
56,567000  	19,267907  	31,750161  	22,605671  	-242,047242  	70,190019  	62,528218  	0,004984  	0,006333  	0,003964  	0,004130  	0,004193  	-0,000000  	-0,000000  	24,344024  	21,463909  	22,336967  	23,138323  	27,386985  	26,055368  	27,399570  	27,829685  	32,402732  	31,310149  	34,541441  	56,636590  	24,544450  	23,922624  	25,925119  	61,430663  	0,112004  	0,056753  	-2962,759273  	-27027,974926  	-0,103624  	-0,050006  	0,179496  	0,090952  	-2,916949  	5006,338377  	22124,710150  	3,208918  	-0,047957  
57,565000  	19,254410  	31,745050  	22,605610  	-242,047242  	70,192168  	62,521288  	0,004965  	0,006332  	0,003961  	0,004180  	0,004256  	0,000001  	-0,000000  	24,331278  	21,450629  	22,324810  	23,136321  	27,390819  	26,039406  	27,397547  	27,827471  	32,403771  	31,299110  	34,540946  	56,617004  	24,560952  	23,900097  	25,920830  	61,426246  	0,152507  	0,077277  	-4036,862612  	-27020,734351  	-0,103597  	-0,049991  	0,229318  	0,116197  	-3,731014  	5004,465060  	21728,272127  	3,151419  	-0,047944  
58,562000  	19,255023  	31,746220  	22,604934  	357,439972  	70,194349  	62,519175  	0,004985  	0,006323  	0,003968  	0,004141  	0,004267  	-0,000000  	-0,000000  	24,328942  	21,450472  	22,319373  	23,126896  	27,380546  	26,030880  	27,395144  	27,827251  	32,394317  	31,293278  	34,537201  	56,615264  	24,562894  	23,881058  	25,914733  	61,418983  	0,120719  	0,061169  	-3195,568033  	12615,804037  	-0,036560  	-0,050000  	0,237939  	0,120565  	-3,873435  	4985,265679  	22143,485597  	3,211641  	-0,047952  
59,565000  	19,241864  	31,750931  	22,604750  	357,439972  	70,198492  	62,513084  	0,004965  	0,006329  	0,003967  	0,004149  	0,004262  	-0,000001  	-0,000000  	24,342637  	21,457815  	22,325017  	23,123997  	27,389341  	26,039843  	27,401472  	27,829674  	32,402786  	31,293465  	34,536735  	56,625515  	24,558030  	23,862199  	25,914161  	61,424932  	0,127636  	0,064674  	-3383,504433  	12617,800481  	-0,036565  	-0,050009  	0,233623  	0,118378  	-3,808246  	4997,652354  	21726,323266  	3,151137  	-0,047959  
60,566000  	19,230759  	31,754502  	22,603952  	956,927186  	70,200735  	62,510909  	0,004980  	0,006318  	0,003960  	0,004115  	0,004227  	-0,000000  	-0,000000  	24,342150  	21,450442  	22,319496  	23,128183  	27,393456  	26,038141  	27,394360  	27,835333  	32,413917  	31,286338  	34,531064  	56,625927  	24,567480  	23,830093  	25,922935  	61,426904  	0,099622  	0,050479  	-2643,977280  	22573,166246  	-0,022196  	-0,050002  	0,206102  	0,104433  	-3,361556  	4973,835472  	22035,528542  	3,195983  	-0,047953  
61,566000  	19,243551  	31,757827  	22,601557  	1256,670793  	70,203694  	62,525421  	0,004972  	0,006340  	0,003963  	0,004145  	0,004209  	-0,000000  	-0,000000  	24,332829  	21,443530  	22,319081  	23,131641  	27,387059  	26,032217  	27,385046  	27,828801  	32,408037  	31,283120  	34,529007  	56,619443  	24,582127  	23,809783  	25,920833  	61,420399  	0,123794  	0,062727  	-3283,030756  	25613,660092  	-0,018552  	-0,050001  	0,191851  	0,097212  	-3,124425  	5021,265491  	21864,628900  	3,171196  	-0,047953  
62,565000  	19,246741  	31,759120  	22,601188  	657,183579  	70,205314  	62,525235  	0,004974  	0,006336  	0,003965  	0,004147  	0,004279  	0,000000  	-0,000000  	24,336705  	21,446157  	22,333251  	23,136707  	27,391295  	26,036972  	27,394876  	27,837452  	32,409834  	31,292917  	34,538631  	56,626534  	24,596494  	23,791648  	25,928176  	61,424173  	0,126087  	0,063889  	-3343,328154  	18554,535607  	-0,027620  	-0,049997  	0,246972  	0,125143  	-4,023065  	5012,819999  	21914,275447  	3,178397  	-0,047949  
63,565000  	19,245729  	31,757735  	22,599715  	-242,047242  	70,202822  	62,534837  	0,004979  	0,006329  	0,003963  	0,004106  	0,004236  	0,000000  	-0,000000  	24,341908  	21,445793  	22,334454  	23,137438  	27,391139  	26,043550  	27,395232  	27,835585  	32,409761  	31,296174  	34,540117  	56,633013  	24,607601  	23,776218  	25,929148  	61,431849  	0,092283  	0,046761  	-2446,912288  	-27023,456201  	-0,103609  	-0,049997  	0,213007  	0,107932  	-3,464334  	4997,849731  	22023,651783  	3,194261  	-0,047949  
64,564000  	19,256710  	31,755149  	22,597995  	956,927186  	70,200330  	62,536889  	0,004966  	0,006322  	0,003961  	0,004169  	0,004227  	-0,000001  	-0,000000  	24,337843  	21,438052  	22,326909  	23,133244  	27,388048  	26,041205  	27,382414  	27,829109  	32,404284  	31,287444  	34,532162  	56,630190  	24,601123  	23,746846  	25,922733  	61,426017  	0,143307  	0,072615  	-3795,702123  	22577,109940  	-0,022200  	-0,050011  	0,206398  	0,104584  	-3,354858  	4982,156453  	21739,266250  	3,153014  	-0,047961  
65,572000  	19,282938  	31,746497  	22,595969  	956,927186  	70,200392  	62,536982  	0,004984  	0,006334  	0,003963  	0,004152  	0,004251  	0,000001  	-0,000000  	24,339584  	21,442010  	22,330999  	23,137636  	27,401113  	26,048382  	27,392325  	27,836105  	32,408300  	31,295848  	34,539511  	56,635295  	24,604443  	23,725368  	25,926491  	61,425161  	0,129517  	0,065627  	-3420,879122  	22569,045367  	-0,022192  	-0,049991  	0,225409  	0,114217  	-3,663853  	5009,497124  	22132,625636  	3,210066  	-0,047944  
66,564000  	19,304349  	31,739785  	22,596398  	357,439972  	70,203818  	62,546678  	0,004972  	0,006313  	0,003966  	0,004144  	0,004208  	0,000000  	-0,000000  	24,345864  	21,452749  	22,341139  	23,141891  	27,407450  	26,054431  	27,403669  	27,833164  	32,411308  	31,306124  	34,543992  	56,635925  	24,605311  	23,715375  	25,933443  	61,433112  	0,123659  	0,062659  	-3258,773425  	12615,010328  	-0,036557  	-0,049995  	0,190688  	0,096623  	-3,096955  	4964,256651  	21858,768193  	3,170346  	-0,047947  
67,564000  	19,314288  	31,739323  	22,595477  	1256,670793  	70,204971  	62,545000  	0,004982  	0,006336  	0,003964  	0,004106  	0,004242  	-0,000000  	-0,000000  	24,346816  	21,452232  	22,339933  	23,135232  	27,400376  	26,050819  	27,400025  	27,829396  	32,405651  	31,303744  	34,538174  	56,628332  	24,591657  	23,699197  	25,927171  	61,431620  	0,092178  	0,046707  	-2427,118979  	25613,814456  	-0,018552  	-0,050001  	0,218088  	0,110507  	-3,543265  	5014,251870  	22079,526214  	3,202365  	-0,047953  
68,567000  	19,319258  	31,744988  	22,594433  	1256,670793  	70,203538  	62,540960  	0,004965  	0,006330  	0,003962  	0,004152  	0,004234  	0,000001  	-0,000000  	24,341363  	21,444784  	22,327996  	23,127426  	27,396909  	26,049135  	27,398233  	27,833347  	32,399653  	31,302472  	34,540159  	56,626940  	24,585724  	23,674470  	25,919788  	61,424757  	0,129462  	0,065599  	-3409,016324  	25609,864498  	-0,018549  	-0,049993  	0,211338  	0,107087  	-3,434765  	4999,248352  	21716,543651  	3,149718  	-0,047945  
69,563000  	19,317478  	31,752470  	22,594310  	1256,670793  	70,204535  	62,538877  	0,004986  	0,006324  	0,003966  	0,004115  	0,004249  	0,000000  	-0,000000  	24,333486  	21,444856  	22,320900  	23,125770  	27,395645  	26,044727  	27,396840  	27,823775  	32,394630  	31,299535  	34,537665  	56,627347  	24,574402  	23,647371  	25,918159  	61,421583  	0,100204  	0,050774  	-2640,573839  	25611,097036  	-0,018550  	-0,049995  	0,223551  	0,113275  	-3,634714  	4986,752024  	22165,262009  	3,214799  	-0,047947  
70,568000  	19,332571  	31,755118  	22,595661  	1256,670793  	70,207650  	62,530114  	0,004965  	0,006328  	0,003966  	0,004057  	0,004227  	-0,000000  	-0,000000  	24,332916  	21,451318  	22,321815  	23,123653  	27,393757  	26,038995  	27,395682  	27,821667  	32,394583  	31,296774  	34,529030  	56,623530  	24,560368  	23,633030  	25,909085  	61,416626  	0,052637  	0,026672  	-1385,704321  	25614,727536  	-0,018552  	-0,050003  	0,206283  	0,104525  	-3,359152  	4997,077200  	21728,060295  	3,151389  	-0,047954  
71,566000  	19,356406  	31,761676  	22,596030  	357,439972  	70,209425  	62,538038  	0,004977  	0,006334  	0,003969  	0,004158  	0,004221  	-0,000000  	-0,000000  	24,334190  	21,451374  	22,324786  	23,118544  	27,385520  	26,035466  	27,390979  	27,828883  	32,396014  	31,294813  	34,531413  	56,612935  	24,566918  	23,621175  	25,915378  	61,417233  	0,134860  	0,068335  	-3545,313820  	12616,717676  	-0,036561  	-0,050002  	0,201083  	0,101890  	-3,271842  	5009,782225  	21977,606393  	3,187582  	-0,047953  
72,566000  	19,352295  	31,769927  	22,596030  	956,927186  	70,206684  	62,548480  	0,004976  	0,006333  	0,003960  	0,004145  	0,004201  	-0,000002  	-0,000000  	24,336086  	21,458661  	22,330194  	23,131601  	27,397532  	26,043995  	27,405352  	27,833767  	32,392852  	31,303258  	34,547713  	56,620655  	24,578498  	23,615416  	25,934299  	61,430375  	0,124341  	0,063004  	-3272,026734  	22581,349542  	-0,022204  	-0,050022  	0,185602  	0,094046  	-3,014769  	5006,841372  	21946,000940  	3,182998  	-0,047970  
73,566000  	19,334810  	31,778948  	22,594863  	1256,670793  	70,203569  	62,555224  	0,004969  	0,006316  	0,003964  	0,004141  	0,004209  	0,000000  	-0,000000  	24,335284  	21,454193  	22,323371  	23,130106  	27,389405  	26,038641  	27,397372  	27,831505  	32,392368  	31,296326  	34,545526  	56,611941  	24,579051  	23,592412  	25,928380  	61,417641  	0,120594  	0,061106  	-3180,206930  	25611,431704  	-0,018550  	-0,049996  	0,191676  	0,097124  	-3,109426  	4970,738980  	21809,029852  	3,163132  	-0,047948  
74,564000  	19,316527  	31,781842  	22,593942  	657,183579  	70,197526  	62,550873  	0,004985  	0,006328  	0,003963  	0,004147  	0,004277  	-0,000000  	-0,000000  	24,341509  	21,456102  	22,331969  	23,132450  	27,393029  	26,042349  	27,398498  	27,834833  	32,407409  	31,288234  	34,544720  	56,611723  	24,581744  	23,567320  	25,920303  	61,419074  	0,125741  	0,063714  	-3321,587309  	18556,702308  	-0,027623  	-0,050003  	0,245797  	0,124547  	-3,986504  	4996,528929  	22141,346086  	3,211331  	-0,047954  
75,566000  	19,305300  	31,785721  	22,595232  	657,183579  	70,193259  	62,550469  	0,004965  	0,006351  	0,003963  	0,004060  	0,004249  	0,000001  	-0,000000  	24,346763  	21,463174  	22,344508  	23,144259  	27,406035  	26,051632  	27,400312  	27,846868  	32,413564  	31,300284  	34,554912  	56,620452  	24,593887  	23,557663  	25,928006  	61,430046  	0,055043  	0,027891  	-1455,797190  	18553,225749  	-0,027618  	-0,049992  	0,223282  	0,113139  	-3,619522  	5045,518867  	21728,145028  	3,151401  	-0,047945  
76,566000  	19,309227  	31,787138  	22,594679  	57,696365  	70,191639  	62,565510  	0,004987  	0,006320  	0,003961  	0,004166  	0,004223  	-0,000000  	-0,000000  	24,337762  	21,448578  	22,338876  	23,139685  	27,390468  	26,034442  	27,398922  	27,848497  	32,407875  	31,290956  	34,545552  	56,621623  	24,590438  	23,538598  	25,930664  	61,418132  	0,141117  	0,071505  	-3731,541293  	1908,259780  	-0,054052  	-0,050003  	0,203174  	0,102950  	-3,286385  	4977,985351  	22185,852157  	3,217786  	-0,047954  
77,562000  	19,303398  	31,789693  	22,593174  	1256,670793  	70,194411  	62,564050  	0,004962  	0,006339  	0,003963  	0,004112  	0,004261  	0,000001  	-0,000000  	24,345436  	21,452700  	22,333729  	23,142267  	27,405864  	26,048243  	27,407413  	27,849338  	32,410884  	31,307726  	34,550184  	56,632024  	24,589465  	23,528312  	25,932670  	61,421521  	0,097521  	0,049415  	-2580,475348  	25608,523035  	-0,018548  	-0,049990  	0,232730  	0,117926  	-3,766543  	5020,425045  	21646,264590  	3,139525  	-0,047943  
78,563000  	19,299717  	31,796836  	22,594157  	657,183579  	70,194162  	62,553919  	0,004985  	0,006323  	0,003964  	0,004158  	0,004207  	-0,000001  	-0,000000  	24,341609  	21,439754  	22,331112  	23,146528  	27,402818  	26,049288  	27,398293  	27,837459  	32,410711  	31,303590  	34,535977  	56,624311  	24,577119  	23,506640  	25,930737  	61,424377  	0,134345  	0,068073  	-3557,924188  	18561,405564  	-0,027630  	-0,050017  	0,190454  	0,096505  	-3,086335  	4984,647371  	22145,483887  	3,211931  	-0,047966  
79,562000  	19,295024  	31,802932  	22,593512  	657,183579  	70,191265  	62,540960  	0,004966  	0,006333  	0,003960  	0,004124  	0,004275  	0,000001  	-0,000000  	24,335417  	21,447198  	22,326573  	23,139220  	27,388864  	26,044949  	27,392119  	27,824891  	32,414459  	31,280974  	34,539911  	56,622110  	24,573245  	23,489366  	25,910966  	61,416348  	0,107277  	0,054358  	-2843,525873  	18552,686274  	-0,027617  	-0,049991  	0,243809  	0,123540  	-3,956147  	5005,942208  	21741,857671  	3,153390  	-0,047943  
80,563000  	19,291281  	31,803918  	22,593205  	57,696365  	70,189583  	62,535677  	0,004980  	0,006333  	0,003965  	0,004141  	0,004237  	-0,000000  	-0,000000  	24,333453  	21,450339  	22,320147  	23,132577  	27,394398  	26,047413  	27,391044  	27,833957  	32,406335  	31,295294  	34,543711  	56,628437  	24,559137  	23,475023  	25,914575  	61,415770  	0,120655  	0,061137  	-3199,358879  	1908,324057  	-0,054051  	-0,050002  	0,214154  	0,108513  	-3,476591  	5007,785812  	22036,425301  	3,196113  	-0,047953  
81,564000  	19,309380  	31,800562  	22,593696  	57,696365  	70,188524  	62,547299  	0,004972  	0,006329  	0,003964  	0,004102  	0,004232  	0,000000  	-0,000000  	24,336113  	21,456199  	22,340804  	23,142369  	27,402117  	26,052797  	27,393310  	27,829968  	32,398909  	31,309890  	34,534405  	56,618566  	24,567465  	23,468900  	25,918118  	61,414507  	0,089326  	0,045262  	-2364,544490  	1908,143470  	-0,054047  	-0,049998  	0,210286  	0,106554  	-3,408146  	4999,198123  	21869,769376  	3,171942  	-0,047950  
82,564000  	19,325945  	31,797606  	22,593881  	1256,670793  	70,185534  	62,542016  	0,004970  	0,006329  	0,003965  	0,004160  	0,004249  	0,000001  	-0,000000  	24,335878  	21,451947  	22,335105  	23,128209  	27,408247  	26,057245  	27,406203  	27,835874  	32,399916  	31,306679  	34,546319  	56,628034  	24,553278  	23,456898  	25,916449  	61,412488  	0,136648  	0,069241  	-3611,553790  	25605,735392  	-0,018546  	-0,049984  	0,223691  	0,113346  	-3,626492  	4998,390220  	21822,721312  	3,165118  	-0,047937  
83,564000  	19,316282  	31,798252  	22,593788  	1256,670793  	70,181702  	62,550096  	0,004985  	0,006326  	0,003965  	0,004149  	0,004249  	0,000000  	-0,000000  	24,353602  	21,461359  	22,345805  	23,142727  	27,405585  	26,068194  	27,413687  	27,843179  	32,408866  	31,310961  	34,561638  	56,629773  	24,569407  	23,461291  	25,923292  	61,415004  	0,127690  	0,064702  	-3377,593850  	25610,778250  	-0,018550  	-0,049995  	0,223769  	0,113385  	-3,622096  	4991,375891  	22139,107720  	3,211006  	-0,047947  
84,565000  	19,320883  	31,799915  	22,593666  	1256,670793  	70,182761  	62,551774  	0,004969  	0,006338  	0,003969  	0,004094  	0,004203  	0,000000  	-0,000000  	24,352267  	21,459464  	22,346869  	23,138061  	27,410401  	26,067303  	27,414858  	27,849134  	32,410471  	31,312384  	34,564514  	56,630659  	24,564483  	23,449044  	25,921988  	61,422097  	0,082566  	0,041837  	-2183,474971  	25613,124924  	-0,018551  	-0,050000  	0,186986  	0,094747  	-3,026455  	5018,413068  	21803,967048  	3,162398  	-0,047951  
85,566000  	19,324779  	31,785598  	22,594003  	1256,670793  	70,185440  	62,539095  	0,004984  	0,006312  	0,003963  	0,004131  	0,004255  	-0,000000  	-0,000000  	24,359256  	21,473738  	22,355955  	23,149691  	27,416904  	26,069664  	27,417953  	27,861394  	32,418528  	31,322678  	34,575183  	56,636332  	24,572031  	23,458513  	25,933583  	61,425784  	0,112825  	0,057169  	-2979,335142  	25614,289983  	-0,018552  	-0,050002  	0,228556  	0,115811  	-3,706723  	4961,127617  	22130,705019  	3,209787  	-0,047953  
86,563000  	19,312018  	31,780980  	22,594065  	657,183579  	70,190611  	62,544129  	0,004967  	0,006334  	0,003963  	0,004164  	0,004261  	-0,000001  	-0,000000  	24,348552  	21,468392  	22,342663  	23,141566  	27,409639  	26,063013  	27,417110  	27,845244  	32,408769  	31,318026  	34,561084  	56,623005  	24,566604  	23,442270  	25,924181  	61,423522  	0,139462  	0,070666  	-3685,127989  	18561,573914  	-0,027631  	-0,050018  	0,232857  	0,117990  	-3,776547  	5009,054263  	21764,340192  	3,156651  	-0,047966  
87,563000  	19,300331  	31,780333  	22,593512  	657,183579  	70,197152  	62,541830  	0,004986  	0,006324  	0,003963  	0,004140  	0,004235  	0,000001  	-0,000000  	24,350988  	21,472853  	22,349516  	23,152572  	27,411001  	26,064192  	27,418665  	27,851492  	32,412048  	31,316651  	34,566464  	56,620707  	24,562252  	23,440547  	25,923917  	61,420754  	0,119949  	0,060779  	-3172,335958  	18550,695582  	-0,027614  	-0,049985  	0,212566  	0,107709  	-3,451454  	4988,115980  	22160,354549  	3,214088  	-0,047938  
88,572000  	19,295975  	31,780826  	22,594065  	57,696365  	70,196903  	62,558363  	0,004963  	0,006335  	0,003966  	0,004125  	0,004275  	-0,000001  	-0,000000  	24,354462  	21,471966  	22,350334  	23,151837  	27,411300  	26,059402  	27,416827  	27,862684  	32,416083  	31,318562  	34,564959  	56,622896  	24,560067  	23,443682  	25,924391  	61,425809  	0,108068  	0,054759  	-2859,230868  	1908,415260  	-0,054055  	-0,050006  	0,244292  	0,123785  	-3,957899  	5011,415718  	21682,290288  	3,144750  	-0,047957  
89,563000  	19,279962  	31,788215  	22,594648  	57,696365  	70,193913  	62,559668  	0,004982  	0,006322  	0,003968  	0,004120  	0,004230  	-0,000000  	-0,000000  	24,353801  	21,460170  	22,339523  	23,151653  	27,408244  	26,044916  	27,414870  	27,856180  	32,411943  	31,310510  	34,555312  	56,618102  	24,557086  	23,435680  	25,917596  	61,422129  	0,103889  	0,052641  	-2753,817573  	1908,233731  	-0,054051  	-0,050002  	0,208754  	0,105777  	-3,380222  	4982,915543  	22082,025841  	3,202727  	-0,047953  
90,563000  	19,273091  	31,794311  	22,594525  	657,183579  	70,193352  	62,541333  	0,004971  	0,006339  	0,003962  	0,004117  	0,004224  	-0,000001  	-0,000000  	24,355051  	21,456036  	22,337483  	23,156193  	27,416781  	26,048340  	27,414238  	27,853616  	32,415675  	31,306047  	34,555055  	56,618119  	24,558709  	23,436086  	25,925117  	61,422146  	0,101615  	0,051489  	-2696,328798  	18559,899201  	-0,027628  	-0,050013  	0,203742  	0,103238  	-3,306749  	5019,747312  	21844,603640  	3,168292  	-0,047962  
91,564000  	19,269134  	31,800223  	22,594802  	657,183579  	70,195315  	62,534837  	0,004974  	0,006318  	0,003961  	0,004163  	0,004200  	0,000002  	-0,000000  	24,354666  	21,465840  	22,342272  	23,162162  	27,418317  	26,060343  	27,412354  	27,861197  	32,420044  	31,306642  	34,561347  	56,620684  	24,565255  	23,442712  	25,929258  	61,426042  	0,138548  	0,070203  	-3679,240249  	18545,918639  	-0,027607  	-0,049970  	0,184628  	0,093552  	-2,999828  	4974,230227  	21910,617801  	3,177866  	-0,047926  
92,561000  	19,247968  	31,796713  	22,594863  	1256,670793  	70,195439  	62,538132  	0,004978  	0,006328  	0,003964  	0,004182  	0,004263  	0,000000  	-0,000000  	24,353447  	21,471060  	22,346144  	23,163260  	27,420072  	26,066094  	27,414011  	27,862289  	32,422891  	31,314334  	34,565661  	56,625034  	24,571160  	23,449178  	25,929293  	61,426830  	0,154274  	0,078172  	-4102,627458  	25612,564594  	-0,018551  	-0,049999  	0,234234  	0,118688  	-3,804259  	4996,438376  	21994,461223  	3,190027  	-0,047950  
93,565000  	19,223673  	31,788893  	22,595293  	956,927186  	70,191888  	62,540556  	0,004970  	0,006330  	0,003964  	0,004117  	0,004259  	0,000000  	-0,000000  	24,358013  	21,469473  	22,351675  	23,162770  	27,430281  	26,072505  	27,421251  	27,864212  	32,430395  	31,324615  	34,567964  	56,631731  	24,577305  	23,453213  	25,934112  	61,432966  	0,101191  	0,051274  	-2694,510246  	22572,138194  	-0,022195  	-0,049999  	0,231608  	0,117358  	-3,758678  	5000,821712  	21823,731048  	3,165265  	-0,047950  
94,571000  	19,228213  	31,790001  	22,594310  	357,439972  	70,190331  	62,547144  	0,004986  	0,006325  	0,003961  	0,004135  	0,004252  	-0,000000  	-0,000000  	24,355427  	21,465178  	22,351830  	23,158544  	27,420770  	26,067416  	27,417181  	27,858440  	32,428990  	31,321522  	34,563598  	56,627959  	24,575649  	23,441928  	25,929084  	61,433222  	0,115975  	0,058765  	-3087,347034  	12616,349461  	-0,036560  	-0,050000  	0,225729  	0,114379  	-3,659372  	4989,000287  	22170,444852  	3,215551  	-0,047952  
95,572000  	19,233367  	31,788246  	22,593021  	357,439972  	70,187465  	62,540152  	0,004964  	0,006333  	0,003966  	0,004099  	0,004231  	-0,000001  	-0,000000  	24,349450  	21,461407  	22,343987  	23,149459  	27,409649  	26,059679  	27,408902  	27,845613  	32,421193  	31,316055  	34,559168  	56,621607  	24,572562  	23,427889  	25,923844  	61,425860  	0,086699  	0,043931  	-2306,737362  	12618,380248  	-0,036566  	-0,050009  	0,209016  	0,105910  	-3,390256  	5007,320313  	21701,778905  	3,147577  	-0,047959  
96,563000  	19,242446  	31,783505  	22,591793  	-242,047242  	70,187963  	62,548853  	0,004985  	0,006330  	0,003965  	0,004180  	0,004200  	-0,000001  	-0,000000  	24,360176  	21,470162  	22,343803  	23,151346  	27,422796  	26,069872  	27,417241  	27,854485  	32,419985  	31,317341  	34,567518  	56,625862  	24,580695  	23,427901  	25,928870  	61,426804  	0,152560  	0,077303  	-4054,552514  	-27032,513729  	-0,103647  	-0,050016  	0,184756  	0,093617  	-2,993548  	5001,183925  	22139,898562  	3,211121  	-0,047965  
97,566000  	19,254655  	31,777008  	22,592161  	57,696365  	70,190237  	62,556467  	0,004966  	0,006330  	0,003962  	0,004121  	0,004217  	0,000000  	-0,000000  	24,364996  	21,471773  	22,350484  	23,147745  	27,421253  	26,068390  	27,416902  	27,852354  	32,416086  	31,314978  	34,572565  	56,623137  	24,573486  	23,422356  	25,931607  	61,420325  	0,104885  	0,053146  	-2783,359692  	1908,300412  	-0,054049  	-0,050000  	0,198444  	0,100553  	-3,213083  	5001,248302  	21734,690661  	3,152350  	-0,047951  
98,564000  	19,252262  	31,773252  	22,590196  	1256,670793  	70,190486  	62,551308  	0,004982  	0,006331  	0,003964  	0,004180  	0,004258  	0,000002  	-0,000000  	24,373822  	21,474902  	22,354135  	23,158103  	27,416105  	26,078142  	27,421394  	27,857421  	32,418932  	31,320029  	34,581068  	56,621464  	24,573375  	23,422301  	25,931331  	61,427054  	0,152445  	0,077245  	-4045,008329  	25603,375436  	-0,018544  	-0,049978  	0,230628  	0,116861  	-3,736828  	5002,901604  	22086,672041  	3,203401  	-0,047933  
99,562000  	19,244256  	31,767248  	22,585959  	1256,670793  	70,188119  	62,547672  	0,004967  	0,006324  	0,003967  	0,004124  	0,004254  	0,000000  	-0,000000  	24,365289  	21,478629  	22,344956  	23,156065  	27,418899  	26,071318  	27,422965  	27,849899  	32,405322  	31,316723  	34,575632  	56,622440  	24,559138  	23,433947  	25,924716  	61,431348  	0,107171  	0,054304  	-2844,161468  	25612,167360  	-0,018550  	-0,049997  	0,227408  	0,115230  	-3,685275  	4988,367831  	21760,943806  	3,156158  	-0,047949  
100,562000  	19,242784  	31,762815  	22,584485  	1256,670793  	70,185814  	62,547361  	0,004980  	0,006331  	0,003967  	0,004158  	0,004251  	0,000001  	-0,000000  	24,363008  	21,477897  	22,355847  	23,147097  	27,417883  	26,068155  	27,427208  	27,861729  	32,419887  	31,325249  	34,576593  	56,620759  	24,557560  	23,441828  	25,922182  	61,429096  	0,135020  	0,068416  	-3582,383707  	25609,570541  	-0,018549  	-0,049991  	0,224706  	0,113860  	-3,640529  	5002,923535  	22046,430870  	3,197564  	-0,047944  
101,563000  	19,271710  	31,755426  	22,583994  	57,696365  	70,184973  	62,541768  	0,004971  	0,006331  	0,003966  	0,004088  	0,004270  	0,000000  	-0,000000  	24,361560  	21,476667  	22,353072  	23,159629  	27,411227  	26,066047  	27,415491  	27,850687  	32,415819  	31,327615  	34,581162  	56,628732  	24,541378  	23,456036  	25,909283  	61,420740  	0,077951  	0,039498  	-2062,210485  	1908,727011  	-0,054049  	-0,049999  	0,240096  	0,121658  	-3,892288  	5002,642679  	21858,280977  	3,170276  	-0,047950  
102,565000  	19,283797  	31,756103  	22,582827  	657,183579  	70,186406  	62,535304  	0,004970  	0,006321  	0,003964  	0,004140  	0,004192  	-0,000001  	-0,000000  	24,363138  	21,469790  	22,354602  	23,162543  	27,416026  	26,061391  	27,429142  	27,866471  	32,424810  	31,326399  	34,577787  	56,620738  	24,539706  	23,463990  	25,927175  	61,432144  	0,119936  	0,060773  	-3170,040092  	18559,102122  	-0,027627  	-0,050009  	0,178638  	0,090517  	-2,898959  	4980,941768  	21831,632411  	3,166411  	-0,047959  
103,567000  	19,283889  	31,760075  	22,580432  	657,183579  	70,183478  	62,537355  	0,004982  	0,006330  	0,003961  	0,004115  	0,004215  	0,000000  	-0,000000  	24,364192  	21,469986  	22,342877  	23,152536  	27,411417  	26,063042  	27,408910  	27,853351  	32,415586  	31,306600  	34,570429  	56,616765  	24,524350  	23,466718  	25,926817  	61,421683  	0,099677  	0,050507  	-2635,393027  	18555,474220  	-0,027621  	-0,049997  	0,196506  	0,099571  	-3,186849  	5001,196659  	22088,889224  	3,203723  	-0,047949  
104,574000  	19,295545  	31,763523  	22,579511  	57,696365  	70,177435  	62,536236  	0,004966  	0,006324  	0,003965  	0,004183  	0,004212  	0,000000  	-0,000000  	24,359887  	21,475665  	22,354629  	23,159400  	27,414719  	26,057859  	27,417210  	27,860627  	32,423930  	31,319575  	34,571283  	56,621490  	24,528535  	23,492194  	25,929228  	61,424029  	0,154616  	0,078345  	-4085,246074  	1908,844337  	-0,054045  	-0,049995  	0,193939  	0,098270  	-3,143186  	4987,335667  	21732,205156  	3,151990  	-0,047947  
105,564000  	19,303889  	31,760998  	22,579603  	1256,670793  	70,172357  	62,531637  	0,004984  	0,006326  	0,003966  	0,004117  	0,004292  	-0,000000  	-0,000000  	24,355267  	21,470108  	22,342776  	23,151946  	27,411206  	26,049329  	27,409381  	27,853205  	32,424328  	31,311718  	34,563126  	56,625383  	24,531838  	23,509820  	25,932296  	61,424549  	0,101464  	0,051413  	-2678,532057  	25616,119563  	-0,018553  	-0,050005  	0,257822  	0,130640  	-4,178282  	4991,195493  	22133,141096  	3,210141  	-0,047956  
106,564000  	19,289287  	31,755087  	22,579849  	1256,670793  	70,171547  	62,527286  	0,004967  	0,006321  	0,003964  	0,004180  	0,004211  	-0,000000  	-0,000000  	24,365859  	21,475396  	22,353091  	23,157818  	27,416613  	26,063887  	27,422816  	27,859493  	32,421573  	31,307640  	34,574514  	56,630323  	24,542669  	23,523765  	25,935591  	61,430556  	0,152304  	0,077174  	-4023,452799  	25614,732957  	-0,018552  	-0,050002  	0,193434  	0,098015  	-3,136264  	4981,355624  	21767,425890  	3,157098  	-0,047953  
107,562000  	19,283490  	31,753517  	22,581046  	1256,670793  	70,176064  	62,517559  	0,004982  	0,006348  	0,003966  	0,004083  	0,004194  	-0,000001  	-0,000000  	24,360597  	21,468834  	22,350420  	23,154113  	27,411846  	26,061342  	27,409431  	27,858151  	32,431029  	31,310090  	34,562570  	56,624727  	24,540986  	23,534959  	25,939533  	61,424397  	0,074005  	0,037499  	-1955,666328  	25620,454262  	-0,018556  	-0,050015  	0,179982  	0,091198  	-2,923585  	5039,251602  	22078,417623  	3,202204  	-0,047964  
108,574000  	19,281956  	31,756780  	22,581844  	1256,670793  	70,178182  	62,518740  	0,004964  	0,006332  	0,003962  	0,004117  	0,004203  	0,000001  	-0,000000  	24,356420  	21,468830  	22,351906  	23,159794  	27,416805  	26,066722  	27,417509  	27,858746  	32,429771  	31,318920  	34,569345  	56,631355  	24,542030  	23,560282  	25,933994  	61,425034  	0,101239  	0,051299  	-2676,390315  	25610,505992  	-0,018549  	-0,049993  	0,187197  	0,094854  	-3,041160  	5004,138927  	21702,449709  	3,147674  	-0,047946  
109,562000  	19,273858  	31,761029  	22,580248  	1256,670793  	70,173385  	62,526291  	0,004978  	0,006307  	0,003961  	0,004120  	0,004238  	-0,000000  	-0,000000  	24,360875  	21,468632  	22,351880  	23,152975  	27,421722  	26,071280  	27,413473  	27,848147  	32,425760  	31,315784  	34,570123  	56,630717  	24,539188  	23,562537  	25,926896  	61,430374  	0,103726  	0,052559  	-2744,860927  	25616,017960  	-0,018553  	-0,050005  	0,214590  	0,108734  	-3,480563  	4951,569312  	21999,509905  	3,190759  	-0,047956  
110,563000  	19,266189  	31,763677  	22,580862  	1256,670793  	70,167841  	62,518833  	0,004971  	0,006330  	0,003962  	0,004173  	0,004221  	-0,000000  	-0,000000  	24,360383  	21,469731  	22,350972  	23,151772  	27,417615  	26,074992  	27,415450  	27,850042  	32,421269  	31,317966  	34,564619  	56,628649  	24,537545  	23,562926  	25,934769  	61,429783  	0,147015  	0,074494  	-3893,616465  	25615,283375  	-0,018553  	-0,050004  	0,201056  	0,101877  	-3,261860  	4999,897788  	21844,455357  	3,168270  	-0,047954  
111,567000  	19,267569  	31,767741  	22,579296  	1256,670793  	70,170239  	62,516937  	0,004973  	0,006335  	0,003964  	0,004152  	0,004204  	0,000000  	-0,000000  	24,358924  	21,470849  	22,356806  	23,149100  	27,409117  	26,062732  	27,415449  	27,846378  	32,418308  	31,322972  	34,569466  	56,623893  	24,525657  	23,557586  	25,928059  	61,426445  	0,129966  	0,065855  	-3442,812625  	25612,678283  	-0,018551  	-0,049998  	0,187573  	0,095044  	-3,044819  	5010,125337  	21886,024013  	3,174299  	-0,047949  
112,563000  	19,286220  	31,770512  	22,577269  	1256,670793  	70,177715  	62,521785  	0,004979  	0,006330  	0,003961  	0,004122  	0,004264  	-0,000000  	-0,000000  	24,354215  	21,465074  	22,349595  	23,140619  	27,401552  	26,063561  	27,408544  	27,840970  	32,415892  	31,312794  	34,568282  	56,612154  	24,531108  	23,555337  	25,921224  	61,419684  	0,105329  	0,053371  	-2786,637351  	25614,285929  	-0,018552  	-0,050001  	0,235162  	0,119159  	-3,818643  	5000,056256  	22017,317982  	3,193342  	-0,047952  
113,564000  	19,298306  	31,766355  	22,577300  	1256,670793  	70,186001  	62,521195  	0,004966  	0,006327  	0,003962  	0,004145  	0,004270  	0,000000  	-0,000000  	24,362049  	21,475112  	22,346760  	23,144180  	27,409289  	26,070452  	27,414515  	27,847654  	32,419020  	31,323052  	34,583232  	56,621732  	24,537173  	23,570064  	25,929862  	61,422610  	0,124196  	0,062931  	-3281,501544  	25613,180152  	-0,018551  	-0,049999  	0,239766  	0,121491  	-3,897912  	4993,965852  	21734,789516  	3,152365  	-0,047950  
114,564000  	19,303644  	31,764508  	22,578528  	1256,670793  	70,187060  	62,528653  	0,004987  	0,006325  	0,003964  	0,004134  	0,004228  	-0,000001  	-0,000000  	24,358914  	21,474783  	22,355225  	23,143398  	27,409467  	26,068133  	27,422730  	27,851807  	32,416705  	31,321762  	34,578624  	56,624177  	24,541234  	23,570064  	25,934139  	61,430291  	0,114967  	0,058255  	-3035,912008  	25617,371798  	-0,018554  	-0,050008  	0,206669  	0,104721  	-3,357048  	4989,931994  	22194,847990  	3,219091  	-0,047958  
115,565000  	19,312938  	31,764970  	22,579818  	357,439972  	70,183789  	62,539095  	0,004964  	0,006336  	0,003964  	0,004089  	0,004253  	-0,000000  	-0,000000  	24,358610  	21,473923  	22,355644  	23,145120  	27,403532  	26,064926  	27,418561  	27,854598  	32,417972  	31,322782  	34,572956  	56,623405  	24,543376  	23,574397  	25,933679  	61,428093  	0,078796  	0,039927  	-2079,277275  	12617,623187  	-0,036562  	-0,050003  	0,226555  	0,114797  	-3,673484  	5013,951205  	21704,928153  	3,148034  	-0,047954  
116,564000  	19,313061  	31,766633  	22,579449  	956,927186  	70,182356  	62,526602  	0,004986  	0,006330  	0,003963  	0,004141  	0,004249  	0,000000  	-0,000000  	24,356699  	21,473802  	22,347688  	23,147576  	27,405868  	26,055073  	27,414298  	27,855829  	32,417402  	31,319093  	34,568592  	56,622818  	24,539414  	23,587115  	25,929390  	61,427508  	0,121198  	0,061412  	-3198,575201  	22571,533577  	-0,022194  	-0,049996  	0,223386  	0,113192  	-3,627339  	4999,364373  	22173,382267  	3,215977  	-0,047948  
117,562000  	19,312754  	31,772636  	22,578283  	1256,670793  	70,183883  	62,528964  	0,004964  	0,006333  	0,003961  	0,004131  	0,004206  	-0,000001  	-0,000000  	24,352087  	21,470474  	22,339943  	23,148967  	27,408248  	26,052727  	27,412986  	27,857868  	32,415493  	31,311981  	34,566746  	56,619213  	24,549900  	23,604013  	25,928460  	61,426082  	0,113087  	0,057302  	-2986,024128  	25618,921591  	-0,018555  	-0,050011  	0,189602  	0,096073  	-3,078421  	5007,067754  	21701,941310  	3,147600  	-0,047961  
118,562000  	19,314840  	31,778917  	22,580616  	657,183579  	70,186873  	62,538411  	0,004980  	0,006332  	0,003962  	0,004148  	0,004164  	-0,000001  	-0,000000  	24,350038  	21,467975  	22,337876  	23,153000  	27,403097  	26,054441  	27,407739  	27,859454  	32,414104  	31,311251  	34,564731  	56,618526  	24,560049  	23,624480  	25,931738  	61,424966  	0,126689  	0,064194  	-3346,310427  	18561,289134  	-0,027630  	-0,050015  	0,155770  	0,078930  	-2,526983  	5005,210708  	22032,591127  	3,195557  	-0,047964  
119,567000  	19,318429  	31,776608  	22,584946  	657,183579  	70,189614  	62,534682  	0,004967  	0,006325  	0,003962  	0,004165  	0,004210  	0,000000  	-0,000000  	24,351415  	21,466256  	22,343658  	23,157476  	27,407159  	26,051650  	27,402659  	27,857892  	32,418211  	31,313006  	34,558940  	56,623739  	24,562161  	23,642638  	25,932141  	61,433649  	0,140473  	0,071179  	-3708,627926  	18555,232716  	-0,027621  	-0,049997  	0,192691  	0,097638  	-3,128582  	4990,253174  	21766,296115  	3,156934  	-0,047949  
120,779000  	19,314441  	31,773960  	22,587095  	57,696365  	70,189739  	62,550469  	0,004975  	0,006322  	0,003963  	0,004152  	0,004281  	0,000001  	-0,000000  	24,351191  	21,467919  	22,347952  	23,157719  	27,412078  	26,056090  	27,406283  	27,854122  	32,425012  	31,315338  	34,558934  	56,627599  	24,573987  	23,664710  	25,931895  	61,438291  	0,130066  	0,065906  	-3434,253500  	1908,090580  	-0,054035  	-0,049985  	0,248918  	0,126129  	-4,033236  	4983,008219  	21930,424168  	3,180739  	-0,047939  
121,567000  	19,316527  	31,777131  	22,589766  	956,927186  	70,186811  	62,532786  	0,004979  	0,006324  	0,003967  	0,004116  	0,004231  	-0,000000  	-0,000000  	24,348029  	21,470108  	22,347152  	23,159830  	27,407249  	26,060841  	27,412299  	27,853271  	32,425016  	31,316030  	34,561302  	56,627985  	24,578426  	23,697197  	25,934255  	61,435661  	0,100232  	0,050788  	-2646,742488  	22574,727157  	-0,022198  	-0,050005  	0,209242  	0,106025  	-3,396905  	4986,839747  	22020,431924  	3,193794  	-0,047956  
122,564000  	19,313767  	31,786060  	22,592591  	357,439972  	70,188867  	62,526136  	0,004968  	0,006324  	0,003966  	0,004125  	0,004236  	-0,000001  	-0,000000  	24,350403  	21,466417  	22,349317  	23,162955  	27,415516  	26,058272  	27,409880  	27,858222  	32,426061  	31,318104  	34,563423  	56,631223  	24,569048  	23,724095  	25,934402  	61,435087  	0,107938  	0,054693  	-2852,895598  	12618,374118  	-0,036566  	-0,050009  	0,212921  	0,107889  	-3,460555  	4986,580822  	21772,728771  	3,157867  	-0,047959  
123,566000  	19,320577  	31,792710  	22,595815  	1256,670793  	70,192791  	62,522127  	0,004985  	0,006325  	0,003967  	0,004143  	0,004192  	-0,000001  	-0,000000  	24,353518  	21,466550  	22,353035  	23,153020  	27,418526  	26,059824  	27,409119  	27,853483  	32,423651  	31,324753  	34,571655  	56,631378  	24,569356  	23,737307  	25,930506  	61,427571  	0,122878  	0,062263  	-3247,733882  	25618,575120  	-0,018555  	-0,050012  	0,178298  	0,090345  	-2,900835  	4988,825548  	22148,795540  	3,212411  	-0,047962  
124,564000  	19,332049  	31,791910  	22,597473  	1256,670793  	70,194910  	62,538660  	0,004967  	0,006337  	0,003967  	0,004130  	0,004245  	0,000000  	-0,000000  	24,365935  	21,468447  	22,358589  	23,152915  	27,417096  	26,066801  	27,410234  	27,845925  	32,424317  	31,324869  	34,572264  	56,627877  	24,581600  	23,754105  	25,929958  	61,432529  	0,112337  	0,056922  	-2966,196277  	25610,647311  	-0,018550  	-0,049995  	0,220235  	0,111594  	-3,576396  	5014,789529  	21756,354095  	3,155492  	-0,047947  
125,563000  	19,349228  	31,786029  	22,599285  	57,696365  	70,190798  	62,543663  	0,004984  	0,006338  	0,003968  	0,004136  	0,004244  	0,000001  	-0,000000  	24,355560  	21,471189  	22,350444  	23,140431  	27,409632  	26,064738  	27,407373  	27,845927  	32,421341  	31,318175  	34,556000  	56,625343  	24,571210  	23,763999  	25,923729  	61,428592  	0,117071  	0,059321  	-3085,473034  	1907,480488  	-0,054037  	-0,049988  	0,219293  	0,111117  	-3,556871  	5017,680154  	22125,133816  	3,208979  	-0,047941  
126,563000  	19,351621  	31,783443  	22,599592  	1256,670793  	70,188057  	62,541861  	0,004963  	0,006320  	0,003964  	0,004074  	0,004240  	-0,000000  	-0,000000  	24,352082  	21,472737  	22,350954  	23,143529  	27,394343  	26,065579  	27,414141  	27,842386  	32,411805  	31,321579  	34,569661  	56,616154  	24,568940  	23,781383  	25,919692  	61,429724  	0,066703  	0,033799  	-1757,294113  	25613,258774  	-0,018551  	-0,050000  	0,216159  	0,109529  	-3,505604  	4979,111605  	21675,328050  	3,143741  	-0,047952  
127,565000  	19,345547  	31,784182  	22,600421  	357,439972  	70,185689  	62,544316  	0,004986  	0,006329  	0,003964  	0,004154  	0,004198  	-0,000001  	-0,000000  	24,358315  	21,470628  	22,355139  	23,142360  	27,411682  	26,067821  	27,416020  	27,853479  	32,417380  	31,325427  	34,568493  	56,619268  	24,567899  	23,783944  	25,932563  	61,432669  	0,131287  	0,066524  	-3460,660457  	12620,100273  	-0,036572  	-0,050018  	0,183199  	0,092828  	-2,969199  	4998,533832  	22177,710717  	3,216605  	-0,047967  
128,564000  	19,332233  	31,788862  	22,602263  	-242,047242  	70,185066  	62,545000  	0,004967  	0,006335  	0,003961  	0,004139  	0,004226  	-0,000001  	-0,000000  	24,357032  	21,477597  	22,359420  	23,150834  	27,411138  	26,070042  	27,414446  	27,858714  	32,423472  	31,321565  	34,569601  	56,622425  	24,576826  	23,809761  	25,940557  	61,425573  	0,119030  	0,060313  	-3142,112532  	-27028,190190  	-0,103627  	-0,050007  	0,205375  	0,104065  	-3,328040  	5010,960830  	21764,467292  	3,156669  	-0,047957  
129,563000  	19,310454  	31,791787  	22,603491  	57,696365  	70,184132  	62,545745  	0,004974  	0,006319  	0,003964  	0,004209  	0,004271  	-0,000000  	-0,000000  	24,357366  	21,474499  	22,359063  	23,158924  	27,402572  	26,070597  	27,417780  	27,856307  	32,421286  	31,318698  	34,571503  	56,623370  	24,575608  	23,813991  	25,930998  	61,433729  	0,175635  	0,088995  	-4645,553406  	1907,683765  	-0,054049  	-0,050001  	0,240702  	0,121965  	-3,899645  	4977,052937  	21920,651615  	3,179322  	-0,047952  
130,567000  	19,278551  	31,795174  	22,604535  	657,183579  	70,183758  	62,527721  	0,004975  	0,006342  	0,003962  	0,004151  	0,004264  	0,000001  	-0,000000  	24,366797  	21,483288  	22,356948  	23,155480  	27,411734  	26,070059  	27,412824  	27,870986  	32,420730  	31,322104  	34,565624  	56,625141  	24,580971  	23,832879  	25,934584  	61,440235  	0,128603  	0,065164  	-3411,202690  	18553,093798  	-0,027618  	-0,049993  	0,235145  	0,119150  	-3,818420  	5025,724524  	21944,327461  	3,182756  	-0,047946  
131,564000  	19,260422  	31,797483  	22,606009  	657,183579  	70,178805  	62,527659  	0,004970  	0,006308  	0,003963  	0,004193  	0,004273  	-0,000001  	-0,000000  	24,371819  	21,485083  	22,362181  	23,174109  	27,415792  	26,070233  	27,415760  	27,866991  	32,424311  	31,331420  	34,579459  	56,627957  	24,593783  	23,858861  	25,932861  	61,439007  	0,163333  	0,082762  	-4339,487633  	18561,077700  	-0,027630  	-0,050018  	0,242321  	0,122786  	-3,932439  	4953,046460  	21835,473646  	3,166968  	-0,047966  
132,566000  	19,259747  	31,798345  	22,607176  	1256,670793  	70,175815  	62,538225  	0,004985  	0,006332  	0,003963  	0,004111  	0,004266  	0,000001  	-0,000000  	24,371956  	21,481444  	22,344821  	23,164746  	27,400501  	26,065946  	27,419653  	27,863190  	32,432620  	31,321909  	34,567644  	56,624322  	24,592932  	23,859561  	25,934666  	61,440118  	0,096509  	0,048902  	-2564,390705  	25609,148629  	-0,018549  	-0,049992  	0,237300  	0,120241  	-3,844125  	5005,129352  	22148,894395  	3,212426  	-0,047945  
133,563000  	19,285300  	31,805703  	22,604781  	1256,670793  	70,177123  	62,543788  	0,004967  	0,006322  	0,003966  	0,004141  	0,004271  	0,000001  	-0,000000  	24,365866  	21,472414  	22,359883  	23,164614  	27,403507  	26,066678  	27,408656  	27,860959  	32,435328  	31,316705  	34,573317  	56,619479  	24,603577  	23,885997  	25,944137  	61,437340  	0,120962  	0,061292  	-3209,488469  	25608,151689  	-0,018548  	-0,049990  	0,240505  	0,121866  	-3,893882  	4983,907383  	21757,843986  	3,155708  	-0,047943  
134,564000  	19,319718  	31,803425  	22,601280  	657,183579  	70,180550  	62,559885  	0,004986  	0,006339  	0,003966  	0,004119  	0,004223  	-0,000001  	-0,000000  	24,366296  	21,476473  	22,353609  	23,171227  	27,414845  	26,065281  	27,417755  	27,870581  	32,431990  	31,313547  	34,569226  	56,630149  	24,600445  	23,905563  	25,930555  	61,437686  	0,102656  	0,052016  	-2715,763421  	18557,917829  	-0,027625  	-0,050007  	0,202881  	0,102801  	-3,279283  	5020,550263  	22162,797688  	3,214442  	-0,047958  
135,568000  	19,347234  	31,798807  	22,600175  	657,183579  	70,175472  	62,554354  	0,004964  	0,006324  	0,003962  	0,004129  	0,004257  	0,000000  	-0,000000  	24,363301  	21,470888  	22,362942  	23,174148  	27,417203  	26,066992  	27,416012  	27,871033  	32,433127  	31,323462  	34,571748  	56,637405  	24,606756  	23,924873  	25,924801  	61,444253  	0,110922  	0,056205  	-2926,895779  	18554,221471  	-0,027620  	-0,049996  	0,229765  	0,116423  	-3,714042  	4988,103246  	21703,734828  	3,147861  	-0,047948  
136,563000  	19,366008  	31,794065  	22,602447  	1256,670793  	70,169554  	62,529119  	0,004983  	0,006322  	0,003964  	0,004146  	0,004186  	-0,000001  	-0,000000  	24,359312  	21,468888  	22,361238  	23,166421  	27,406522  	26,069498  	27,414244  	27,860026  	32,427041  	31,308932  	34,561578  	56,622152  	24,592762  	23,922581  	25,925389  	61,431330  	0,124613  	0,063142  	-3281,942164  	25616,180142  	-0,018554  	-0,050007  	0,173800  	0,088066  	-2,816510  	4983,971760  	22101,472092  	3,205548  	-0,047957  
137,567000  	19,354750  	31,790340  	22,604904  	1256,670793  	70,167311  	62,521102  	0,004962  	0,006334  	0,003963  	0,004130  	0,004253  	0,000000  	-0,000000  	24,353870  	21,477445  	22,364581  	23,166370  	27,420123  	26,074904  	27,421787  	27,857886  	32,439066  	31,318099  	34,570571  	56,631436  	24,606869  	23,943004  	25,931367  	61,444372  	0,111862  	0,056681  	-2947,894027  	25612,005853  	-0,018551  	-0,049998  	0,226825  	0,114934  	-3,678577  	5009,139864  	21652,047625  	3,140364  	-0,047950  
138,565000  	19,334994  	31,788123  	22,605702  	657,183579  	70,168744  	62,519424  	0,004978  	0,006326  	0,003962  	0,004104  	0,004257  	0,000000  	-0,000000  	24,368010  	21,485846  	22,364876  	23,166442  	27,421411  	26,082717  	27,428210  	27,868283  	32,444306  	31,330993  	34,578124  	56,636868  	24,600151  	23,949802  	25,932566  	61,441125  	0,090772  	0,045995  	-2395,491482  	18553,688088  	-0,027619  	-0,049995  	0,229790  	0,116436  	-3,728180  	4992,067774  	21994,736606  	3,190067  	-0,047947  
139,567000  	19,313736  	31,781196  	22,606992  	657,183579  	70,171610  	62,527162  	0,004973  	0,006303  	0,003963  	0,004159  	0,004197  	0,000000  	-0,000000  	24,367826  	21,482560  	22,363466  	23,164913  	27,420477  	26,078920  	27,428993  	27,863282  	32,438071  	31,328393  	34,575184  	56,634499  	24,601992  	23,957527  	25,926920  	61,435601  	0,135158  	0,068486  	-3570,976225  	18553,696930  	-0,027619  	-0,049995  	0,182464  	0,092456  	-2,958461  	4942,141177  	21888,897878  	3,174716  	-0,047947  
140,564000  	19,297110  	31,782242  	22,608158  	1256,670793  	70,174787  	62,535677  	0,004970  	0,006350  	0,003963  	0,004123  	0,004231  	-0,000001  	-0,000000  	24,366378  	21,485773  	22,362255  	23,163851  	27,416620  	26,076885  	27,424824  	27,859942  	32,429102  	31,329100  	34,578730  	56,632950  	24,601362  	23,965393  	25,929462  	61,439655  	0,106400  	0,053914  	-2815,143609  	25616,200908  	-0,018554  	-0,050007  	0,209444  	0,106127  	-3,393549  	5042,893534  	21835,982045  	3,167041  	-0,047958  
141,564000  	19,289533  	31,794004  	22,607698  	956,927186  	70,173946  	62,527721  	0,004983  	0,006311  	0,003962  	0,004158  	0,004210  	0,000001  	-0,000000  	24,373042  	21,487652  	22,364532  	23,163243  	27,416982  	26,082654  	27,426830  	27,863119  	32,430534  	31,332239  	34,583993  	56,630843  	24,602328  	23,974172  	25,935681  	61,435830  	0,134597  	0,068201  	-3566,708633  	22567,046162  	-0,022191  	-0,049987  	0,192472  	0,097527  	-3,121466  	4959,334241  	22113,927861  	3,207354  	-0,047941  
142,565000  	19,292355  	31,800592  	22,608189  	357,439972  	70,171018  	62,526043  	0,004966  	0,006339  	0,003961  	0,004148  	0,004220  	-0,000000  	-0,000000  	24,364884  	21,484248  	22,364911  	23,156154  	27,414394  	26,079817  	27,422874  	27,864269  	32,429333  	31,334173  	34,577419  	56,623441  	24,594141  	23,976212  	25,931818  	61,430203  	0,126214  	0,063953  	-3345,567231  	12616,284536  	-0,036561  	-0,050003  	0,200732  	0,101712  	-3,254886  	5020,483056  	21745,642417  	3,153939  	-0,047954  
143,567000  	19,309932  	31,801608  	22,609755  	357,439972  	70,168682  	62,525639  	0,004986  	0,006326  	0,003964  	0,004183  	0,004190  	-0,000000  	-0,000000  	24,368731  	21,491067  	22,369992  	23,161167  	27,418320  	26,074819  	27,427751  	27,867180  	32,432525  	31,335865  	34,579339  	56,626832  	24,590634  	23,976720  	25,939469  	61,434519  	0,154593  	0,078334  	-4092,401134  	12615,691336  	-0,036560  	-0,050001  	0,177004  	0,089689  	-2,869408  	4992,683959  	22170,508402  	3,215560  	-0,047952  
144,564000  	19,323491  	31,802840  	22,610922  	956,927186  	70,170364  	62,535956  	0,004964  	0,006326  	0,003962  	0,004169  	0,004261  	0,000002  	-0,000000  	24,377414  	21,496218  	22,375056  	23,169665  	27,427447  	26,077073  	27,432542  	27,873875  	32,438641  	31,335384  	34,588463  	56,632136  	24,595303  	23,986933  	25,944132  	61,439381  	0,143719  	0,072824  	-3800,780150  	22562,176820  	-0,022186  	-0,049976  	0,232920  	0,118022  	-3,771598  	4992,446965  	21694,703690  	3,146551  	-0,047930  
145,564000  	19,297907  	31,802409  	22,610492  	956,927186  	70,169180  	62,545714  	0,004982  	0,006326  	0,003965  	0,004151  	0,004263  	0,000001  	-0,000000  	24,375399  	21,492679  	22,372500  	23,168969  	27,426818  	26,076748  	27,423684  	27,877294  	32,439343  	31,330840  	34,585194  	56,625522  	24,596996  	23,991933  	25,930512  	61,436613  	0,129045  	0,065388  	-3419,587436  	22565,143156  	-0,022189  	-0,049983  	0,234935  	0,119043  	-3,798790  	4991,666652  	22093,549546  	3,204398  	-0,047937  
146,564000  	19,284042  	31,799823  	22,610553  	357,439972  	70,162576  	62,544223  	0,004964  	0,006330  	0,003964  	0,004171  	0,004268  	0,000001  	-0,000000  	24,377054  	21,494821  	22,370947  	23,172333  	27,420927  	26,074216  	27,422500  	27,878841  	32,442569  	31,327319  	34,582890  	56,622699  	24,597292  	23,992636  	25,927655  	61,433491  	0,145125  	0,073536  	-3849,186874  	12611,276018  	-0,036547  	-0,049981  	0,238759  	0,120981  	-3,858022  	5001,084175  	21688,066262  	3,145588  	-0,047936  
147,564000  	19,303368  	31,796590  	22,609724  	1256,670793  	70,154477  	62,527224  	0,004982  	0,006311  	0,003965  	0,004146  	0,004262  	0,000001  	-0,000000  	24,375059  	21,490571  	22,370475  	23,178100  	27,418856  	26,077505  	27,426696  	27,877902  	32,442624  	31,329878  	34,586222  	56,624951  	24,598994  	24,003204  	25,935688  	61,432238  	0,125049  	0,063363  	-3310,718321  	25605,907324  	-0,018546  	-0,049985  	0,233765  	0,118451  	-3,781743  	4959,291087  	22079,349687  	3,202339  	-0,047939  
148,564000  	19,311589  	31,794435  	22,602478  	1256,670793  	70,148372  	62,519765  	0,004971  	0,006341  	0,003963  	0,004121  	0,004240  	0,000000  	-0,000000  	24,372720  	21,477194  	22,367473  	23,179314  	27,423600  	26,082617  	27,425174  	27,873222  	32,439576  	31,331743  	34,582180  	56,627234  	24,606137  	24,014339  	25,934341  	61,429491  	0,104352  	0,052876  	-2760,459195  	25612,780508  	-0,018551  	-0,050000  	0,216663  	0,109785  	-3,505689  	5023,199649  	21844,900206  	3,168335  	-0,047951  
149,564000  	19,305975  	31,798499  	22,597381  	1256,670793  	70,144385  	62,531792  	0,004974  	0,006313  	0,003965  	0,004142  	0,004239  	-0,000000  	-0,000000  	24,365885  	21,477319  	22,364975  	23,175534  	27,425698  	26,081397  	27,424397  	27,872798  	32,442004  	31,324195  	34,578972  	56,632658  	24,605345  	24,027251  	25,928222  	61,429143  	0,121750  	0,061692  	-3223,197327  	25615,665763  	-0,018553  	-0,050006  	0,215885  	0,109390  	-3,485765  	4964,683241  	21902,109184  	3,176632  	-0,047956  
150,563000  	19,300331  	31,797329  	22,598486  	657,183579  	70,141893  	62,532538  	0,004980  	0,006334  	0,003964  	0,004166  	0,004232  	-0,000001  	-0,000000  	24,354914  	21,473484  	22,359172  	23,173561  	27,414620  	26,070498  	27,416384  	27,860841  	32,434386  	31,314312  	34,569161  	56,619232  	24,600093  	24,028257  	25,922534  	61,425652  	0,141356  	0,071626  	-3743,570556  	18559,630961  	-0,027628  	-0,050012  	0,210221  	0,106521  	-3,392882  	5008,184104  	22034,547050  	3,195841  	-0,047962  
151,565000  	19,283306  	31,799546  	22,601802  	-242,047242  	70,137688  	62,523246  	0,004969  	0,006316  	0,003961  	0,004128  	0,004249  	-0,000001  	-0,000000  	24,364930  	21,480629  	22,361892  	23,168784  	27,423652  	26,079300  	27,416991  	27,869602  	32,446105  	31,326961  	34,578939  	56,621915  	24,606594  	24,053839  	25,921413  	61,428716  	0,110651  	0,056068  	-2934,932276  	-27029,057208  	-0,103630  	-0,050009  	0,223247  	0,113121  	-3,605507  	4971,149299  	21810,378520  	3,163328  	-0,047959  
152,564000  	19,283858  	31,795789  	22,604013  	956,927186  	70,137999  	62,515415  	0,004986  	0,006335  	0,003964  	0,004125  	0,004262  	-0,000000  	-0,000000  	24,374322  	21,488305  	22,366419  	23,169241  	27,430587  	26,077765  	27,423191  	27,865236  	32,451066  	31,328882  	34,582734  	56,631547  	24,609761  	24,071154  	25,934089  	61,424796  	0,108202  	0,054827  	-2868,964957  	22572,942486  	-0,022196  	-0,050002  	0,233852  	0,118494  	-3,780817  	5010,104821  	22172,895051  	3,215907  	-0,047953  
153,567000  	19,286527  	31,790832  	22,605794  	1256,670793  	70,140959  	62,510598  	0,004967  	0,006325  	0,003959  	0,004133  	0,004249  	-0,000001  	-0,000000  	24,370433  	21,490432  	22,362813  	23,157155  	27,427413  	26,078168  	27,427957  	27,860130  	32,443014  	31,324399  	34,573269  	56,620269  	24,609731  	24,071624  	25,928169  	61,414726  	0,114405  	0,057970  	-3031,596376  	25617,044851  	-0,018554  	-0,050009  	0,223810  	0,113406  	-3,622158  	4990,333823  	21758,274713  	3,155771  	-0,047959  
154,564000  	19,274502  	31,792557  	22,605057  	1256,670793  	70,146067  	62,497359  	0,004984  	0,006334  	0,003962  	0,004101  	0,004251  	-0,000001  	-0,000000  	24,387936  	21,498520  	22,372738  	23,162599  	27,431584  	26,092952  	27,425710  	27,867263  	32,450115  	31,348218  	34,593277  	56,621602  	24,612816  	24,065032  	25,941040  	61,428170  	0,088686  	0,044938  	-2352,674402  	25619,103843  	-0,018556  	-0,050014  	0,224696  	0,113855  	-3,645227  	5009,504199  	22127,937070  	3,209386  	-0,047963  
155,563000  	19,261342  	31,786368  	22,603952  	1256,670793  	70,149026  	62,493723  	0,004965  	0,006336  	0,003961  	0,004106  	0,004250  	-0,000001  	-0,000000  	24,378465  	21,495272  	22,369073  	23,168326  	27,424824  	26,083459  	27,422848  	27,862098  	32,436058  	31,338237  	34,575656  	56,622993  	24,608144  	24,038261  	25,941535  	61,436764  	0,092508  	0,046874  	-2455,413917  	25615,851792  	-0,018553  	-0,050006  	0,224116  	0,113561  	-3,638955  	5012,453542  	21721,832410  	3,150485  	-0,047957  
156,565000  	19,253919  	31,779163  	22,603460  	1256,670793  	70,149026  	62,491735  	0,004983  	0,006316  	0,003963  	0,004167  	0,004244  	-0,000000  	-0,000000  	24,384507  	21,508216  	22,382133  	23,182264  	27,429208  	26,103870  	27,434396  	27,869129  	32,451635  	31,350748  	34,591582  	56,636283  	24,618018  	24,058113  	25,948079  	61,439688  	0,142229  	0,072068  	-3775,227122  	25615,348206  	-0,018553  	-0,050005  	0,219731  	0,111339  	-3,568687  	4969,067992  	22106,111231  	3,206220  	-0,047956  
157,564000  	19,247232  	31,777008  	22,599684  	1256,670793  	70,149494  	62,505408  	0,004969  	0,006326  	0,003963  	0,004127  	0,004241  	0,000000  	-0,000000  	24,374679  	21,496280  	22,371875  	23,160923  	27,426361  	26,081845  	27,421604  	27,865364  	32,433914  	31,340346  	34,587648  	56,612855  	24,611278  	24,045367  	25,929364  	61,411375  	0,109211  	0,055338  	-2899,866209  	25610,584879  	-0,018550  	-0,049995  	0,216734  	0,109821  	-3,513946  	4990,930908  	21799,652720  	3,161772  	-0,047947  
158,564000  	19,244778  	31,775715  	22,598947  	657,183579  	70,156596  	62,510132  	0,004978  	0,006334  	0,003961  	0,004119  	0,004229  	-0,000001  	-0,000000  	24,370416  	21,495782  	22,356816  	23,163619  	27,423082  	26,084888  	27,423981  	27,863632  	32,438126  	31,336858  	34,584125  	56,611981  	24,613924  	24,039815  	25,921166  	61,419763  	0,103068  	0,052226  	-2737,019780  	18558,347605  	-0,027626  	-0,050008  	0,207579  	0,105182  	-3,366567  	5009,748268  	22006,048477  	3,191707  	-0,047959  
159,562000  	19,263919  	31,775808  	22,599131  	-242,047242  	70,161860  	62,511282  	0,004981  	0,006336  	0,003964  	0,004181  	0,004229  	0,000000  	-0,000000  	24,379232  	21,491155  	22,368056  	23,171551  	27,419936  	26,077248  	27,429661  	27,873038  	32,441839  	31,328863  	34,585030  	56,618976  	24,627832  	24,049353  	25,927397  	61,423827  	0,153569  	0,077814  	-4071,869023  	-27024,504684  	-0,103614  	-0,049999  	0,207668  	0,105227  	-3,369816  	5013,377466  	22057,580336  	3,199182  	-0,047951  
160,563000  	19,283428  	31,773591  	22,600728  	-242,047242  	70,163542  	62,506309  	0,004967  	0,006326  	0,003960  	0,004125  	0,004235  	-0,000000  	-0,000000  	24,385379  	21,492468  	22,382259  	23,174414  	27,423469  	26,074832  	27,425572  	27,881097  	32,451970  	31,336804  	34,585195  	56,624210  	24,631340  	24,063685  	25,935141  	61,425999  	0,107522  	0,054482  	-2845,999145  	-27027,257441  	-0,103624  	-0,050005  	0,212632  	0,107742  	-3,453373  	4991,045514  	21769,381813  	3,157382  	-0,047956  
161,568000  	19,280760  	31,772913  	22,603031  	956,927186  	70,167623  	62,504631  	0,004984  	0,006328  	0,003961  	0,004153  	0,004215  	0,000000  	-0,000000  	24,381952  	21,493586  	22,370685  	23,179982  	27,424984  	26,086701  	27,425635  	27,874578  	32,453340  	31,333773  	34,580829  	56,626769  	24,622780  	24,066728  	25,933256  	61,418188  	0,130663  	0,066208  	-3459,062798  	22570,414955  	-0,022194  	-0,049995  	0,196474  	0,099555  	-3,193344  	4996,778658  	22138,472221  	3,210914  	-0,047947  
162,563000  	19,269103  	31,767433  	22,602846  	-242,047242  	70,172046  	62,501089  	0,004969  	0,006329  	0,003962  	0,004133  	0,004273  	0,000000  	-0,000000  	24,385464  	21,502882  	22,372966  	23,191541  	27,432741  	26,086115  	27,430241  	27,879976  	32,461427  	31,338310  	34,594856  	56,625924  	24,638120  	24,087690  	25,941424  	61,426031  	0,114681  	0,058110  	-3037,470517  	-27023,989122  	-0,103610  	-0,049998  	0,242278  	0,122764  	-3,941907  	4998,534539  	21800,838983  	3,161944  	-0,047950  
163,564000  	19,276189  	31,764939  	22,601649  	657,183579  	70,174164  	62,495774  	0,004984  	0,006327  	0,003961  	0,004109  	0,004230  	-0,000001  	-0,000000  	24,375257  	21,489631  	22,366312  	23,178949  	27,424710  	26,080781  	27,419235  	27,870191  	32,448175  	31,329061  	34,575109  	56,623904  	24,630970  	24,098828  	25,933960  	61,418990  	0,095017  	0,048146  	-2514,703831  	18558,945670  	-0,027627  	-0,050011  	0,208454  	0,105625  	-3,394865  	4993,923405  	22137,949700  	3,210838  	-0,047960  
164,565000  	19,285944  	31,758905  	22,599438  	1256,670793  	70,174912  	62,510629  	0,004968  	0,006331  	0,003963  	0,004144  	0,004249  	-0,000000  	-0,000000  	24,374874  	21,487248  	22,372933  	23,168930  	27,426329  	26,081837  	27,428021  	27,871974  	32,447752  	31,325996  	34,574655  	56,623727  	24,636714  	24,107235  	25,927142  	61,423337  	0,123121  	0,062386  	-3254,384677  	25613,820825  	-0,018552  	-0,050002  	0,223402  	0,113199  	-3,631622  	5003,202976  	21775,327253  	3,158244  	-0,047953  
165,563000  	19,291834  	31,760783  	22,599346  	1256,670793  	70,175192  	62,511095  	0,004981  	0,006337  	0,003962  	0,004123  	0,004234  	-0,000002  	-0,000000  	24,378932  	21,494362  	22,372592  	23,174024  	27,432608  	26,077953  	27,422439  	27,867872  	32,457923  	31,327869  	34,572239  	56,623419  	24,633140  	24,112606  	25,935399  	61,430916  	0,105886  	0,053653  	-2797,925747  	25623,147598  	-0,018559  	-0,050022  	0,211435  	0,107136  	-3,437013  	5015,987943  	22065,855938  	3,200382  	-0,047970  
166,565000  	19,291834  	31,767618  	22,597074  	1256,670793  	70,173634  	62,511344  	0,004966  	0,006321  	0,003961  	0,004109  	0,004245  	-0,000002  	-0,000000  	24,377084  	21,492731  	22,368460  	23,171226  	27,428716  	26,080754  	27,416988  	27,859124  	32,451704  	31,336098  	34,571631  	56,623252  	24,638949  	24,112804  	25,935597  	61,430319  	0,094621  	0,047945  	-2501,637752  	25623,656588  	-0,018559  	-0,050023  	0,220452  	0,111705  	-3,582748  	4981,735523  	21748,593954  	3,154367  	-0,047971  
167,564000  	19,291741  	31,774083  	22,596153  	357,439972  	70,174226  	62,523495  	0,004978  	0,006331  	0,003961  	0,004123  	0,004235  	-0,000002  	-0,000000  	24,379442  	21,496012  	22,371668  	23,165338  	27,428319  	26,081255  	27,421522  	27,860604  	32,444933  	31,338123  	34,575733  	56,627125  	24,641706  	24,113208  	25,946204  	61,429339  	0,106447  	0,053937  	-2815,759596  	12620,766409  	-0,036573  	-0,050020  	0,212039  	0,107442  	-3,440816  	5002,771434  	21995,718098  	3,190209  	-0,047969  
168,563000  	19,285054  	31,770943  	22,595846  	-242,047242  	70,177777  	62,524551  	0,004975  	0,006320  	0,003962  	0,004120  	0,004229  	0,000000  	-0,000000  	24,376931  	21,497974  	22,373288  	23,162206  	27,427759  	26,084223  	27,425792  	27,869485  	32,451210  	31,337510  	34,575091  	56,627663  	24,635558  	24,105099  	25,947290  	61,423953  	0,104230  	0,052814  	-2757,897739  	-27023,317438  	-0,103610  	-0,049997  	0,207796  	0,105292  	-3,373062  	4977,898335  	21925,530830  	3,180029  	-0,047949  
169,566000  	19,276434  	31,770573  	22,594710  	956,927186  	70,181422  	62,531543  	0,004971  	0,006341  	0,003961  	0,004137  	0,004251  	-0,000001  	-0,000000  	24,377471  	21,499237  	22,372043  	23,162782  	27,425369  	26,083121  	27,429378  	27,870702  	32,450095  	31,338586  	34,577967  	56,625959  	24,630320  	24,083662  	25,934832  	61,423841  	0,117566  	0,059572  	-3112,844054  	22579,707218  	-0,022203  	-0,050018  	0,224834  	0,113925  	-3,648050  	5024,359860  	21842,492373  	3,167986  	-0,047966  
170,567000  	19,278275  	31,765832  	22,594403  	357,439972  	70,188960  	62,523277  	0,004984  	0,006331  	0,003962  	0,004142  	0,004239  	-0,000001  	-0,000000  	24,384104  	21,499223  	22,372417  	23,166483  	27,422206  	26,082776  	27,429475  	27,866768  	32,441341  	31,337086  	34,578544  	56,624153  	24,627248  	24,056543  	25,933865  	61,428284  	0,121516  	0,061573  	-3215,729616  	12619,929507  	-0,036571  	-0,050016  	0,215403  	0,109146  	-3,502246  	5003,370641  	22121,306703  	3,208424  	-0,047965  
171,564000  	19,286281  	31,767864  	22,594495  	1256,670793  	70,195875  	62,513239  	0,004966  	0,006320  	0,003963  	0,004117  	0,004261  	-0,000000  	-0,000000  	24,380403  	21,494087  	22,371496  	23,165416  	27,419017  	26,083615  	27,423372  	27,865006  	32,438386  	31,333450  	34,571477  	56,618866  	24,620843  	24,033985  	25,941130  	61,425816  	0,101549  	0,051455  	-2686,033216  	25614,986769  	-0,018553  	-0,050004  	0,232763  	0,117943  	-3,792866  	4979,356382  	21740,706713  	3,153223  	-0,047955  
172,564000  	19,292232  	31,769280  	22,594003  	1256,670793  	70,196062  	62,519828  	0,004986  	0,006326  	0,003962  	0,004171  	0,004264  	-0,000001  	-0,000000  	24,378075  	21,496770  	22,371580  	23,164187  	27,418566  	26,075098  	27,424991  	27,867647  	32,443471  	31,333954  	34,571661  	56,617231  	24,616046  	24,017217  	25,939657  	61,431489  	0,145301  	0,073625  	-3841,901377  	25621,096708  	-0,018557  	-0,050017  	0,234978  	0,119065  	-3,825775  	4991,859785  	22172,478447  	3,215846  	-0,047966  
173,566000  	19,293214  	31,773745  	22,592745  	-242,047242  	70,194816  	62,521195  	0,004964  	0,006332  	0,003962  	0,004142  	0,004284  	-0,000001  	-0,000000  	24,383359  	21,504122  	22,374164  	23,172370  	27,417327  	26,076309  	27,432359  	27,875436  	32,450429  	31,340397  	34,575523  	56,622324  	24,617839  	24,002694  	25,935751  	61,440986  	0,121743  	0,061688  	-3219,916889  	-27030,513190  	-0,103639  	-0,050012  	0,250827  	0,127096  	-4,082416  	5005,634468  	21701,376423  	3,147519  	-0,047962  
174,565000  	19,291189  	31,776146  	22,591946  	-242,047242  	70,192075  	62,524240  	0,004984  	0,006334  	0,003967  	0,004155  	0,004252  	0,000001  	-0,000000  	24,374128  	21,499532  	22,371170  	23,175366  	27,416114  	26,083387  	27,425510  	27,879008  	32,446803  	31,341096  	34,570106  	56,622320  	24,617466  	23,985329  	25,939066  	61,430860  	0,132108  	0,066940  	-3495,291961  	-27021,446397  	-0,103605  	-0,049993  	0,226074  	0,114554  	-3,676778  	5008,305078  	22134,687475  	3,210365  	-0,047946  
175,702000  	19,297999  	31,778086  	22,592775  	657,183579  	70,188835  	62,536049  	0,004966  	0,006328  	0,003962  	0,004172  	0,004263  	0,000001  	-0,000000  	24,371766  	21,493748  	22,368094  	23,171756  	27,417719  	26,072494  	27,420393  	27,876260  	32,442757  	31,332506  	34,563104  	56,620541  	24,617191  	23,961173  	25,940451  	61,425819  	0,146283  	0,074123  	-3868,819099  	18553,720533  	-0,027619  	-0,049994  	0,234673  	0,118911  	-3,809137  	4996,223312  	21744,427909  	3,153763  	-0,047946  
176,565000  	19,313889  	31,775746  	22,593021  	1256,670793  	70,184599  	62,537230  	0,004978  	0,006329  	0,003964  	0,004129  	0,004261  	0,000000  	-0,000000  	24,384466  	21,494153  	22,370775  	23,180978  	27,420388  	26,077653  	27,425711  	27,871088  	32,445028  	31,331973  	34,559068  	56,625797  	24,616827  	23,951389  	25,944345  	61,425842  	0,111370  	0,056432  	-2941,151082  	25611,761642  	-0,018550  	-0,049997  	0,233129  	0,118128  	-3,781394  	4998,975278  	22001,155140  	3,190998  	-0,047949  
177,564000  	19,311681  	31,779317  	22,593297  	-242,047242  	70,185066  	62,544689  	0,004971  	0,006312  	0,003965  	0,004148  	0,004235  	0,000001  	-0,000000  	24,377442  	21,495718  	22,363633  	23,178194  	27,422991  	26,076769  	27,418928  	27,867930  	32,446180  	31,329375  	34,556530  	56,625640  	24,617524  	23,944587  	25,943161  	61,430010  	0,126746  	0,064223  	-3348,769259  	-27019,448306  	-0,103597  	-0,049989  	0,212291  	0,107570  	-3,440264  	4961,895196  	21855,844900  	3,169922  	-0,047942  
178,563000  	19,296281  	31,784305  	22,592560  	-242,047242  	70,185253  	62,542513  	0,004971  	0,006327  	0,003961  	0,004126  	0,004219  	0,000001  	-0,000000  	24,371881  	21,481924  	22,360403  	23,178737  	27,427287  	26,071586  	27,426271  	27,871709  	32,445033  	31,326319  	34,552907  	56,620890  	24,630480  	23,957366  	25,931470  	61,433956  	0,108382  	0,054918  	-2868,253873  	-27020,263992  	-0,103600  	-0,049991  	0,199365  	0,101020  	-3,231780  	4994,502803  	21851,191640  	3,169247  	-0,047944  
179,567000  	19,295177  	31,783843  	22,591916  	-242,047242  	70,180145  	62,554789  	0,004984  	0,006339  	0,003963  	0,004153  	0,004220  	-0,000000  	-0,000000  	24,365423  	21,475172  	22,352418  	23,167764  	27,418953  	26,068760  	27,414639  	27,856698  	32,445698  	31,319418  	34,556209  	56,623328  	24,621491  	23,970148  	25,940606  	61,420237  	0,130805  	0,066280  	-3461,840439  	-27026,428889  	-0,103624  	-0,050004  	0,200603  	0,101647  	-3,244460  	5020,221300  	22119,216620  	3,208121  	-0,047955  
180,564000  	19,315239  	31,785444  	22,592714  	956,927186  	70,175036  	62,534713  	0,004965  	0,006326  	0,003959  	0,004151  	0,004227  	-0,000001  	-0,000000  	24,366632  	21,490878  	22,369445  	23,174409  	27,427322  	26,081765  	27,426817  	27,864916  	32,453386  	31,331516  	34,565865  	56,637751  	24,618685  	24,006810  	25,946985  	61,437591  	0,129266  	0,065500  	-3416,058770  	22579,592356  	-0,022203  	-0,050017  	0,206130  	0,104448  	-3,340384  	4991,598030  	21717,426288  	3,149846  	-0,047966  
181,571000  	19,310515  	31,784182  	22,591793  	956,927186  	70,171547  	62,532693  	0,004984  	0,006331  	0,003961  	0,004145  	0,004199  	-0,000000  	-0,000000  	24,378270  	21,495493  	22,368467  	23,175178  	27,425749  	26,086592  	27,431619  	27,870291  	32,451161  	31,335939  	34,566963  	56,635999  	24,615632  	24,011854  	25,942073  	61,433582  	0,123992  	0,062828  	-3277,582973  	22573,984654  	-0,022197  	-0,050003  	0,183716  	0,093090  	-2,976591  	5001,950796  	22119,513186  	3,208164  	-0,047954  
182,565000  	19,285668  	31,788739  	22,593021  	357,439972  	70,169554  	62,519144  	0,004963  	0,006319  	0,003960  	0,004118  	0,004202  	-0,000001  	-0,000000  	24,370198  	21,476517  	22,359495  	23,152018  	27,422784  	26,073224  	27,417827  	27,851206  	32,442493  	31,329903  	34,561200  	56,621914  	24,611808  	24,018887  	25,934272  	61,419742  	0,101845  	0,051606  	-2698,520681  	12618,393183  	-0,036566  	-0,050009  	0,186176  	0,094337  	-3,021014  	4975,841082  	21679,374056  	3,144327  	-0,047959  
183,564000  	19,284103  	31,786060  	22,592008  	1256,670793  	70,165099  	62,533377  	0,004984  	0,006334  	0,003961  	0,004148  	0,004226  	0,000000  	-0,000000  	24,366223  	21,506081  	22,362634  	23,164397  	27,423838  	26,078472  	27,420306  	27,863761  	32,437128  	31,329577  	34,566674  	56,625949  	24,615949  	24,042192  	25,936334  	61,430049  	0,126145  	0,063918  	-3342,059698  	25611,710152  	-0,018550  	-0,049997  	0,204887  	0,103818  	-3,316504  	5008,142365  	22121,603269  	3,208467  	-0,047948  
184,566000  	19,302509  	31,782797  	22,591578  	1256,670793  	70,159929  	62,531885  	0,004963  	0,006320  	0,003962  	0,004121  	0,004202  	-0,000000  	-0,000000  	24,376235  	21,504124  	22,373533  	23,164198  	27,426512  	26,087362  	27,426976  	27,862459  	32,437591  	31,337964  	34,558543  	56,623348  	24,618595  	24,052153  	25,942738  	61,427884  	0,104716  	0,053060  	-2769,522164  	25615,471671  	-0,018553  	-0,050005  	0,186117  	0,094307  	-3,011228  	4979,686759  	21671,818686  	3,143232  	-0,047955  
185,563000  	19,341405  	31,784613  	22,588200  	1256,670793  	70,158745  	62,530704  	0,004980  	0,006326  	0,003964  	0,004137  	0,004232  	0,000001  	-0,000000  	24,369158  	21,480777  	22,362389  	23,150474  	27,417619  	26,064563  	27,430367  	27,865256  	32,433706  	31,332507  	34,555702  	56,613334  	24,619152  	24,047492  	25,939634  	61,425752  	0,117721  	0,059650  	-3104,200444  	25608,273826  	-0,018548  	-0,049989  	0,210211  	0,106516  	-3,401045  	4991,394993  	22044,361970  	3,197264  	-0,047942  
186,564000  	19,372143  	31,783689  	22,588384  	1256,670793  	70,161424  	62,528715  	0,004970  	0,006337  	0,003965  	0,004132  	0,004229  	-0,000000  	-0,000000  	24,373979  	21,487499  	22,378043  	23,162882  	27,428561  	26,078151  	27,424957  	27,870544  	32,440400  	31,337832  	34,566030  	56,622249  	24,632271  	24,038807  	25,941657  	61,420722  	0,113910  	0,057719  	-2996,066491  	25614,457523  	-0,018552  	-0,050002  	0,207728  	0,105257  	-3,362923  	5016,056565  	21817,870340  	3,164415  	-0,047953  
187,564000  	19,366713  	31,781196  	22,588661  	357,439972  	70,163635  	62,519486  	0,004974  	0,006331  	0,003966  	0,004129  	0,004244  	-0,000000  	-0,000000  	24,375488  	21,494509  	22,377984  	23,167647  	27,420494  	26,074846  	27,423976  	27,869492  	32,444053  	31,325916  	34,565305  	56,618434  	24,643113  	24,032202  	25,943664  	61,429997  	0,111168  	0,056330  	-2924,651561  	12617,393504  	-0,036563  	-0,050004  	0,219541  	0,111243  	-3,559495  	5001,690456  	21921,816695  	3,179491  	-0,047955  
188,562000  	19,339964  	31,778732  	22,588784  	-242,047242  	70,163760  	62,518616  	0,004983  	0,006324  	0,003967  	0,004139  	0,004252  	-0,000000  	-0,000000  	24,375356  	21,487379  	22,374425  	23,172297  	27,422916  	26,072613  	27,430103  	27,872502  	32,443312  	31,327559  	34,569455  	56,619422  	24,641137  	24,008247  	25,942870  	61,426138  	0,118913  	0,060254  	-3134,530968  	-27025,213207  	-0,103620  	-0,050001  	0,225799  	0,114414  	-3,661430  	4986,773247  	22103,555115  	3,205850  	-0,047952  
189,565000  	19,313490  	31,779194  	22,589674  	57,696365  	70,161361  	62,518553  	0,004969  	0,006334  	0,003963  	0,004106  	0,004232  	-0,000000  	-0,000000  	24,370061  	21,496083  	22,367838  	23,169975  	27,424498  	26,069897  	27,429058  	27,868957  	32,442467  	31,323338  	34,558772  	56,618025  	24,639501  	23,986192  	25,948187  	61,437989  	0,092583  	0,046913  	-2445,766445  	1908,618920  	-0,054054  	-0,050005  	0,209892  	0,106354  	-3,402457  	5008,558343  	21797,315498  	3,161433  	-0,047956  
190,563000  	19,306251  	31,788862  	22,590411  	1256,670793  	70,161424  	62,517932  	0,004985  	0,006323  	0,003963  	0,004152  	0,004280  	-0,000000  	-0,000000  	24,370845  	21,484931  	22,364830  	23,165916  	27,424817  	26,067916  	27,429012  	27,866406  	32,443115  	31,314741  	34,557854  	56,613238  	24,640789  	23,961439  	25,941675  	61,433965  	0,129775  	0,065758  	-3432,918289  	25614,221002  	-0,018552  	-0,050002  	0,247793  	0,125558  	-4,017199  	4986,200923  	22149,487527  	3,212512  	-0,047953  
191,564000  	19,297785  	31,797082  	22,590227  	1256,670793  	70,162701  	62,522469  	0,004967  	0,006317  	0,003968  	0,004133  	0,004250  	0,000000  	-0,000000  	24,365628  	21,474823  	22,365250  	23,164053  	27,423091  	26,069906  	27,420818  	27,867919  	32,439005  	31,314159  	34,551095  	56,612444  	24,644432  	23,939919  	25,936649  	61,423976  	0,114137  	0,057834  	-3023,285640  	25613,099718  	-0,018551  	-0,049999  	0,224037  	0,113521  	-3,630531  	4971,352336  	21765,575883  	3,156830  	-0,047951  
192,566000  	19,286373  	31,804225  	22,589367  	1256,670793  	70,159773  	62,531170  	0,004986  	0,006316  	0,003964  	0,004160  	0,004229  	0,000000  	-0,000000  	24,365068  	21,479814  	22,368241  	23,169555  	27,422901  	26,075466  	27,414147  	27,865521  	32,442114  	31,321233  	34,549616  	56,622212  	24,653867  	23,936948  	25,941279  	61,428698  	0,136554  	0,069193  	-3622,440456  	25611,867204  	-0,018550  	-0,049997  	0,207855  	0,105322  	-3,363179  	4971,031863  	22165,925752  	3,214896  	-0,047949  
193,563000  	19,279257  	31,807181  	22,590135  	-242,047242  	70,157842  	62,519237  	0,004963  	0,006334  	0,003963  	0,004136  	0,004291  	0,000001  	-0,000000  	24,367153  	21,485403  	22,366661  	23,168281  	27,425498  	26,075668  	27,422799  	27,863121  	32,446981  	31,327425  	34,548041  	56,622956  	24,656209  	23,937629  	25,943313  	61,432806  	0,116437  	0,058999  	-3091,269443  	-27020,203082  	-0,103601  	-0,049991  	0,257083  	0,130266  	-4,165154  	5009,712895  	21676,358969  	3,143890  	-0,047944  
194,566000  	19,291036  	31,804349  	22,590196  	357,439972  	70,159524  	62,517000  	0,004981  	0,006338  	0,003964  	0,004112  	0,004261  	0,000000  	-0,000000  	24,363846  	21,480570  	22,361308  	23,166574  	27,424055  	26,070725  	27,420864  	27,864733  	32,443309  	31,324813  	34,547379  	56,615219  	24,648378  	23,926210  	25,941650  	61,428746  	0,097429  	0,049368  	-2583,617050  	12615,798448  	-0,036558  	-0,049997  	0,233220  	0,118174  	-3,780471  	5017,109245  	22065,185134  	3,200285  	-0,047949  
195,565000  	19,297846  	31,797329  	22,591209  	357,439972  	70,165598  	62,510753  	0,004969  	0,006315  	0,003960  	0,004163  	0,004213  	0,000000  	-0,000000  	24,364108  	21,482211  	22,361809  	23,168692  	27,423900  	26,072010  	27,419670  	27,863161  	32,441066  	31,322495  	34,542481  	56,613235  	24,644524  	23,916941  	25,940621  	61,426874  	0,138563  	0,070211  	-3670,331126  	12616,330554  	-0,036560  	-0,050000  	0,195221  	0,098920  	-3,169615  	4968,301828  	21810,533864  	3,163350  	-0,047951  
196,563000  	19,295024  	31,789816  	22,591701  	956,927186  	70,167218  	62,511810  	0,004976  	0,006337  	0,003962  	0,004105  	0,004272  	-0,000001  	-0,000000  	24,371404  	21,490192  	22,364782  	23,170665  	27,428185  	26,080843  	27,428161  	27,864794  	32,443132  	31,326323  	34,547297  	56,622180  	24,651489  	23,913051  	25,946361  	61,429985  	0,092017  	0,046626  	-2436,493500  	22578,828010  	-0,022202  	-0,050015  	0,242075  	0,122661  	-3,930615  	5016,072836  	21952,348863  	3,183919  	-0,047964  
197,564000  	19,303460  	31,788585  	22,591301  	57,696365  	70,169865  	62,506900  	0,004977  	0,006318  	0,003965  	0,004153  	0,004258  	-0,000001  	-0,000000  	24,375793  	21,492612  	22,368835  	23,168458  	27,429245  	26,087907  	27,432878  	27,865311  	32,443592  	31,328967  	34,560705  	56,628684  	24,652609  	23,910154  	25,949830  	61,428687  	0,130502  	0,066126  	-3452,835893  	1908,777691  	-0,054061  	-0,050012  	0,230364  	0,116727  	-3,744155  	4973,477504  	21980,473197  	3,187998  	-0,047962  
198,567000  	19,299778  	31,787292  	22,591793  	1256,670793  	70,172482  	62,513426  	0,004971  	0,006337  	0,003966  	0,004123  	0,004245  	0,000000  	-0,000000  	24,376237  	21,495205  	22,373104  	23,164185  	27,425560  	26,088240  	27,434389  	27,862125  	32,444706  	31,330835  	34,564335  	56,624503  	24,648059  	23,908280  	25,944623  	61,423402  	0,106498  	0,053963  	-2818,274044  	25611,435786  	-0,018550  	-0,049996  	0,220229  	0,111592  	-3,577603  	5014,493109  	21846,008797  	3,168496  	-0,047948  
199,563000  	19,295545  	31,784798  	22,591793  	1256,670793  	70,180332  	62,515694  	0,004983  	0,006333  	0,003966  	0,004137  	0,004218  	-0,000000  	-0,000000  	24,376361  	21,500882  	22,376070  	23,167453  	27,423790  	26,088640  	27,436390  	27,869602  	32,447699  	31,340296  	34,563124  	56,621046  	24,657275  	23,907444  	25,945752  	61,421755  	0,117471  	0,059523  	-3109,089991  	25613,861005  	-0,018552  	-0,050001  	0,199181  	0,100927  	-3,238044  	5006,324936  	22110,460864  	3,206851  	-0,047952  
200,563000  	19,302662  	31,784798  	22,591424  	57,696365  	70,186998  	62,514016  	0,004966  	0,006325  	0,003964  	0,004166  	0,004228  	0,000000  	-0,000000  	24,379204  	21,507435  	22,381716  	23,174796  	27,426096  	26,089488  	27,442024  	27,879048  	32,450361  	31,349491  	34,564363  	56,621114  	24,668493  	23,913129  	25,952164  	61,424264  	0,140895  	0,071393  	-3726,938727  	1908,148500  	-0,054044  	-0,049994  	0,207152  	0,104965  	-3,371285  	4988,875777  	21749,674301  	3,154524  	-0,047946  
201,565000  	19,313705  	31,786861  	22,590872  	57,696365  	70,193196  	62,516906  	0,004988  	0,006328  	0,003968  	0,004131  	0,004252  	0,000000  	-0,000000  	24,390056  	21,513353  	22,374037  	23,178878  	27,426535  	26,080248  	27,440951  	27,885578  	32,452868  	31,341710  	34,571156  	56,619674  	24,672184  	23,917339  	25,952190  	61,431100  	0,112638  	0,057074  	-2977,322609  	1908,356370  	-0,054049  	-0,049999  	0,226075  	0,114554  	-3,680833  	4996,932881  	22224,539888  	3,223397  	-0,047951  
202,565000  	19,317938  	31,783228  	22,591977  	657,183579  	70,190518  	62,524613  	0,004964  	0,006329  	0,003967  	0,004096  	0,004219  	-0,000000  	-0,000000  	24,390045  	21,507956  	22,365167  	23,180882  	27,424279  	26,078025  	27,427795  	27,885420  	32,454196  	31,329613  	34,559129  	56,613566  	24,679703  	23,925694  	25,947366  	61,426513  	0,084621  	0,042878  	-2235,356535  	18556,968246  	-0,027624  	-0,050003  	0,199900  	0,101291  	-3,250277  	4997,123184  	21694,774301  	3,146561  	-0,047954  
203,563000  	19,322448  	31,778425  	22,592069  	-242,047242  	70,183789  	62,524800  	0,004984  	0,006331  	0,003963  	0,004127  	0,004276  	-0,000000  	-0,000000  	24,378782  	21,495905  	22,371281  	23,174515  	27,423607  	26,077831  	27,430851  	27,873606  	32,447664  	31,329485  	34,555321  	56,606691  	24,685013  	23,934684  	25,943416  	61,415139  	0,109355  	0,055411  	-2886,575113  	-27026,857605  	-0,103625  	-0,050005  	0,244617  	0,123949  	-3,973766  	5001,432238  	22137,363630  	3,210753  	-0,047955  
204,566000  	19,324902  	31,773683  	22,591394  	956,927186  	70,179491  	62,522687  	0,004966  	0,006329  	0,003963  	0,004173  	0,004220  	0,000000  	-0,000000  	24,365207  	21,487182  	22,371173  	23,172966  	27,429318  	26,078619  	27,426703  	27,871733  	32,439165  	31,335321  	34,556668  	56,609562  	24,693756  	23,932757  	25,938396  	61,419655  	0,146915  	0,074443  	-3875,779490  	22571,713277  	-0,022195  	-0,049997  	0,200585  	0,101638  	-3,257530  	4997,246987  	21733,101915  	3,152120  	-0,047949  
205,564000  	19,329718  	31,771774  	22,591271  	956,927186  	70,180518  	62,535335  	0,004976  	0,006318  	0,003964  	0,004196  	0,004215  	-0,000001  	-0,000000  	24,369022  	21,484732  	22,366327  	23,181985  	27,426841  	26,075902  	27,428796  	27,882811  	32,448959  	31,326883  	34,554743  	56,619782  	24,695275  	23,956662  	25,948595  	61,417121  	0,165053  	0,083634  	-4351,928227  	22575,833757  	-0,022199  	-0,050008  	0,196374  	0,099504  	-3,184321  	4974,073881  	21964,797570  	3,185725  	-0,047958  
206,563000  	19,323644  	31,773006  	22,592008  	357,439972  	70,177777  	62,528249  	0,004978  	0,006326  	0,003960  	0,004130  	0,004207  	-0,000001  	-0,000000  	24,369625  	21,485725  	22,371969  	23,180545  	27,424412  	26,073352  	27,424113  	27,874825  	32,447109  	31,330571  	34,558307  	56,618683  	24,689440  	23,958101  	25,946492  	61,404431  	0,111908  	0,056705  	-2952,393218  	12618,177061  	-0,036565  	-0,050008  	0,190261  	0,096406  	-3,086932  	4990,821961  	21992,582972  	3,189754  	-0,047958  
207,565000  	19,317018  	31,779379  	22,591823  	1256,670793  	70,174912  	62,525359  	0,004968  	0,006345  	0,003966  	0,004091  	0,004243  	-0,000000  	-0,000000  	24,371178  	21,480451  	22,371679  	23,173693  	27,426985  	26,082912  	27,427705  	27,875990  	32,444659  	31,322368  	34,556831  	56,625729  	24,696404  	23,977019  	25,949428  	61,414800  	0,080510  	0,040795  	-2126,257902  	25615,971992  	-0,018553  	-0,050006  	0,218878  	0,110907  	-3,551250  	5033,478134  	21778,137568  	3,158652  	-0,047956  
208,563000  	19,322356  	31,781781  	22,588262  	1256,670793  	70,171983  	62,533936  	0,004983  	0,006326  	0,003963  	0,004133  	0,004254  	0,000001  	-0,000000  	24,374440  	21,493495  	22,376807  	23,179483  	27,429660  	26,085063  	27,429190  	27,870271  	32,448420  	31,329875  	34,551691  	56,621106  	24,695424  	23,992662  	25,943583  	61,420954  	0,114706  	0,058123  	-3028,667642  	25609,547281  	-0,018549  	-0,049992  	0,227332  	0,115191  	-3,682874  	4991,462200  	22097,581430  	3,204983  	-0,047944  
209,564000  	19,309656  	31,782212  	22,589490  	1256,670793  	70,170956  	62,528342  	0,004967  	0,006331  	0,003962  	0,004143  	0,004207  	0,000000  	-0,000000  	24,377269  	21,486382  	22,368715  	23,171628  	27,431731  	26,079822  	27,427639  	27,863370  	32,442465  	31,331480  	34,550705  	56,620810  	24,692352  	23,993974  	25,957337  	61,411461  	0,122466  	0,062054  	-3236,955243  	25612,921086  	-0,018551  	-0,049999  	0,189909  	0,096228  	-3,078445  	5001,837605  	21765,879510  	3,156874  	-0,047951  
210,567000  	19,318981  	31,785537  	22,589121  	1256,670793  	70,168837  	62,532631  	0,004985  	0,006315  	0,003966  	0,004150  	0,004261  	-0,000000  	-0,000000  	24,365950  	21,492138  	22,373983  	23,159148  	27,412673  	26,074715  	27,419224  	27,868170  	32,447904  	31,330761  	34,551086  	56,613415  	24,698717  	23,984385  	25,955288  	61,411189  	0,127944  	0,064830  	-3380,110733  	25615,031918  	-0,018553  	-0,050004  	0,232797  	0,117960  	-3,770500  	4968,637865  	22139,707913  	3,211093  	-0,047954  
211,564000  	19,334718  	31,785537  	22,589398  	357,439972  	70,169118  	62,546149  	0,004966  	0,006325  	0,003960  	0,004142  	0,004245  	-0,000000  	-0,000000  	24,370841  	21,492858  	22,372747  	23,163338  	27,428426  	26,081553  	27,422316  	27,863747  	32,442896  	31,328444  	34,548080  	56,619443  	24,695083  	23,979659  	25,947279  	61,413578  	0,121310  	0,061469  	-3200,813288  	12617,872963  	-0,036564  	-0,050006  	0,220156  	0,111555  	-3,559580  	4990,284302  	21739,280372  	3,153016  	-0,047957  
212,563000  	19,329258  	31,790463  	22,589213  	-242,047242  	70,167747  	62,533284  	0,004981  	0,006322  	0,003966  	0,004189  	0,004276  	0,000001  	-0,000000  	24,378647  	21,499851  	22,379056  	23,170992  	27,434853  	26,087466  	27,443097  	27,868736  	32,448816  	31,331601  	34,560363  	56,623825  	24,702331  	23,978139  	25,959644  	61,430639  	0,159901  	0,081023  	-4222,567499  	-27018,659877  	-0,103595  	-0,049988  	0,244968  	0,124127  	-3,966723  	4981,984544  	22064,733224  	3,200219  	-0,047941  
213,565000  	19,319472  	31,792156  	22,589981  	-242,047242  	70,165286  	62,519672  	0,004966  	0,006335  	0,003958  	0,004122  	0,004188  	0,000002  	-0,000000  	24,376348  	21,498074  	22,370008  	23,164584  	27,423141  	26,084507  	27,432355  	27,860756  	32,440815  	31,337431  	34,551543  	56,612669  	24,695837  	23,958426  	25,949840  	61,422038  	0,105517  	0,053466  	-2789,010020  	-27014,557714  	-0,103579  	-0,049979  	0,175135  	0,088742  	-2,840064  	5010,151512  	21730,778815  	3,151783  	-0,047934  
214,564000  	19,325730  	31,790001  	22,590350  	357,439972  	70,163542  	62,511779  	0,004977  	0,006329  	0,003962  	0,004130  	0,004232  	0,000001  	-0,000000  	24,372702  	21,489717  	22,370970  	23,159002  	27,420490  	26,081530  	27,432106  	27,868374  	32,441767  	31,326058  	34,551587  	56,610662  	24,690381  	23,944212  	25,947487  	61,408334  	0,111917  	0,056709  	-2956,160040  	12614,864993  	-0,036555  	-0,049993  	0,209979  	0,106398  	-3,407845  	4997,708242  	21972,006946  	3,186770  	-0,047945  
215,564000  	19,339442  	31,791756  	22,590257  	357,439972  	70,164071  	62,521288  	0,004974  	0,006332  	0,003965  	0,004111  	0,004238  	0,000000  	-0,000000  	24,380321  	21,496328  	22,374855  	23,166045  	27,418153  	26,081266  	27,430370  	27,865283  	32,441218  	31,328544  	34,557586  	56,614745  	24,706661  	23,928531  	25,948253  	61,409447  	0,096666  	0,048981  	-2550,876585  	12616,262858  	-0,036559  	-0,049999  	0,214629  	0,108754  	-3,479226  	5004,462230  	21910,603679  	3,177864  	-0,047951  
216,564000  	19,344903  	31,790894  	22,590442  	-242,047242  	70,166937  	62,521350  	0,004968  	0,006332  	0,003962  	0,004135  	0,004254  	0,000000  	-0,000000  	24,386180  	21,499092  	22,383093  	23,176330  	27,425966  	26,082913  	27,436653  	27,879719  	32,443058  	31,334348  	34,558521  	56,617176  	24,717295  	23,928090  	25,955335  	61,423502  	0,116122  	0,058840  	-3062,745128  	-27024,329826  	-0,103616  	-0,049999  	0,227743  	0,115399  	-3,693172  	5004,312252  	21791,518340  	3,160593  	-0,047951  
217,566000  	19,344412  	31,788616  	22,590657  	956,927186  	70,174257  	62,522003  	0,004987  	0,006323  	0,003964  	0,004146  	0,004236  	0,000000  	-0,000000  	24,386521  	21,501035  	22,383243  	23,178401  	27,425692  	26,076341  	27,435659  	27,878028  	32,445799  	31,332497  	34,557949  	56,614464  	24,722809  	23,933968  	25,951458  	61,421505  	0,124948  	0,063312  	-3295,047138  	22572,456182  	-0,022195  	-0,049999  	0,213302  	0,108082  	-3,462007  	4984,619781  	22195,073945  	3,219123  	-0,047951  
218,564000  	19,324472  	31,793049  	22,590841  	-242,047242  	70,182232  	62,523992  	0,004964  	0,006331  	0,003962  	0,004142  	0,004254  	0,000001  	-0,000000  	24,386291  	21,504803  	22,380276  	23,188670  	27,428777  	26,081568  	27,442499  	27,884939  	32,455833  	31,342688  	34,559889  	56,621911  	24,728902  	23,933859  	25,959461  	61,425562  	0,121466  	0,061548  	-3209,495093  	-27017,977701  	-0,103592  	-0,049986  	0,227394  	0,115222  	-3,693615  	5001,645180  	21686,802326  	3,145405  	-0,047940  
219,566000  	19,301466  	31,801454  	22,590380  	657,183579  	70,190362  	62,540835  	0,004985  	0,006330  	0,003964  	0,004146  	0,004256  	0,000001  	-0,000000  	24,380900  	21,497427  	22,379553  	23,186894  	27,425765  	26,079531  	27,438117  	27,881515  	32,458195  	31,337459  	34,558906  	56,620917  	24,728269  	23,920066  	25,955096  	61,417625  	0,125102  	0,063390  	-3313,919549  	18552,317114  	-0,027617  	-0,049989  	0,229189  	0,116132  	-3,718541  	5001,103983  	22143,951630  	3,211709  	-0,047942  
220,563000  	19,296987  	31,797575  	22,590872  	1256,670793  	70,190922  	62,531637  	0,004964  	0,006322  	0,003960  	0,004143  	0,004222  	-0,000001  	-0,000000  	24,372017  	21,491001  	22,371352  	23,173339  	27,423954  	26,077482  	27,426903  	27,873098  	32,448183  	31,324979  	34,552976  	56,616884  	24,726935  	23,909607  	25,948141  	61,409311  	0,122435  	0,062039  	-3243,410573  	25617,257730  	-0,018554  	-0,050009  	0,201988  	0,102349  	-3,281393  	4982,205975  	21705,500101  	3,148117  	-0,047959  
221,565000  	19,304932  	31,800438  	22,591823  	956,927186  	70,186904  	62,522376  	0,004981  	0,006332  	0,003963  	0,004145  	0,004229  	0,000000  	-0,000000  	24,373283  	21,486051  	22,366643  	23,166831  	27,427487  	26,080995  	27,424438  	27,873151  	32,446001  	31,321088  	34,546656  	56,614247  	24,728557  	23,913917  	25,943622  	61,417915  	0,124256  	0,062962  	-3290,323117  	22571,715618  	-0,022195  	-0,049997  	0,207694  	0,105240  	-3,376383  	5003,951454  	22058,731294  	3,199348  	-0,047949  
222,566000  	19,291864  	31,805365  	22,592130  	-242,047242  	70,183727  	62,527224  	0,004966  	0,006335  	0,003966  	0,004127  	0,004233  	-0,000000  	-0,000000  	24,385128  	21,490597  	22,379002  	23,177074  	27,435812  	26,084969  	27,430174  	27,875289  	32,452857  	31,328502  	34,546869  	56,619421  	24,736303  	23,929648  	25,952908  	61,429430  	0,109255  	0,055360  	-2897,250405  	-27024,844268  	-0,103618  	-0,050000  	0,210745  	0,106786  	-3,422398  	5011,296160  	21730,298661  	3,151713  	-0,047952  
223,564000  	19,272539  	31,803887  	22,591025  	-242,047242  	70,178930  	62,536267  	0,004980  	0,006328  	0,003966  	0,004137  	0,004268  	-0,000001  	-0,000000  	24,389604  	21,499166  	22,386740  	23,188901  	27,441416  	26,087806  	27,434517  	27,878986  	32,456840  	31,340239  	34,557724  	56,625762  	24,742442  	23,945405  	25,962902  	61,432689  	0,117459  	0,059518  	-3119,272220  	-27028,351562  	-0,103632  	-0,050008  	0,238551  	0,120875  	-3,866960  	4997,065881  	22039,729892  	3,196593  	-0,047958  
224,565000  	19,270391  	31,800808  	22,590964  	-242,047242  	70,177061  	62,529679  	0,004974  	0,006327  	0,003967  	0,004138  	0,004240  	0,000001  	-0,000000  	24,384119  	21,498387  	22,380981  	23,182406  	27,439476  	26,089519  	27,435252  	27,881187  	32,458831  	31,338967  	34,566335  	56,621570  	24,736183  	23,954121  	25,956042  	61,432185  	0,118703  	0,060148  	-3152,057706  	-27018,287030  	-0,103593  	-0,049987  	0,216429  	0,109666  	-3,510517  	4993,358863  	21909,417415  	3,177692  	-0,047940  
225,564000  	19,266802  	31,797360  	22,591762  	57,696365  	70,176126  	62,526975  	0,004971  	0,006326  	0,003963  	0,004172  	0,004236  	0,000001  	-0,000000  	24,382826  	21,502449  	22,377967  	23,169719  	27,434901  	26,093123  	27,437581  	27,875787  	32,454608  	31,329127  	34,563908  	56,618428  	24,727587  	23,966132  	25,953540  	61,429480  	0,146001  	0,073980  	-3876,983217  	1908,052860  	-0,054042  	-0,049992  	0,213015  	0,107936  	-3,455953  	4991,718295  	21846,157080  	3,168517  	-0,047944  
226,564000  	19,277048  	31,797729  	22,590472  	1256,670793  	70,176999  	62,533750  	0,004981  	0,006318  	0,003963  	0,004159  	0,004233  	-0,000001  	-0,000000  	24,386352  	21,507465  	22,378305  	23,171462  	27,430599  	26,095758  	27,440212  	27,873179  	32,449007  	31,332837  	34,567019  	56,618106  	24,731022  	23,983162  	25,950997  	61,428513  	0,135563  	0,068691  	-3596,967849  	25619,474595  	-0,018556  	-0,050013  	0,210398  	0,106610  	-3,410854  	4975,007710  	22069,520645  	3,200913  	-0,047963  
227,571000  	19,290576  	31,800131  	22,589459  	1256,670793  	70,179677  	62,534993  	0,004966  	0,006344  	0,003962  	0,004127  	0,004230  	-0,000000  	-0,000000  	24,388163  	21,501525  	22,383023  	23,177304  	27,433693  	26,094064  	27,439810  	27,873355  	32,452022  	31,341240  	34,567372  	56,617113  	24,737820  	23,988349  	25,948947  	61,429353  	0,109552  	0,055511  	-2904,211381  	25616,159469  	-0,018553  	-0,050006  	0,208239  	0,105516  	-3,376487  	5030,995705  	21738,192963  	3,152858  	-0,047957  
228,564000  	19,297815  	31,800007  	22,589828  	1256,670793  	70,179241  	62,543570  	0,004984  	0,006319  	0,003963  	0,004111  	0,004258  	0,000001  	-0,000000  	24,387098  	21,498347  	22,381565  	23,172409  	27,426830  	26,087968  	27,434715  	27,868040  	32,440299  	31,334457  	34,552623  	56,615449  	24,725259  	23,988413  	25,949620  	61,417732  	0,096186  	0,048738  	-2548,391211  	25607,061814  	-0,018547  	-0,049986  	0,230633  	0,116863  	-3,735193  	4976,869708  	22134,256748  	3,210303  	-0,047940  
229,564000  	19,285177  	31,791910  	22,589950  	57,696365  	70,179989  	62,524178  	0,004967  	0,006334  	0,003962  	0,004172  	0,004206  	0,000000  	-0,000000  	24,391493  	21,516053  	22,392280  	23,183069  	27,438939  	26,091904  	27,448450  	27,887828  	32,457335  	31,349484  	34,569338  	56,624028  	24,735291  	23,995570  	25,958147  	61,437957  	0,146021  	0,073990  	-3870,140890  	1908,382703  	-0,054048  	-0,049999  	0,189233  	0,095886  	-3,072780  	5008,148025  	21761,254494  	3,156203  	-0,047950  
230,564000  	19,266465  	31,786245  	22,590196  	1256,670793  	70,180114  	62,521381  	0,004983  	0,006334  	0,003966  	0,004142  	0,004278  	-0,000000  	-0,000000  	24,389349  	21,504537  	22,386068  	23,178896  	27,429517  	26,087478  	27,440642  	27,881280  	32,454883  	31,337015  	34,570756  	56,611934  	24,728897  	23,978348  	25,953198  	61,426249  	0,121795  	0,061714  	-3231,425076  	25614,357405  	-0,018552  	-0,050002  	0,246130  	0,124716  	-3,998201  	5008,295173  	22116,851153  	3,207778  	-0,047953  
231,563000  	19,249992  	31,778856  	22,587617  	357,439972  	70,180300  	62,529368  	0,004964  	0,006327  	0,003960  	0,004148  	0,004171  	0,000001  	-0,000000  	24,396613  	21,509821  	22,389681  	23,176850  	27,432892  	26,090113  	27,439988  	27,885123  	32,448842  	31,341945  	34,560093  	56,603363  	24,732420  	23,971457  	25,947176  	61,424694  	0,126503  	0,064100  	-3358,785332  	12613,258768  	-0,036550  	-0,049985  	0,161726  	0,081948  	-2,624443  	4994,844500  	21698,170687  	3,147054  	-0,047939  
232,564000  	19,232201  	31,774053  	22,587617  	-242,047242  	70,179491  	62,542358  	0,004977  	0,006330  	0,003960  	0,004112  	0,004246  	0,000001  	-0,000000  	24,381408  	21,504351  	22,391441  	23,187906  	27,431661  	26,086140  	27,435909  	27,883359  	32,450751  	31,336280  	34,562811  	56,613535  	24,736954  	23,951337  	25,946598  	61,430036  	0,097665  	0,049488  	-2595,793341  	-27020,607278  	-0,103603  	-0,049992  	0,221163  	0,112065  	-3,582505  	5000,876893  	21977,980631  	3,187637  	-0,047944  
233,565000  	19,237722  	31,770943  	22,587463  	1256,670793  	70,176874  	62,546149  	0,004973  	0,006329  	0,003965  	0,004089  	0,004234  	-0,000001  	-0,000000  	24,387869  	21,497084  	22,378339  	23,186041  	27,435889  	26,088286  	27,437344  	27,890327  	32,456149  	31,335466  	34,565725  	56,621105  	24,748865  	23,935626  	25,953952  	61,427692  	0,078346  	0,039698  	-2080,880486  	25618,009943  	-0,018555  	-0,050010  	0,211270  	0,107052  	-3,419383  	4998,939198  	21880,191550  	3,173453  	-0,047960  
234,563000  	19,232876  	31,773406  	22,588507  	1256,670793  	70,173697  	62,532227  	0,004971  	0,006334  	0,003967  	0,004152  	0,004276  	-0,000000  	-0,000000  	24,386631  	21,503173  	22,373140  	23,185061  	27,438667  	26,080414  	27,442958  	27,882726  	32,457156  	31,328990  	34,557583  	56,621729  	24,741976  	23,902799  	25,960123  	61,428530  	0,130079  	0,065912  	-3456,953656  	25614,423522  	-0,018552  	-0,050002  	0,244517  	0,123898  	-3,963046  	5009,151183  	21840,388167  	3,167680  	-0,047953  
235,564000  	19,230575  	31,776639  	22,590534  	1256,670793  	70,174538  	62,527255  	0,004983  	0,006335  	0,003966  	0,004093  	0,004245  	0,000000  	-0,000000  	24,387829  	21,492342  	22,374759  	23,185753  	27,434755  	26,083914  	27,441161  	27,883646  	32,451430  	31,344352  	34,567340  	56,611991  	24,746286  	23,858164  	25,957284  	61,433394  	0,082242  	0,041672  	-2186,596283  	25612,905929  	-0,018551  	-0,049999  	0,220264  	0,111610  	-3,572687  	5011,280596  	22109,098073  	3,206654  	-0,047951  
236,565000  	19,234256  	31,775838  	22,591209  	1256,670793  	70,172669  	62,527441  	0,004964  	0,006329  	0,003964  	0,004146  	0,004261  	0,000002  	-0,000000  	24,399594  	21,499251  	22,374490  	23,189699  	27,446859  	26,089025  	27,441846  	27,875870  	32,457320  	31,339023  	34,561934  	56,626099  	24,754563  	23,846276  	25,960021  	61,426367  	0,125075  	0,063376  	-3324,238857  	25603,500087  	-0,018544  	-0,049979  	0,232966  	0,118046  	-3,777698  	4998,773656  	21694,272963  	3,146488  	-0,047933  
237,564000  	19,244348  	31,776208  	22,593144  	1256,670793  	70,167373  	62,526851  	0,004987  	0,006325  	0,003964  	0,004105  	0,004226  	-0,000002  	-0,000000  	24,369404  	21,498155  	22,379550  	23,173463  	27,427005  	26,079804  	27,434359  	27,877840  	32,450157  	31,332650  	34,555610  	56,624204  	24,754695  	23,821563  	25,967979  	61,428757  	0,092081  	0,046658  	-2445,418783  	25622,036211  	-0,018558  	-0,050019  	0,205022  	0,103886  	-3,322511  	4989,167952  	22193,160389  	3,218846  	-0,047968  
238,563000  	19,253367  	31,772883  	22,594433  	1256,670793  	70,165504  	62,528529  	0,004965  	0,006343  	0,003965  	0,004130  	0,004264  	-0,000001  	-0,000000  	24,376824  	21,499393  	22,382325  	23,176606  	27,438494  	26,086825  	27,434854  	27,882589  	32,454445  	31,337456  	34,564460  	56,626487  	24,749323  	23,805972  	25,962908  	61,426746  	0,112094  	0,056799  	-2973,975841  	25617,250793  	-0,018554  	-0,050009  	0,235403  	0,119280  	-3,813083  	5028,056974  	21728,808770  	3,151497  	-0,047959  
239,565000  	19,259256  	31,766325  	22,594802  	1256,670793  	70,165317  	62,526291  	0,004984  	0,006318  	0,003964  	0,004105  	0,004239  	0,000000  	-0,000000  	24,388330  	21,498268  	22,384248  	23,177862  	27,443832  	26,092203  	27,436220  	27,877463  	32,448627  	31,344784  	34,567194  	56,632791  	24,747542  	23,785237  	25,967462  	61,429187  	0,091367  	0,046296  	-2421,649751  	25611,626890  	-0,018550  	-0,049997  	0,215168  	0,109027  	-3,486255  	4973,637387  	22132,978691  	3,210117  	-0,047948  
240,564000  	19,251588  	31,764169  	22,594126  	57,696365  	70,165006  	62,522873  	0,004966  	0,006337  	0,003964  	0,004198  	0,004223  	-0,000001  	-0,000000  	24,385835  	21,500061  	22,383025  	23,171095  	27,434698  	26,091739  	27,442532  	27,873375  	32,446976  	31,340306  	34,565325  	56,617249  	24,739454  	23,763028  	25,967237  	61,431552  	0,166808  	0,084523  	-4423,171641  	1908,454502  	-0,054057  	-0,050008  	0,203166  	0,102946  	-3,293135  	5015,903757  	21740,692591  	3,153221  	-0,047958  
241,566000  	19,247784  	31,766386  	22,593881  	1256,670793  	70,162607  	62,525608  	0,004978  	0,006337  	0,003965  	0,004126  	0,004261  	0,000001  	-0,000000  	24,382860  	21,500632  	22,383688  	23,170769  	27,436260  	26,086925  	27,441314  	27,870695  	32,435548  	31,333636  	34,560555  	56,615750  	24,733735  	23,747957  	25,959856  	61,425130  	0,108533  	0,054995  	-2879,299901  	25606,236190  	-0,018546  	-0,049985  	0,233363  	0,118247  	-3,780048  	5014,563146  	21988,614638  	3,189179  	-0,047938  
242,565000  	19,257600  	31,766448  	22,593881  	657,183579  	70,161424  	62,523619  	0,004973  	0,006338  	0,003963  	0,004145  	0,004205  	-0,000001  	-0,000000  	24,387008  	21,499904  	22,381433  	23,170124  	27,441914  	26,087417  	27,439210  	27,874800  	32,445903  	31,340479  	34,564961  	56,613824  	24,725724  	23,726194  	25,959431  	61,425039  	0,124027  	0,062845  	-3287,764977  	18558,652135  	-0,027626  	-0,050009  	0,188398  	0,095463  	-3,052024  	5017,371000  	21881,109492  	3,173587  	-0,047959  
243,567000  	19,265238  	31,761922  	22,592315  	657,183579  	70,162794  	62,525079  	0,004972  	0,006322  	0,003963  	0,004086  	0,004239  	-0,000001  	-0,000000  	24,387552  	21,496581  	22,382107  	23,169337  	27,441223  	26,082006  	27,441501  	27,880495  	32,441147  	31,338745  	34,565100  	56,611605  	24,720955  	23,704803  	25,958493  	61,424709  	0,076694  	0,038862  	-2031,074292  	18558,360230  	-0,027626  	-0,050008  	0,215462  	0,109176  	-3,490415  	4983,833101  	21860,709994  	3,170628  	-0,047958  
244,566000  	19,277692  	31,757735  	22,592867  	1256,670793  	70,167280  	62,516067  	0,004980  	0,006321  	0,003967  	0,004128  	0,004247  	-0,000000  	-0,000000  	24,378152  	21,492858  	22,378139  	23,166038  	27,428584  	26,076234  	27,434632  	27,874045  	32,433405  	31,335177  	34,557392  	56,615535  	24,717162  	23,680833  	25,949026  	61,415996  	0,110368  	0,055924  	-2918,955578  	25615,883681  	-0,018553  	-0,050006  	0,221916  	0,112447  	-3,601328  	4981,739060  	22033,805635  	3,195733  	-0,047956  
245,564000  	19,294257  	31,759705  	22,590165  	956,927186  	70,170737  	62,508267  	0,004968  	0,006334  	0,003962  	0,004125  	0,004234  	0,000001  	-0,000000  	24,370138  	21,487378  	22,372608  	23,168356  	27,418853  	26,071136  	27,434981  	27,871384  	32,430014  	31,332360  	34,555704  	56,612553  	24,715902  	23,665050  	25,952053  	61,419105  	0,108147  	0,054799  	-2856,858079  	22569,758415  	-0,022193  	-0,049992  	0,211453  	0,107145  	-3,436566  	5008,875987  	21787,211073  	3,159968  	-0,047945  
246,564000  	19,305239  	31,758535  	22,589121  	357,439972  	70,171485  	62,517839  	0,004983  	0,006336  	0,003965  	0,004145  	0,004219  	0,000002  	-0,000000  	24,374921  	21,492599  	22,376013  	23,176638  	27,423512  	26,080151  	27,437614  	27,879539  	32,441175  	31,329904  	34,567637  	56,620638  	24,726358  	23,661050  	25,962018  	61,429684  	0,123862  	0,062762  	-3268,817345  	12611,840813  	-0,036547  	-0,049979  	0,199352  	0,101013  	-3,236180  	5013,835892  	22113,370034  	3,207273  	-0,047934  
247,565000  	19,308460  	31,756318  	22,588937  	1256,670793  	70,168837  	62,515850  	0,004966  	0,006335  	0,003958  	0,004118  	0,004244  	-0,000001  	-0,000000  	24,372118  	21,494435  	22,371616  	23,173409  	27,422505  	26,074191  	27,425955  	27,876498  	32,439622  	31,325608  	34,567258  	56,617027  	24,726270  	23,647051  	25,960327  	61,424763  	0,102526  	0,051951  	-2704,547365  	25620,239107  	-0,018556  	-0,050015  	0,219586  	0,111266  	-3,564343  	5011,934276  	21740,374841  	3,153175  	-0,047964  
248,566000  	19,309073  	31,754656  	22,589613  	57,696365  	70,166906  	62,518833  	0,004985  	0,006333  	0,003964  	0,004108  	0,004248  	0,000001  	-0,000000  	24,367887  	21,490193  	22,366558  	23,173012  	27,426196  	26,065543  	27,424939  	27,867711  	32,434501  	31,325544  	34,559196  	56,614063  	24,721788  	23,640015  	25,959500  	61,421373  	0,093785  	0,047521  	-2473,512675  	1908,227489  	-0,054043  	-0,049993  	0,222488  	0,112736  	-3,609126  	5007,584897  	22146,084080  	3,212018  	-0,047946  
249,563000  	19,322847  	31,752593  	22,591209  	57,696365  	70,168868  	62,522345  	0,004964  	0,006329  	0,003962  	0,004151  	0,004278  	-0,000000  	-0,000000  	24,369013  	21,484436  	22,369887  	23,176357  	27,436911  	26,070207  	27,428474  	27,865521  	32,439714  	31,326983  	34,557834  	56,620448  	24,723468  	23,650814  	25,960450  	61,425242  	0,129278  	0,065506  	-3405,281221  	1908,519820  	-0,054054  	-0,050005  	0,246077  	0,124689  	-3,990969  	4997,295093  	21703,664217  	3,147850  	-0,047955  
250,563000  	19,304134  	31,754810  	22,591639  	657,183579  	70,173167  	62,517373  	0,004978  	0,006340  	0,003964  	0,004125  	0,004257  	-0,000000  	-0,000000  	24,368340  	21,482891  	22,367375  	23,168302  	27,433251  	26,073166  	27,419702  	27,866868  	32,438893  	31,329188  	34,556293  	56,622349  	24,721341  	23,666845  	25,956979  	61,428521  	0,107764  	0,054605  	-2843,382599  	18555,940428  	-0,027622  	-0,050000  	0,229570  	0,116325  	-3,727770  	5022,816213  	22000,618496  	3,190920  	-0,047952  
251,563000  	19,268980  	31,758504  	22,591731  	657,183579  	70,178774  	62,522376  	0,004970  	0,006320  	0,003961  	0,004137  	0,004241  	-0,000000  	-0,000000  	24,365806  	21,487820  	22,362578  	23,167944  	27,426792  	26,076719  	27,421373  	27,867312  	32,436504  	31,333153  	34,555623  	56,626384  	24,720554  	23,688172  	25,961171  	61,432413  	0,118003  	0,059793  	-3123,242589  	18557,175759  	-0,027624  	-0,050004  	0,217375  	0,110145  	-3,530020  	4978,822260  	21832,924591  	3,166598  	-0,047955  
252,565000  	19,260453  	31,766386  	22,592468  	57,696365  	70,177590  	62,524427  	0,004970  	0,006323  	0,003968  	0,004105  	0,004236  	0,000001  	-0,000000  	24,360335  	21,481075  	22,360666  	23,172761  	27,424888  	26,075680  	27,424091  	27,859226  	32,434390  	31,327882  	34,556817  	56,616048  	24,721611  	23,704304  	25,966577  	61,425903  	0,091566  	0,046397  	-2426,724683  	1907,957228  	-0,054040  	-0,049990  	0,213422  	0,108143  	-3,464372  	4985,857812  	21836,652849  	3,167139  	-0,047943  
253,564000  	19,275606  	31,770019  	22,593236  	-242,047242  	70,174818  	62,540183  	0,004981  	0,006348  	0,003967  	0,004163  	0,004219  	-0,000001  	-0,000000  	24,368842  	21,482700  	22,361524  	23,162335  	27,421775  	26,084055  	27,422099  	27,855102  	32,435891  	31,331356  	34,560717  	56,614219  	24,725640  	23,724650  	25,963182  	61,428609  	0,138415  	0,070136  	-3664,945400  	-27032,340255  	-0,103646  	-0,050016  	0,199434  	0,101055  	-3,229479  	5039,042198  	22066,350214  	3,200454  	-0,047965  
254,566000  	19,289962  	31,774576  	22,593359  	-242,047242  	70,174195  	62,533905  	0,004969  	0,006320  	0,003965  	0,004141  	0,004232  	-0,000000  	-0,000000  	24,360833  	21,488220  	22,367181  	23,153516  	27,422269  	26,084740  	27,423060  	27,855651  	32,430391  	31,334985  	34,554945  	56,613722  	24,722527  	23,750575  	25,951887  	61,428598  	0,121074  	0,061349  	-3203,271974  	-27026,615588  	-0,103624  	-0,050004  	0,209954  	0,106385  	-3,402340  	4978,017893  	21797,393170  	3,161445  	-0,047955  
255,564000  	19,305147  	31,782612  	22,594003  	657,183579  	70,175721  	62,536205  	0,004987  	0,006339  	0,003963  	0,004156  	0,004208  	-0,000000  	-0,000000  	24,365822  	21,484670  	22,363531  	23,159933  	27,425559  	26,077011  	27,415718  	27,864148  	32,427343  	31,325285  	34,553778  	56,606028  	24,721202  	23,775794  	25,957025  	61,425335  	0,132752  	0,067266  	-3510,204922  	18555,940100  	-0,027622  	-0,050000  	0,191029  	0,096796  	-3,095341  	5020,079104  	22186,261701  	3,217845  	-0,047952  
256,563000  	19,315392  	31,784274  	22,594433  	1256,670793  	70,176220  	62,548138  	0,004963  	0,006313  	0,003963  	0,004086  	0,004259  	-0,000001  	-0,000000  	24,376110  	21,491356  	22,368624  	23,167647  	27,422049  	26,077513  	27,418907  	27,867853  	32,427112  	31,332977  	34,564598  	56,620949  	24,731716  	23,794409  	25,960964  	61,433369  	0,076632  	0,038830  	-2024,904026  	25617,948534  	-0,018555  	-0,050010  	0,231156  	0,117128  	-3,739938  	4963,755779  	21680,200204  	3,144447  	-0,047960  
257,567000  	19,312693  	31,778055  	22,595508  	1256,670793  	70,168993  	62,543104  	0,004986  	0,006335  	0,003963  	0,004123  	0,004252  	0,000000  	-0,000000  	24,366019  	21,490485  	22,373309  	23,162763  	27,413125  	26,078277  	27,421631  	27,858491  	32,422077  	31,325626  	34,554638  	56,619085  	24,725705  	23,812333  	25,948212  	61,421898  	0,106176  	0,053800  	-2804,765580  	25613,158859  	-0,018551  	-0,050000  	0,225687  	0,114357  	-3,650400  	5012,172686  	22163,242537  	3,214507  	-0,047951  
258,563000  	19,306865  	31,775407  	22,595324  	1256,670793  	70,165691  	62,516378  	0,004968  	0,006320  	0,003965  	0,004136  	0,004259  	0,000001  	-0,000000  	24,355493  	21,479229  	22,365151  	23,154629  	27,408594  	26,074662  	27,415295  	27,863974  	32,420061  	31,319168  	34,555612  	56,609989  	24,722000  	23,816254  	25,956513  	61,420395  	0,116851  	0,059209  	-3087,560725  	25607,976811  	-0,018548  	-0,049989  	0,231190  	0,117146  	-3,750890  	4978,983557  	21772,375716  	3,157816  	-0,047942  
259,565000  	19,316435  	31,772729  	22,594495  	1256,670793  	70,164944  	62,523712  	0,004979  	0,006325  	0,003961  	0,004126  	0,004230  	-0,000000  	-0,000000  	24,376323  	21,482898  	22,372779  	23,167298  	27,413408  	26,077182  	27,432808  	27,874287  	32,437156  	31,333328  	34,572043  	56,622012  	24,736259  	23,846502  	25,975420  	61,440137  	0,108926  	0,055194  	-2875,323824  	25615,311255  	-0,018553  	-0,050005  	0,208288  	0,105541  	-3,375753  	4990,005568  	22018,490124  	3,193512  	-0,047955  
260,565000  	19,333430  	31,769280  	22,594249  	1256,670793  	70,166377  	62,531233  	0,004970  	0,006337  	0,003962  	0,004123  	0,004240  	0,000001  	-0,000000  	24,370799  	21,483135  	22,372090  	23,170380  	27,417140  	26,080736  	27,430392  	27,872939  	32,437792  	31,318777  	34,563149  	56,613266  	24,732598  	23,859242  	25,961587  	61,433993  	0,106037  	0,053729  	-2794,451433  	25610,071176  	-0,018549  	-0,049993  	0,215983  	0,109440  	-3,497677  	5016,074959  	21816,648771  	3,164237  	-0,047945  
261,564000  	19,323061  	31,774453  	22,593359  	1256,670793  	70,168090  	62,529430  	0,004977  	0,006320  	0,003963  	0,004164  	0,004254  	-0,000001  	-0,000000  	24,369959  	21,494093  	22,374316  	23,172605  	27,413833  	26,066533  	27,420350  	27,870784  	32,429233  	31,330615  	34,560972  	56,607977  	24,748626  	23,874359  	25,975062  	61,437913  	0,139465  	0,070668  	-3680,001697  	25618,037845  	-0,018555  	-0,050010  	0,227770  	0,115413  	-3,690267  	4979,803488  	21966,287461  	3,185941  	-0,047960  
262,565000  	19,294410  	31,782273  	22,594403  	657,183579  	70,170706  	62,517310  	0,004978  	0,006327  	0,003964  	0,004141  	0,004273  	0,000000  	-0,000000  	24,370948  	21,472206  	22,350602  	23,153565  	27,409450  	26,063761  	27,410069  	27,866181  	32,425310  	31,308859  	34,549549  	56,603433  	24,727574  	23,887868  	25,944078  	61,425842  	0,120868  	0,061245  	-3198,655446  	18553,903846  	-0,027619  	-0,049994  	0,242576  	0,122915  	-3,937714  	4994,065602  	21995,329738  	3,190153  	-0,047947  
263,564000  	19,278398  	31,786060  	22,595047  	-242,047242  	70,169959  	62,521226  	0,004968  	0,006323  	0,003963  	0,004113  	0,004217  	-0,000001  	-0,000000  	24,365462  	21,482143  	22,360697  	23,170011  	27,417758  	26,071057  	27,424454  	27,858604  	32,437600  	31,314302  	34,560805  	56,618505  	24,745330  	23,910902  	25,959491  	61,436027  	0,098383  	0,049851  	-2607,734291  	-27031,855912  	-0,103643  	-0,050015  	0,197729  	0,100191  	-3,207775  	4984,805132  	21775,348436  	3,158247  	-0,047964  
264,562000  	19,274042  	31,783597  	22,594433  	956,927186  	70,169273  	62,512960  	0,004982  	0,006332  	0,003967  	0,004140  	0,004251  	0,000000  	-0,000000  	24,359045  	21,481412  	22,362946  	23,170964  	27,414915  	26,065370  	27,427316  	27,863694  	32,424436  	31,312699  	34,557887  	56,617541  	24,734854  	23,927773  	25,959812  	61,424800  	0,119986  	0,060798  	-3180,841369  	22570,348289  	-0,022193  	-0,049994  	0,224943  	0,113980  	-3,652874  	5003,655742  	22087,738266  	3,203556  	-0,047947  
265,566000  	19,261342  	31,781503  	22,595477  	1256,670793  	70,168495  	62,515011  	0,004967  	0,006339  	0,003967  	0,004106  	0,004255  	-0,000001  	-0,000000  	24,355355  	21,468771  	22,360770  	23,157284  	27,411313  	26,066856  	27,422725  	27,864455  	32,428822  	31,308725  	34,554490  	56,616116  	24,727411  	23,938749  	25,950773  	61,422031  	0,092846  	0,047046  	-2463,440813  	25621,564617  	-0,018557  	-0,050018  	0,228039  	0,115549  	-3,701779  	5019,265541  	21769,120552  	3,157344  	-0,047967  
266,563000  	19,265391  	31,787107  	22,595109  	657,183579  	70,164881  	62,530052  	0,004982  	0,006320  	0,003966  	0,004147  	0,004219  	0,000000  	-0,000000  	24,359769  	21,476380  	22,364245  	23,160276  	27,424014  	26,071336  	27,414607  	27,861913  	32,434280  	31,317967  	34,555456  	56,618649  	24,732816  	23,960263  	25,944889  	61,432455  	0,125521  	0,063602  	-3330,793831  	18554,138687  	-0,027620  	-0,049995  	0,199319  	0,100996  	-3,227682  	4977,837495  	22090,647436  	3,203978  	-0,047947  
267,563000  	19,270729  	31,789878  	22,594925  	657,183579  	70,157779  	62,543508  	0,004965  	0,006326  	0,003964  	0,004128  	0,004219  	-0,000000  	-0,000000  	24,364063  	21,478242  	22,365105  	23,165766  	27,417948  	26,072417  	27,418650  	27,860984  	32,429306  	31,321031  	34,564300  	56,626124  	24,728260  	23,981137  	25,961134  	61,429784  	0,110710  	0,056097  	-2937,168383  	18556,790829  	-0,027624  	-0,050003  	0,199546  	0,101111  	-3,222670  	4990,977599  	21709,390764  	3,148681  	-0,047954  
268,567000  	19,278950  	31,787353  	22,596276  	1256,670793  	70,152795  	62,522624  	0,004980  	0,006326  	0,003963  	0,004079  	0,004256  	0,000000  	-0,000000  	24,362209  	21,484046  	22,362798  	23,160466  	27,420512  	26,067966  	27,416690  	27,853168  	32,423337  	31,328208  	34,567849  	56,620873  	24,717555  	23,996855  	25,950884  	61,424598  	0,070472  	0,035709  	-1868,034898  	25610,778115  	-0,018550  	-0,049995  	0,229185  	0,116130  	-3,709061  	4992,695986  	22036,905455  	3,196183  	-0,047947  
269,564000  	19,280361  	31,781349  	22,596183  	956,927186  	70,149525  	62,510194  	0,004969  	0,006336  	0,003963  	0,004174  	0,004266  	-0,000000  	-0,000000  	24,363910  	21,485252  	22,376015  	23,158167  	27,423864  	26,083435  	27,427389  	27,857310  	32,426381  	31,330723  	34,564720  	56,618560  	24,713945  	24,014621  	25,952874  	61,428069  	0,147752  	0,074867  	-3914,226463  	22573,679014  	-0,022197  	-0,050003  	0,237201  	0,120192  	-3,843398  	5013,522493  	21808,916874  	3,163116  	-0,047954  
270,568000  	19,277539  	31,780487  	22,595201  	357,439972  	70,148777  	62,518149  	0,004973  	0,006333  	0,003960  	0,004147  	0,004231  	0,000000  	-0,000000  	24,362789  	21,476946  	22,371467  	23,150368  	27,415508  	26,080989  	27,421264  	27,860588  	32,424660  	31,326726  	34,555049  	56,612071  	24,712084  	24,026942  	25,956398  	61,423460  	0,125497  	0,063590  	-3325,164697  	12616,206821  	-0,036560  	-0,050000  	0,209116  	0,105961  	-3,384469  	5006,989228  	21881,088309  	3,173584  	-0,047951  
271,564000  	19,285729  	31,780487  	22,594925  	357,439972  	70,147157  	62,512027  	0,004977  	0,006325  	0,003966  	0,004152  	0,004213  	-0,000001  	-0,000000  	24,370445  	21,488148  	22,377041  	23,154164  	27,417465  	26,084623  	27,427324  	27,872482  	32,427900  	31,328593  	34,565542  	56,612651  	24,722231  	24,033522  	25,960726  	61,430822  	0,129931  	0,065837  	-3440,394626  	12618,866695  	-0,036568  	-0,050012  	0,194900  	0,098757  	-3,156245  	4990,226292  	21986,100889  	3,188814  	-0,047961  
272,563000  	19,286772  	31,781965  	22,594249  	-242,047242  	70,146721  	62,521226  	0,004968  	0,006312  	0,003966  	0,004149  	0,004267  	-0,000000  	-0,000000  	24,371536  	21,495406  	22,377379  	23,159604  	27,415483  	26,078855  	27,433991  	27,872525  	32,425560  	31,327517  	34,565944  	56,609522  	24,730943  	24,044086  	25,953001  	61,432402  	0,127605  	0,064658  	-3378,922388  	-27027,040016  	-0,103625  	-0,050005  	0,237343  	0,120264  	-3,838736  	4962,424366  	21792,556321  	3,160743  	-0,047956  
273,568000  	19,298950  	31,775530  	22,594925  	1256,670793  	70,149244  	62,523091  	0,004984  	0,006334  	0,003965  	0,004151  	0,004238  	-0,000001  	-0,000000  	24,364530  	21,487161  	22,367008  	23,154294  	27,408500  	26,070736  	27,424409  	27,862978  	32,418281  	31,319561  	34,557432  	56,605341  	24,724262  	24,052591  	25,949241  	61,428328  	0,129285  	0,065509  	-3418,294653  	25618,892902  	-0,018555  	-0,050012  	0,215120  	0,109003  	-3,479598  	5008,485476  	22120,551166  	3,208315  	-0,047962  
274,563000  	19,295760  	31,771220  	22,595661  	657,183579  	70,153792  	62,518305  	0,004965  	0,006333  	0,003968  	0,004121  	0,004218  	0,000000  	-0,000000  	24,364055  	21,487461  	22,365314  	23,158590  	27,412006  	26,073579  	27,422388  	27,871009  	32,422430  	31,322833  	34,562017  	56,608016  	24,723242  	24,057222  	25,952978  	61,425613  	0,104781  	0,053093  	-2770,159254  	18554,030859  	-0,027619  	-0,049995  	0,198682  	0,100673  	-3,217640  	5006,746574  	21712,264629  	3,149098  	-0,047947  
275,566000  	19,285729  	31,771867  	22,596030  	-242,047242  	70,157374  	62,505719  	0,004984  	0,006325  	0,003968  	0,004130  	0,004254  	-0,000001  	-0,000001  	24,364610  	21,488147  	22,364908  	23,165310  	27,415000  	26,072059  	27,422748  	27,872971  	32,425849  	31,323651  	34,560219  	56,602345  	24,731569  	24,061159  	25,950861  	61,422907  	0,112320  	0,056914  	-2972,034985  	-27028,755682  	-0,103631  	-0,050008  	0,227468  	0,115260  	-3,691637  	4988,803617  	22132,562086  	3,210057  	-0,047958  
276,563000  	19,277569  	31,769465  	22,596398  	-242,047242  	70,156378  	62,508205  	0,004964  	0,006324  	0,003965  	0,004129  	0,004248  	0,000000  	-0,000000  	24,362772  	21,482677  	22,364083  	23,164781  	27,418467  	26,067146  	27,421928  	27,865248  	32,427615  	31,315881  	34,552057  	56,597501  	24,738983  	24,066767  	25,952847  	61,428177  	0,111531  	0,056514  	-2952,512141  	-27021,975417  	-0,103605  	-0,049994  	0,222980  	0,112985  	-3,617141  	4987,436124  	21692,726584  	3,146264  	-0,047946  
277,564000  	19,273980  	31,773960  	22,595661  	956,927186  	70,156440  	62,507615  	0,004984  	0,006332  	0,003966  	0,004147  	0,004243  	-0,000000  	-0,000000  	24,360844  	21,484548  	22,363902  	23,169674  	27,421132  	26,067627  	27,426965  	27,870727  	32,434389  	31,316059  	34,556050  	56,607525  	24,751761  	24,072766  	25,956457  	61,434788  	0,125472  	0,063578  	-3323,728705  	22574,326385  	-0,022197  	-0,050004  	0,218988  	0,110963  	-3,552692  	5004,747331  	22123,912247  	3,208802  	-0,047955  
278,567000  	19,273490  	31,773899  	22,595047  	-242,047242  	70,161798  	62,509976  	0,004967  	0,006320  	0,003968  	0,004113  	0,004232  	-0,000000  	-0,000000  	24,359269  	21,483191  	22,360288  	23,171386  	27,411275  	26,070110  	27,418325  	27,868677  	32,430150  	31,312181  	34,559815  	56,613529  	24,759178  	24,073761  	25,957525  	61,434032  	0,097944  	0,049629  	-2594,596411  	-27027,094411  	-0,103625  	-0,050005  	0,210371  	0,106596  	-3,414232  	4978,219516  	21757,144938  	3,155607  	-0,047956  
279,564000  	19,265207  	31,773437  	22,594679  	-242,047242  	70,163604  	62,509479  	0,004974  	0,006344  	0,003963  	0,004159  	0,004222  	0,000001  	-0,000000  	24,369454  	21,481102  	22,368701  	23,174563  	27,420405  	26,071698  	27,419625  	27,871463  	32,433812  	31,315793  	34,561354  	56,620376  	24,758730  	24,079499  	25,966672  	61,432043  	0,135408  	0,068612  	-3589,295817  	-27018,806479  	-0,103594  	-0,049988  	0,201902  	0,102305  	-3,277765  	5030,745269  	21921,555435  	3,179453  	-0,047941  
280,563000  	19,264962  	31,777870  	22,595784  	956,927186  	70,164601  	62,514141  	0,004978  	0,006331  	0,003957  	0,004146  	0,004233  	0,000001  	-0,000000  	24,372847  	21,480838  	22,366041  	23,168854  	27,423335  	26,078016  	27,424445  	27,867049  	32,436179  	31,317887  	34,557719  	56,623868  	24,764030  	24,082365  	25,964113  	61,431706  	0,125088  	0,063383  	-3316,967876  	22569,595986  	-0,022193  	-0,049993  	0,210507  	0,106666  	-3,415844  	5001,543307  	22002,150754  	3,191142  	-0,047945  
281,565000  	19,248275  	31,779256  	22,595723  	57,696365  	70,167654  	62,513674  	0,004969  	0,006327  	0,003964  	0,004096  	0,004238  	-0,000001  	-0,000000  	24,368077  	21,483460  	22,368852  	23,164880  	27,418382  	26,074839  	27,417230  	27,863001  	32,429591  	31,317996  	34,554238  	56,620598  	24,761164  	24,089008  	25,967536  	61,427043  	0,084606  	0,042871  	-2246,755517  	1908,436001  	-0,054059  	-0,050010  	0,214823  	0,108852  	-3,487474  	4994,495729  	21804,531935  	3,162480  	-0,047960  
282,563000  	19,236495  	31,771805  	22,595047  	1256,670793  	70,169834  	62,524551  	0,004983  	0,006329  	0,003961  	0,004194  	0,004248  	-0,000001  	-0,000000  	24,365936  	21,487533  	22,364243  	23,156911  	27,424620  	26,080222  	27,424522  	27,869199  	32,430413  	31,324248  	34,558976  	56,619898  	24,768307  	24,093422  	25,962283  	61,430292  	0,164091  	0,083146  	-4359,011994  	25618,827015  	-0,018555  	-0,050012  	0,222981  	0,112986  	-3,615798  	4997,565338  	22104,324774  	3,205961  	-0,047962  
283,565000  	19,250483  	31,766263  	22,594495  	357,439972  	70,167654  	62,532445  	0,004964  	0,006328  	0,003963  	0,004148  	0,004212  	0,000000  	-0,000000  	24,375735  	21,487278  	22,361689  	23,163785  	27,426551  	26,072752  	27,434237  	27,859950  	32,425574  	31,331125  	34,564085  	56,621415  	24,771941  	24,085368  	25,964115  	61,432883  	0,126499  	0,064098  	-3355,157974  	12615,470836  	-0,036558  	-0,049996  	0,193882  	0,098242  	-3,139808  	4996,252318  	21704,645709  	3,147993  	-0,047948  
284,564000  	19,282631  	31,765586  	22,595416  	-242,047242  	70,166657  	62,525483  	0,004982  	0,006338  	0,003966  	0,004106  	0,004255  	0,000001  	-0,000000  	24,370232  	21,495237  	22,370411  	23,163962  	27,419566  	26,083903  	27,440459  	27,858047  	32,428571  	31,330677  	34,569424  	56,619743  	24,774691  	24,085719  	25,968466  	61,439254  	0,092375  	0,046807  	-2443,640633  	-27021,256161  	-0,103603  	-0,049993  	0,228595  	0,115831  	-3,704850  	5017,749484  	22087,201623  	3,203478  	-0,047945  
285,564000  	19,320485  	31,770142  	22,596736  	57,696365  	70,164196  	62,519610  	0,004964  	0,006306  	0,003967  	0,004141  	0,004250  	0,000001  	-0,000000  	24,366442  	21,480720  	22,365771  	23,150295  	27,411817  	26,078239  	27,429067  	27,857726  	32,424028  	31,321269  	34,559013  	56,603065  	24,763814  	24,069046  	25,948650  	61,424263  	0,120767  	0,061194  	-3186,198745  	1907,756891  	-0,054041  	-0,049992  	0,224436  	0,113723  	-3,639056  	4947,926672  	21689,958635  	3,145863  	-0,047944  
286,564000  	19,328828  	31,768972  	22,595754  	1256,670793  	70,164258  	62,518678  	0,004981  	0,006344  	0,003965  	0,004134  	0,004230  	-0,000001  	-0,000000  	24,364933  	21,492756  	22,373959  	23,166241  	27,421072  	26,082484  	27,422702  	27,872499  	32,433460  	31,330490  	34,565227  	56,618456  	24,761226  	24,085515  	25,960224  	61,439621  	0,115509  	0,058529  	-3045,131256  	25617,485490  	-0,018554  	-0,050009  	0,208409  	0,105602  	-3,379631  	5030,288259  	22067,077507  	3,200559  	-0,047959  
287,565000  	19,329657  	31,765463  	22,596859  	1256,670793  	70,160676  	62,520946  	0,004968  	0,006329  	0,003965  	0,004107  	0,004244  	-0,000000  	-0,000000  	24,370169  	21,490139  	22,361961  	23,161182  	27,417184  	26,067204  	27,421710  	27,865622  	32,422032  	31,330973  	34,563879  	56,602968  	24,764249  	24,084154  	25,956561  	61,427755  	0,093466  	0,047360  	-2463,163261  	25614,654871  	-0,018552  	-0,050003  	0,219616  	0,111281  	-3,558642  	4998,671076  	21788,072527  	3,160093  	-0,047954  
288,563000  	19,322356  	31,763554  	22,598947  	1256,670793  	70,157187  	62,512866  	0,004975  	0,006322  	0,003964  	0,004135  	0,004244  	0,000001  	-0,000000  	24,368087  	21,492717  	22,359473  	23,162910  	27,415149  	26,071098  	27,425378  	27,871538  	32,432540  	31,327625  	34,571952  	56,615008  	24,763538  	24,086323  	25,954744  	61,430940  	0,115633  	0,058592  	-3048,655086  	25606,187942  	-0,018546  	-0,049985  	0,219681  	0,111314  	-3,561838  	4983,450372  	21939,356451  	3,182035  	-0,047939  
289,570000  	19,309748  	31,758320  	22,600636  	956,927186  	70,155941  	62,515819  	0,004975  	0,006326  	0,003965  	0,004184  	0,004228  	-0,000001  	-0,000000  	24,367360  	21,486647  	22,370463  	23,174281  	27,421661  	26,073588  	27,428491  	27,870125  	32,438700  	31,321823  	34,565016  	56,610840  	24,788642  	24,072061  	25,968327  	61,429921  	0,155394  	0,078739  	-4099,390083  	22575,146401  	-0,022198  	-0,050007  	0,206844  	0,104809  	-3,351865  	4991,617131  	21936,433158  	3,181611  	-0,047957  
290,562000  	19,313368  	31,759613  	22,601250  	357,439972  	70,156876  	62,509728  	0,004969  	0,006324  	0,003964  	0,004124  	0,004237  	0,000000  	-0,000000  	24,362293  	21,483529  	22,363214  	23,169495  	27,414262  	26,069801  	27,423144  	27,870310  	32,419773  	31,316414  	34,554802  	56,604571  	24,779737  	24,055449  	25,954379  	61,419233  	0,107498  	0,054470  	-2835,333052  	12615,359887  	-0,036558  	-0,049997  	0,213839  	0,108354  	-3,468405  	4988,095464  	21800,655395  	3,161918  	-0,047949  
291,563000  	19,317601  	31,762014  	22,600513  	357,439972  	70,158371  	62,497266  	0,004981  	0,006337  	0,003963  	0,004101  	0,004247  	0,000000  	-0,000001  	24,351231  	21,475882  	22,355450  	23,162652  	27,409267  	26,063540  	27,403332  	27,860460  	32,426704  	31,310695  	34,546068  	56,607419  	24,774603  	24,039840  	25,955667  	61,418414  	0,088759  	0,044975  	-2340,751997  	12615,528997  	-0,036558  	-0,049998  	0,221969  	0,112473  	-3,606825  	5016,038879  	22067,169301  	3,200572  	-0,047950  
292,563000  	19,330301  	31,764046  	22,600881  	956,927186  	70,163853  	62,504414  	0,004968  	0,006321  	0,003964  	0,004155  	0,004225  	-0,000000  	-0,000000  	24,364101  	21,478826  	22,361612  	23,173726  	27,419230  	26,071192  	27,418743  	27,867989  	32,436070  	31,312513  	34,551525  	56,609117  	24,788601  	24,024445  	25,963602  	61,422226  	0,132577  	0,067178  	-3493,298614  	22573,762078  	-0,022197  	-0,050003  	0,204727  	0,103737  	-3,325943  	4980,663742  	21772,636977  	3,157854  	-0,047954  
293,565000  	19,351222  	31,772913  	22,599223  	1256,670793  	70,163511  	62,529648  	0,004985  	0,006324  	0,003968  	0,004124  	0,004285  	0,000000  	-0,000000  	24,351912  	21,463616  	22,348209  	23,149243  	27,408992  	26,053648  	27,408171  	27,857958  	32,426320  	31,303477  	34,550728  	56,601257  	24,776760  	23,995013  	25,952733  	61,416249  	0,106920  	0,054177  	-2814,526166  	25611,404487  	-0,018550  	-0,049996  	0,251751  	0,127564  	-4,076232  	4986,801545  	22159,952067  	3,214029  	-0,047948  
294,572000  	19,353185  	31,781534  	22,600451  	1256,670793  	70,166065  	62,521816  	0,004963  	0,006318  	0,003964  	0,004145  	0,004198  	0,000000  	-0,000000  	24,362997  	21,476118  	22,364085  	23,163222  	27,424021  	26,071297  	27,415580  	27,868177  	32,442157  	31,320432  	34,556569  	56,623511  	24,796829  	23,989776  	25,962051  	61,428980  	0,123708  	0,062684  	-3258,175876  	25612,255516  	-0,018551  	-0,049998  	0,183352  	0,092906  	-2,972785  	4974,128355  	21676,648474  	3,143932  	-0,047950  
295,563000  	19,341590  	31,786522  	22,600267  	1256,670793  	70,165099  	62,524520  	0,004983  	0,006349  	0,003965  	0,004149  	0,004238  	-0,000000  	-0,000000  	24,364231  	21,481871  	22,374805  	23,167641  	27,427382  	26,076188  	27,418927  	27,859907  	32,439154  	31,326817  	34,558585  	56,619154  	24,799537  	23,977045  	25,960553  	61,433462  	0,127622  	0,064667  	-3365,763262  	25613,201193  	-0,018551  	-0,050000  	0,215024  	0,108954  	-3,484623  	5041,249430  	22103,540993  	3,205848  	-0,047952  
296,565000  	19,323798  	31,793542  	22,600144  	57,696365  	70,164165  	62,532849  	0,004967  	0,006322  	0,003965  	0,004135  	0,004247  	-0,000000  	-0,000000  	24,370705  	21,480884  	22,376141  	23,174816  	27,431584  	26,081915  	27,422217  	27,858364  	32,437032  	31,332837  	34,563932  	56,618082  	24,793787  	23,957401  	25,968819  	61,437777  	0,116369  	0,058965  	-3075,104120  	1907,882955  	-0,054050  	-0,050001  	0,221960  	0,112469  	-3,592676  	4983,412878  	21755,958674  	3,155435  	-0,047952  
297,572000  	19,311466  	31,788400  	22,601219  	956,927186  	70,166190  	62,527193  	0,004978  	0,006330  	0,003962  	0,004148  	0,004233  	0,000002  	-0,000001  	24,362581  	21,473461  	22,365094  	23,167548  	27,429094  	26,078891  	27,423671  	27,855489  	32,428480  	31,326147  	34,560095  	56,620918  	24,794481  	23,918727  	25,969016  	61,429919  	0,126275  	0,063984  	-3338,804689  	22564,084735  	-0,022187  	-0,049979  	0,210745  	0,106786  	-3,414577  	4999,773277  	21998,048258  	3,190547  	-0,047934  
298,562000  	19,297294  	31,785383  	22,598333  	357,439972  	70,165940  	62,511841  	0,004973  	0,006339  	0,003964  	0,004137  	0,004238  	-0,000001  	-0,000000  	24,364906  	21,484307  	22,367540  	23,161693  	27,429264  	26,077378  	27,428640  	27,857389  	32,429913  	31,331508  	34,561866  	56,617246  	24,800033  	23,891036  	25,967482  	61,428893  	0,117710  	0,059644  	-3115,120754  	12617,566567  	-0,036564  	-0,050007  	0,214517  	0,108697  	-3,482552  	5019,687179  	21897,547717  	3,175971  	-0,047957  
299,565000  	19,291496  	31,789447  	22,597135  	1256,670793  	70,162545  	62,506775  	0,004971  	0,006330  	0,003963  	0,004129  	0,004269  	-0,000001  	-0,000000  	24,371631  	21,493771  	22,370178  	23,155291  	27,426955  	26,079549  	27,428599  	27,863712  	32,431436  	31,336498  	34,564800  	56,611949  	24,801168  	23,868048  	25,958891  	61,428892  	0,111253  	0,056373  	-2946,586462  	25616,913542  	-0,018554  	-0,050008  	0,239517  	0,121365  	-3,889265  	5000,985840  	21857,073530  	3,170100  	-0,047958  
300,567000  	19,275177  	31,799361  	22,598978  	1256,670793  	70,162234  	62,517093  	0,004980  	0,006314  	0,003961  	0,004135  	0,004205  	-0,000001  	-0,000000  	24,369120  	21,494029  	22,367175  	23,157503  	27,423856  	26,077373  	27,429298  	27,863375  	32,425823  	31,325707  	34,565031  	56,610126  	24,795643  	23,839798  	25,958128  	61,428257  	0,116302  	0,058931  	-3086,758433  	25620,940695  	-0,018557  	-0,050017  	0,188414  	0,095471  	-3,055215  	4965,731676  	22048,012555  	3,197794  	-0,047966  
301,564000  	19,276281  	31,803117  	22,600083  	57,696365  	70,164539  	62,528467  	0,004965  	0,006333  	0,003965  	0,004123  	0,004235  	-0,000000  	-0,000000  	24,371491  	21,493537  	22,372711  	23,169892  	27,424055  	26,075925  	27,432058  	27,865727  	32,428329  	31,322576  	34,567370  	56,609189  	24,794201  	23,815718  	25,962238  	61,430723  	0,106318  	0,053872  	-2822,379747  	1907,963452  	-0,054052  	-0,050003  	0,212148  	0,107497  	-3,435996  	5005,995266  	21717,080294  	3,149796  	-0,047954  
302,567000  	19,288674  	31,806627  	22,601311  	1256,670793  	70,168464  	62,523867  	0,004984  	0,006338  	0,003963  	0,004165  	0,004253  	0,000000  	-0,000000  	24,369449  	21,483216  	22,370540  	23,166983  	27,415690  	26,070678  	27,425916  	27,868039  	32,424346  	31,321230  	34,561256  	56,601198  	24,788640  	23,788059  	25,950967  	61,423342  	0,140142  	0,071011  	-3717,664099  	25611,604879  	-0,018550  	-0,049997  	0,226662  	0,114851  	-3,675166  	5017,065383  	22136,092633  	3,210569  	-0,047949  
