07/02/2020 13:39:25
Tempo T_f_e T_f_s AR AR T_q_e T_q_s Corrente_P_f Corrente_P_q Corrente_P_RESERVA Corrente_eletromag_f Corrente_eletromag_q AR AR T_1 T_2 T_3 T_4 T_5 T_6 T_7 T_8 T_9 T_10 T_11 T_12 T_13 T_14 T_15 T_16 Velocidade_f_(m/s) Vazao_f_(L/s) q_f_(W) AR AR AR Velocidade_q_(m/s) Vazao_q_(L/s) q_q_(W) DeltaP_q_(Pa) DeltaP_f_(Pa) DeltaP_f_(Psi) AR
0,006000  	16,772755  	33,977848  	1256,818530  	1256,670793  	70,389477  	64,761723  	0,004621  	0,008832  	0,003964  	0,004118  	0,004346  	-0,000000  	-0,000000  	22,685149  	19,497487  	20,681497  	22,176762  	28,001807  	26,222586  	27,743935  	28,681033  	34,620230  	33,206241  	36,730792  	58,964578  	22,998661  	22,176200  	22,210655  	63,890483  	0,102598  	0,051987  	-3741,691210  	-1,993590  	-0,011068  	-0,050001  	0,300334  	0,152181  	-3,585896  	10395,578895  	14313,919377  	2,076058  	-0,047952  
2,559000  	16,780848  	33,982161  	1256,818530  	1256,670793  	70,388231  	64,767693  	0,004615  	0,008832  	0,003964  	0,004099  	0,004390  	-0,000000  	-0,000000  	22,691693  	19,513617  	20,699426  	22,189784  	28,011447  	26,229331  	27,744044  	28,683605  	34,638148  	33,224623  	36,745182  	58,982191  	23,005473  	22,188345  	22,221246  	63,910431  	0,086956  	0,044061  	-3170,535794  	-1,993771  	-0,011070  	-0,050006  	0,334826  	0,169659  	-3,992601  	10395,312895  	14184,023505  	2,057219  	-0,047957  
3,558000  	16,783330  	33,983362  	1256,818530  	1256,670793  	70,386549  	64,770958  	0,004608  	0,008810  	0,003963  	0,004111  	0,004336  	0,000001  	-0,000000  	22,695540  	19,506998  	20,699097  	22,179679  	28,016916  	26,223213  	27,749300  	28,672705  	34,639305  	33,203900  	36,740054  	58,983278  	23,003995  	22,185811  	22,215668  	63,894706  	0,096536  	0,048915  	-3519,556022  	-1,993284  	-0,011067  	-0,049992  	0,292736  	0,148332  	-3,487635  	10347,591409  	14021,286487  	2,033616  	-0,047945  
4,559000  	16,778733  	33,980713  	1256,818530  	1256,670793  	70,389041  	64,768097  	0,004620  	0,008844  	0,003961  	0,004111  	0,004366  	-0,000000  	-0,000000  	22,703500  	19,509140  	20,700247  	22,187930  	28,017175  	26,238188  	27,754941  	28,677230  	34,640568  	33,215546  	36,749784  	58,986856  	23,020708  	22,194490  	22,227344  	63,905090  	0,096306  	0,048799  	-3511,576808  	-1,993633  	-0,011069  	-0,050002  	0,316015  	0,160127  	-3,768570  	10421,170759  	14284,968895  	2,071860  	-0,047953  
5,559000  	16,773675  	33,984780  	1256,818530  	956,927186  	70,390443  	64,773882  	0,004606  	0,008821  	0,003963  	0,004102  	0,004444  	0,000000  	-0,000000  	22,692661  	19,511620  	20,697403  	22,189863  	28,010872  	26,230977  	27,753869  	28,680585  	34,635264  	33,212488  	36,741990  	58,986406  	23,013896  	22,203683  	22,228240  	63,895792  	0,089011  	0,045103  	-3247,324060  	-4420,232508  	-0,012269  	-0,049995  	0,378236  	0,191655  	-4,507048  	10372,459555  	13980,466307  	2,027695  	-0,047947  
6,562000  	16,767238  	33,989771  	1256,818530  	357,439972  	70,392187  	64,774255  	0,004619  	0,008819  	0,003962  	0,004117  	0,004320  	0,000001  	-0,000000  	22,696139  	19,512030  	20,711825  	22,196460  	28,016477  	26,232712  	27,751515  	28,689166  	34,633118  	33,210815  	36,742204  	58,984927  	23,020249  	22,204972  	22,220280  	63,900126  	0,101517  	0,051439  	-3706,011534  	-16231,549276  	-0,015672  	-0,049991  	0,280012  	0,141884  	-3,337431  	10368,105224  	14264,265769  	2,068857  	-0,047943  
7,560000  	16,764663  	33,991712  	1256,818530  	1256,670793  	70,392873  	64,768471  	0,004619  	0,008832  	0,003961  	0,004101  	0,004365  	-0,000000  	-0,000000  	22,686254  	19,503147  	20,688526  	22,181960  	28,009838  	26,220029  	27,736421  	28,684075  	34,633414  	33,209811  	36,740710  	58,980089  	23,010076  	22,204661  	22,220884  	63,894329  	0,088317  	0,044751  	-3224,965916  	-1,993634  	-0,011069  	-0,050002  	0,315441  	0,159837  	-3,764039  	10396,415097  	14268,311775  	2,069444  	-0,047953  
8,559000  	16,759452  	33,991095  	1256,818530  	1256,670793  	70,395240  	64,765610  	0,004609  	0,008849  	0,003963  	0,004115  	0,004313  	0,000000  	-0,000000  	22,697075  	19,510938  	20,705892  	22,184430  	28,017373  	26,227443  	27,744984  	28,679414  	34,639750  	33,211432  	36,748895  	58,987176  	23,015316  	22,224001  	22,234952  	63,899681  	0,099814  	0,050577  	-3645,781508  	-1,993553  	-0,011068  	-0,050000  	0,274102  	0,138890  	-3,273797  	10432,581158  	14050,512352  	2,037855  	-0,047951  
9,560000  	16,763866  	33,988723  	1256,818530  	1256,670793  	70,395209  	64,766325  	0,004625  	0,008841  	0,003964  	0,004086  	0,004365  	0,000001  	-0,000000  	22,697306  	19,508416  	20,700262  	22,185051  	28,009950  	26,225387  	27,748517  	28,672262  	34,634412  	33,220762  	36,740477  	58,986614  	23,010311  	22,232127  	22,226531  	63,898197  	0,075950  	0,038485  	-2773,047974  	-1,993144  	-0,011066  	-0,049988  	0,315200  	0,159714  	-3,764156  	10414,666500  	14401,992394  	2,088832  	-0,047941  
10,560000  	16,774043  	33,986135  	1256,818530  	657,183579  	70,393278  	64,776214  	0,004606  	0,008831  	0,003962  	0,004069  	0,004337  	0,000001  	-0,000000  	22,698516  	19,506366  	20,695488  	22,189237  	28,008372  	26,225708  	27,752666  	28,678997  	34,630723  	33,216409  	36,735663  	58,982953  	23,006470  	22,236570  	22,223427  	63,898990  	0,062458  	0,031648  	-2278,718647  	-9724,836632  	-0,013763  	-0,049992  	0,293015  	0,148473  	-3,491874  	10394,654263  	13974,358461  	2,026809  	-0,047945  
11,561000  	16,779928  	33,991403  	357,499067  	657,183579  	70,388667  	64,773633  	0,004615  	0,008844  	0,003961  	0,004110  	0,004342  	-0,000000  	-0,000000  	22,700859  	19,510969  	20,706435  	22,190846  	28,009145  	26,228293  	27,755661  	28,687906  	34,638814  	33,211026  	36,748615  	58,986298  	23,017870  	22,241763  	22,221738  	63,895981  	0,095586  	0,048434  	-3487,237797  	7100,683539  	-0,021697  	-0,050004  	0,297108  	0,150547  	-3,539373  	10420,848164  	14183,147929  	2,057092  	-0,047955  
12,559000  	16,779315  	33,995162  	957,045375  	1256,670793  	70,380132  	64,771021  	0,004619  	0,008837  	0,003964  	0,004079  	0,004379  	0,000001  	-0,000000  	22,697377  	19,514133  	20,708370  	22,185563  	28,007110  	26,228324  	27,750649  	28,685101  	34,643869  	33,216252  	36,747180  	58,983484  	23,024033  	22,246560  	22,220209  	63,892563  	0,070459  	0,035702  	-2571,194034  	4415,947754  	-0,012268  	-0,049990  	0,326185  	0,165280  	-3,881656  	10406,225252  	14263,785615  	2,068787  	-0,047943  
13,561000  	16,772725  	33,998644  	957,045375  	956,927186  	70,379322  	64,770026  	0,004605  	0,008815  	0,003961  	0,004132  	0,004331  	-0,000000  	-0,000000  	22,699009  	19,511200  	20,705914  	22,191046  	28,014975  	26,233804  	27,750940  	28,688869  	34,639214  	33,220132  	36,745441  	58,983434  	23,018768  	22,252585  	22,220158  	63,894422  	0,113510  	0,057516  	-4144,634074  	-1,917123  	-0,013766  	-0,050001  	0,288172  	0,146019  	-3,429407  	10358,136601  	13960,878834  	2,024854  	-0,047952  
14,561000  	16,769414  	33,997904  	357,499067  	357,439972  	70,385116  	64,766480  	0,004624  	0,008837  	0,003962  	0,004084  	0,004363  	-0,000000  	-0,000000  	22,699084  	19,508048  	20,699907  	22,194149  	28,016846  	26,237859  	27,755210  	28,690408  	34,634161  	33,220017  	36,744461  	58,985057  	23,018996  	22,251037  	22,220496  	63,898408  	0,074846  	0,037925  	-2733,289125  	-1,685276  	-0,026852  	-0,050001  	0,313611  	0,158909  	-3,738358  	10405,696082  	14363,297603  	2,083220  	-0,047952  
15,557000  	16,771345  	33,998274  	1256,818530  	357,439972  	70,385272  	64,767165  	0,004610  	0,008825  	0,003961  	0,004135  	0,004318  	-0,000000  	-0,000000  	22,695070  	19,508362  	20,699033  	22,189605  	28,014571  	26,236245  	27,752439  	28,686810  	34,636380  	33,221369  	36,745897  	58,983165  	23,024868  	22,245833  	22,222599  	63,898752  	0,116230  	0,058895  	-4244,229748  	-16234,595049  	-0,015675  	-0,050001  	0,277798  	0,140762  	-3,311147  	10380,552032  	14071,667388  	2,040923  	-0,047952  
16,562000  	16,780970  	33,997534  	1256,818530  	-242,047242  	70,385209  	64,770026  	0,004612  	0,008846  	0,003962  	0,004066  	0,004367  	-0,000000  	-0,000000  	22,697555  	19,509556  	20,709086  	22,192892  	28,018633  	26,238316  	27,749979  	28,690538  	34,641660  	33,228249  	36,749476  	58,981891  	23,025535  	22,243837  	22,224876  	63,899202  	0,060229  	0,030518  	-2197,972946  	-35512,748411  	-0,021696  	-0,050005  	0,316710  	0,160479  	-3,772981  	10425,375112  	14116,801896  	2,047469  	-0,047956  
17,560000  	16,799607  	33,997350  	-242,047242  	57,696365  	70,386736  	64,768191  	0,004622  	0,008813  	0,003961  	0,004130  	0,004334  	0,000000  	-0,000000  	22,699865  	19,510010  	20,707436  	22,195046  	28,016138  	26,237772  	27,756090  	28,686666  	34,642170  	33,229007  	36,741046  	58,980653  	23,021156  	22,238456  	22,225017  	63,901840  	0,111954  	0,056728  	-4081,147566  	27696,725459  	-0,093559  	-0,049995  	0,290608  	0,147253  	-3,464095  	10355,726332  	14337,566979  	2,079488  	-0,047947  
18,561000  	16,812297  	33,996918  	357,499067  	1256,670793  	70,384057  	64,770554  	0,004605  	0,008823  	0,003963  	0,004107  	0,004380  	-0,000000  	-0,000000  	22,697140  	19,507796  	20,700684  	22,195850  	28,018778  	26,232327  	27,758530  	28,679521  	34,641941  	33,217352  	36,747347  	58,984484  	23,020661  	22,236851  	22,221414  	63,897845  	0,093268  	0,047260  	-3397,377612  	16232,595979  	-0,015677  	-0,050005  	0,327570  	0,165982  	-3,901192  	10377,214301  	13961,288377  	2,024914  	-0,047956  
19,560000  	16,809906  	33,995347  	1256,818530  	357,439972  	70,388262  	64,754259  	0,004621  	0,008827  	0,003963  	0,004044  	0,004372  	-0,000000  	-0,000000  	22,695172  	19,509076  	20,703075  	22,196444  	28,023039  	26,235609  	27,749485  	28,683467  	34,641924  	33,222490  	36,751360  	58,982820  	23,029162  	22,239513  	22,218415  	63,894024  	0,042256  	0,021412  	-1539,295016  	-16234,280010  	-0,015675  	-0,050000  	0,320669  	0,162485  	-3,832939  	10384,614187  	14303,299493  	2,074518  	-0,047952  
20,559000  	16,799914  	33,995840  	1256,818530  	956,927186  	70,394866  	64,763651  	0,004615  	0,008835  	0,003960  	0,004100  	0,004335  	0,000001  	-0,000000  	22,697443  	19,518975  	20,707260  	22,188968  	28,021344  	26,235164  	27,753347  	28,690435  	34,632670  	33,223879  	36,748447  	58,977313  	23,025658  	22,239169  	22,218293  	63,892454  	0,087473  	0,044323  	-3188,362214  	-4419,788686  	-0,012268  	-0,049989  	0,291899  	0,147907  	-3,487335  	10402,382405  	14184,016443  	2,057218  	-0,047942  
21,557000  	16,786028  	34,001047  	57,725912  	57,696365  	70,394773  	64,767973  	0,004610  	0,008825  	0,003961  	0,004085  	0,004352  	-0,000001  	-0,000000  	22,695028  	19,518333  	20,709168  	22,199263  	28,026809  	26,237272  	27,757726  	28,696963  	34,634471  	33,224163  	36,745703  	58,973731  	23,016769  	22,246996  	22,220821  	63,897782  	0,075552  	0,038283  	-2756,935124  	-1,525324  	-0,051190  	-0,050011  	0,305149  	0,154621  	-3,642771  	10379,861564  	14074,315298  	2,041307  	-0,047961  
22,560000  	16,775177  	33,996549  	1256,818530  	657,183579  	70,395271  	64,770585  	0,004623  	0,008818  	0,003963  	0,004089  	0,004389  	-0,000001  	-0,000000  	22,700756  	19,514101  	20,705243  	22,195565  	28,015734  	26,236162  	27,753010  	28,685968  	34,643397  	33,218050  	36,752200  	58,981886  	23,012369  	22,235749  	22,221967  	63,894984  	0,078352  	0,039702  	-2860,156069  	-9728,187041  	-0,013768  	-0,050011  	0,333999  	0,169240  	-3,985682  	10366,379763  	14339,360496  	2,079748  	-0,047961  
23,562000  	16,776188  	33,998397  	357,499067  	657,183579  	70,396175  	64,764428  	0,004604  	0,008839  	0,003963  	0,004101  	0,004355  	0,000000  	-0,000000  	22,698603  	19,507269  	20,701127  	22,193647  	28,017580  	26,231638  	27,749734  	28,680421  	34,647124  	33,218541  	36,750021  	58,980954  	23,010106  	22,222968  	22,212322  	63,889158  	0,088349  	0,044767  	-3225,239298  	7099,474153  	-0,021694  	-0,049995  	0,307724  	0,155926  	-3,676738  	10411,187279  	13945,648055  	2,022645  	-0,047947  
24,557000  	16,789553  	34,001909  	-242,047242  	1256,670793  	70,391440  	64,768222  	0,004618  	0,008851  	0,003962  	0,004131  	0,004290  	0,000001  	-0,000000  	22,703587  	19,512787  	20,701548  	22,194697  	28,025175  	26,233584  	27,765021  	28,688893  	34,627919  	33,225109  	36,756025  	58,977361  	23,011881  	22,224541  	22,218242  	63,884514  	0,112426  	0,056967  	-4101,844555  	35500,121750  	-0,021691  	-0,049986  	0,255578  	0,129503  	-3,049067  	10437,378350  	14247,954643  	2,066491  	-0,047939  
25,560000  	16,793109  	34,002618  	-242,047242  	1256,670793  	70,390038  	64,773197  	0,004617  	0,008824  	0,003961  	0,004147  	0,004406  	-0,000001  	-0,000000  	22,707296  	19,522328  	20,705311  	22,200962  	28,018830  	26,240119  	27,770728  	28,696960  	34,640146  	33,223345  	36,750344  	58,982629  	23,010148  	22,206342  	22,231047  	63,894040  	0,125517  	0,063600  	-4578,678407  	35513,406728  	-0,021699  	-0,050007  	0,348208  	0,176440  	-4,149448  	10379,347958  	14226,248843  	2,063343  	-0,047957  
26,561000  	16,788204  	34,003296  	357,499067  	1256,670793  	70,391969  	64,769963  	0,004607  	0,008822  	0,003963  	0,004095  	0,004363  	-0,000000  	-0,000000  	22,697598  	19,509043  	20,696479  	22,191031  	28,021979  	26,237530  	27,753565  	28,690619  	34,643934  	33,219448  	36,752304  	58,977444  	23,006587  	22,200781  	22,219049  	63,902205  	0,083281  	0,042199  	-3038,956112  	16231,948196  	-0,015677  	-0,050003  	0,313439  	0,158822  	-3,738555  	10373,365086  	14005,702654  	2,031355  	-0,047954  
27,558000  	16,793170  	34,005791  	1256,818530  	1256,670793  	70,390412  	64,771052  	0,004620  	0,008821  	0,003961  	0,004052  	0,004318  	0,000000  	-0,000000  	22,715489  	19,528142  	20,716480  	22,210543  	28,026437  	26,257666  	27,762171  	28,701510  	34,648821  	33,238303  	36,758259  	58,982856  	23,021168  	22,195717  	22,222772  	63,913883  	0,048744  	0,024699  	-1778,443420  	-1,993419  	-0,011068  	-0,049996  	0,278348  	0,141041  	-3,318443  	10372,004667  	14284,107441  	2,071735  	-0,047948  
28,578000  	16,803960  	34,007886  	1256,818530  	1256,670793  	70,390038  	64,771425  	0,004608  	0,008841  	0,003963  	0,004136  	0,004358  	-0,000001  	-0,000000  	22,705093  	19,523725  	20,715560  	22,213176  	28,015807  	26,247305  	27,761763  	28,697507  	34,655812  	33,230143  	36,748864  	58,978351  	23,000560  	22,182864  	22,220575  	63,897122  	0,117055  	0,059313  	-4268,621315  	-1,993963  	-0,011071  	-0,050011  	0,310105  	0,157133  	-3,696557  	10414,785350  	14016,499066  	2,032921  	-0,047961  
29,558000  	16,802121  	34,005822  	1256,818530  	1256,670793  	70,390536  	64,766916  	0,004615  	0,008848  	0,003963  	0,004121  	0,004358  	0,000000  	-0,000000  	22,707605  	19,518392  	20,704720  	22,206540  	28,032143  	26,232852  	27,756634  	28,695921  	34,640814  	33,227127  	36,748725  	58,969735  	22,992304  	22,176415  	22,223292  	63,896052  	0,104552  	0,052977  	-3812,634870  	-1,993418  	-0,011068  	-0,049996  	0,309853  	0,157005  	-3,696834  	10429,404018  	14187,165691  	2,057674  	-0,047948  
30,559000  	16,798810  	34,005268  	1256,818530  	657,183579  	70,394835  	64,765983  	0,004619  	0,008818  	0,003961  	0,004068  	0,004378  	0,000001  	-0,000000  	22,699187  	19,521687  	20,704905  	22,198733  	28,021967  	26,240828  	27,752009  	28,695700  	34,646226  	33,220554  	36,749346  	58,975323  	23,006299  	22,182207  	22,219260  	63,899174  	0,061438  	0,031131  	-2240,767453  	-9724,140767  	-0,013762  	-0,049988  	0,325657  	0,165013  	-3,889005  	10365,668780  	14274,101872  	2,070283  	-0,047941  
31,558000  	16,801569  	34,006099  	1256,818530  	657,183579  	70,397732  	64,770990  	0,004604  	0,008830  	0,003965  	0,004056  	0,004342  	-0,000001  	-0,000000  	22,709545  	19,518196  	20,704726  	22,199942  	28,028938  	26,256682  	27,754617  	28,701150  	34,649506  	33,226474  	36,748416  	58,981791  	23,009794  	22,194473  	22,213184  	63,901057  	0,052135  	0,026417  	-1901,263671  	-9728,240459  	-0,013768  	-0,050012  	0,297474  	0,150732  	-3,551115  	10391,018697  	13950,138911  	2,023297  	-0,047961  
32,560000  	16,805860  	34,006592  	57,725912  	1256,670793  	70,395863  	64,777707  	0,004620  	0,008842  	0,003961  	0,004104  	0,004412  	0,000000  	-0,000000  	22,707074  	19,525359  	20,711626  	22,207869  	28,024974  	26,244856  	27,756096  	28,702300  	34,645493  	33,229889  	36,755492  	58,983366  	22,995998  	22,201792  	22,212660  	63,895206  	0,090497  	0,045856  	-3299,523833  	24490,921268  	-0,018201  	-0,050000  	0,352282  	0,178504  	-4,198982  	10418,021917  	14280,082618  	2,071151  	-0,047951  
33,558000  	16,788511  	34,010844  	-242,047242  	1256,670793  	70,394617  	64,772420  	0,004609  	0,008833  	0,003963  	0,004099  	0,004382  	-0,000000  	-0,000000  	22,703843  	19,521749  	20,703370  	22,198181  	28,023783  	26,238272  	27,757583  	28,694674  	34,645279  	33,227148  	36,753495  	58,970864  	22,998624  	22,199389  	22,203828  	63,889586  	0,087154  	0,044161  	-3181,623581  	35509,969120  	-0,021697  	-0,050002  	0,329200  	0,166808  	-3,926672  	10397,594409  	14053,859310  	2,038340  	-0,047953  
34,560000  	16,777231  	34,009673  	-242,047242  	1256,670793  	70,395116  	64,769683  	0,004612  	0,008841  	0,003962  	0,004129  	0,004387  	-0,000001  	-0,000000  	22,704614  	19,526749  	20,701825  	22,200801  	28,029590  	26,246725  	27,757411  	28,695347  	34,640901  	33,229356  	36,757901  	58,975148  	23,008245  	22,209738  	22,210515  	63,901393  	0,111221  	0,056356  	-4062,597414  	35515,286752  	-0,021700  	-0,050010  	0,333103  	0,168786  	-3,975521  	10414,534915  	14121,878822  	2,048205  	-0,047960  
35,556000  	16,767483  	34,010228  	657,272221  	1256,670793  	70,397764  	64,772855  	0,004622  	0,008830  	0,003963  	0,004135  	0,004349  	-0,000000  	-0,000000  	22,704757  	19,528654  	20,714701  	22,201950  	28,024597  	26,248555  	27,759283  	28,702925  	34,643875  	33,227473  	36,753973  	58,976473  	23,008499  	22,213368  	22,211639  	63,902616  	0,116245  	0,058902  	-4248,681571  	9722,870263  	-0,013766  	-0,050002  	0,302514  	0,153286  	-3,610104  	10390,950075  	14319,758901  	2,076905  	-0,047953  
36,560000  	16,756326  	34,013863  	1256,818530  	1256,670793  	70,399134  	64,782496  	0,004604  	0,008834  	0,003962  	0,004079  	0,004381  	0,000000  	-0,000000  	22,708011  	19,527615  	20,717359  	22,204901  	28,021496  	26,246859  	27,763553  	28,703137  	34,649790  	33,232883  	36,754176  	58,975020  	23,007818  	22,222898  	22,206147  	63,900951  	0,070960  	0,035956  	-2595,775471  	-1,993462  	-0,011068  	-0,049997  	0,327986  	0,166193  	-3,908330  	10400,838757  	13933,940763  	2,020947  	-0,047949  
37,558000  	16,747957  	34,017499  	1256,818530  	1256,670793  	70,399259  	64,773322  	0,004621  	0,008798  	0,003961  	0,004090  	0,004350  	0,000000  	-0,000000  	22,716621  	19,530019  	20,716453  	22,206354  	28,033540  	26,252068  	27,763896  	28,705850  	34,651309  	33,232646  	36,758536  	58,980121  	23,021634  	22,225597  	22,216394  	63,902411  	0,079754  	0,040412  	-2919,485312  	-1,993353  	-0,011067  	-0,049994  	0,303399  	0,153734  	-3,621327  	10322,554182  	14301,823724  	2,074304  	-0,047946  
38,558000  	16,745567  	34,018978  	1256,818530  	1256,670793  	70,395957  	64,776618  	0,004613  	0,008847  	0,003961  	0,004112  	0,004385  	0,000001  	-0,000000  	22,718751  	19,528781  	20,717694  	22,214179  	28,037625  	26,257288  	27,764581  	28,706549  	34,650980  	33,230321  	36,761432  	58,985737  	23,031388  	22,218876  	22,221327  	63,902064  	0,097264  	0,049285  	-3561,267821  	-1,993321  	-0,011067  	-0,049993  	0,330864  	0,167651  	-3,944524  	10428,657662  	14141,402745  	2,051037  	-0,047946  
39,571000  	16,753107  	34,021103  	357,499067  	1256,670793  	70,390194  	64,774970  	0,004611  	0,008784  	0,003963  	0,004101  	0,004334  	-0,000001  	-0,000000  	22,715206  	19,526421  	20,717321  	22,215379  	28,036942  	26,260527  	27,768018  	28,707778  	34,650703  	33,238320  	36,766180  	58,989235  	23,039017  	22,218047  	22,222597  	63,907537  	0,088220  	0,044702  	-3229,105326  	16233,706125  	-0,015678  	-0,050009  	0,290729  	0,147315  	-3,463498  	10291,416648  	14091,989214  	2,043870  	-0,047959  
40,563000  	16,766410  	34,019933  	-242,047242  	1256,670793  	70,385646  	64,771611  	0,004621  	0,008835  	0,003962  	0,004122  	0,004371  	0,000001  	-0,000000  	22,711716  	19,528818  	20,718110  	22,212393  	28,032647  	26,257491  	27,770177  	28,706245  	34,655212  	33,241078  	36,771607  	58,982396  	23,041962  	22,216000  	22,221549  	63,912976  	0,105470  	0,053442  	-3857,250529  	35502,391820  	-0,021693  	-0,049990  	0,320033  	0,162163  	-3,811788  	10402,119942  	14308,383480  	2,075256  	-0,047943  
41,561000  	16,779959  	34,015589  	57,725912  	956,927186  	70,384680  	64,764241  	0,004603  	0,008847  	0,003961  	0,004107  	0,004392  	-0,000001  	-0,000000  	22,715707  	19,529548  	20,721020  	22,213708  	28,029337  	26,254770  	27,771361  	28,703911  	34,660828  	33,238434  	36,774639  	58,976229  	23,044331  	22,209213  	22,214356  	63,908657  	0,093425  	0,047339  	-3413,209787  	21309,295445  	-0,021701  	-0,050013  	0,336374  	0,170443  	-4,010992  	10427,351009  	13922,537097  	2,019293  	-0,047963  
42,562000  	16,781491  	34,009550  	1256,818530  	-242,047242  	70,382561  	64,767849  	0,004620  	0,008797  	0,003962  	0,004104  	0,004321  	0,000001  	-0,000000  	22,719847  	19,529731  	20,720790  	22,209390  	28,033800  	26,255929  	27,769868  	28,703352  	34,656870  	33,237803  	36,768474  	58,978047  	23,049123  	22,200615  	22,216062  	63,904286  	0,090609  	0,045912  	-3308,858602  	-35505,493421  	-0,021692  	-0,049994  	0,280706  	0,142236  	-3,343784  	10320,993556  	14279,644830  	2,071087  	-0,047946  
43,557000  	16,777445  	34,005853  	1256,818530  	657,183579  	70,381409  	64,775281  	0,004616  	0,008820  	0,003962  	0,004098  	0,004355  	0,000000  	-0,000000  	22,718421  	19,535504  	20,720151  	22,209362  	28,034297  	26,255779  	27,768283  	28,702993  	34,656267  	33,238133  	36,761476  	58,981667  	23,045777  	22,193882  	22,223314  	63,904779  	0,086145  	0,043650  	-3145,910013  	-9725,540332  	-0,013764  	-0,049996  	0,307609  	0,155868  	-3,658649  	10369,526484  	14200,129858  	2,059555  	-0,047948  
44,556000  	16,774809  	34,002895  	1256,818530  	1256,670793  	70,382343  	64,767755  	0,004608  	0,008841  	0,003962  	0,004095  	0,004352  	-0,000001  	-0,000000  	22,722825  	19,538734  	20,722146  	22,219642  	28,033997  	26,259137  	27,774213  	28,712403  	34,665111  	33,243840  	36,769821  	58,988300  	23,049646  	22,200121  	22,225335  	63,903081  	0,083701  	0,042412  	-3056,593202  	-1,993869  	-0,011070  	-0,050009  	0,304796  	0,154442  	-3,630660  	10415,148978  	14036,044172  	2,035756  	-0,047959  
45,558000  	16,761690  	33,999722  	957,045375  	1256,670793  	70,383589  	64,762469  	0,004622  	0,008796  	0,003962  	0,004167  	0,004333  	-0,000000  	-0,000000  	22,717591  	19,535952  	20,717232  	22,220276  	28,031168  	26,255136  	27,773420  	28,712692  	34,659539  	33,236008  	36,769547  	58,975932  	23,051725  	22,200371  	22,225049  	63,900705  	0,142272  	0,072090  	-5198,515814  	4417,116334  	-0,012271  	-0,050005  	0,289792  	0,146840  	-3,455960  	10317,514336  	14338,710876  	2,079654  	-0,047955  
46,558000  	16,753597  	34,000215  	357,499067  	657,183579  	70,385334  	64,761598  	0,004608  	0,008832  	0,003960  	0,004125  	0,004352  	-0,000001  	-0,000001  	22,718280  	19,531914  	20,714894  	22,213834  	28,032986  	26,255601  	27,765603  	28,707613  	34,654707  	33,234246  	36,766746  	58,977971  	23,049443  	22,201916  	22,220655  	63,903171  	0,107888  	0,054668  	-3944,105529  	7100,981466  	-0,021698  	-0,050006  	0,304980  	0,154536  	-3,638770  	10395,804571  	14027,973342  	2,034586  	-0,047957  
47,559000  	16,738792  	33,997165  	357,499067  	657,183579  	70,386736  	64,766512  	0,004615  	0,008828  	0,003963  	0,004114  	0,004353  	0,000000  	-0,000000  	22,718053  	19,533263  	20,722533  	22,209837  	28,031070  	26,248058  	27,771763  	28,705450  	34,649723  	33,231974  	36,772903  	58,983934  	23,050235  	22,219210  	22,216528  	63,903214  	0,098754  	0,050039  	-3612,665072  	7099,933262  	-0,021695  	-0,049998  	0,305892  	0,154998  	-3,647375  	10386,701861  	14175,867942  	2,056036  	-0,047950  
48,558000  	16,727329  	33,999938  	-242,047242  	57,696365  	70,390349  	64,762842  	0,004621  	0,008816  	0,003963  	0,004153  	0,004350  	0,000001  	-0,000000  	22,713200  	19,531214  	20,716138  	22,215695  	28,028839  	26,247165  	27,763840  	28,707891  	34,653393  	33,231767  	36,760854  	58,973150  	23,043798  	22,219428  	22,207866  	63,899228  	0,130421  	0,066085  	-4775,071111  	27695,739651  	-0,093556  	-0,049993  	0,303788  	0,153931  	-3,626976  	10361,198428  	14296,379621  	2,073515  	-0,047945  
49,560000  	16,729505  	34,003573  	957,045375  	956,927186  	70,390661  	64,758799  	0,004604  	0,008808  	0,003962  	0,004119  	0,004379  	-0,000001  	-0,000000  	22,708756  	19,525979  	20,707111  	22,207430  	28,031575  	26,248375  	27,759417  	28,710597  	34,649228  	33,232402  	36,767937  	58,974653  	23,045427  	22,210569  	22,216350  	63,895483  	0,102979  	0,052180  	-3770,668256  	-1,917652  	-0,013770  	-0,050017  	0,326222  	0,165299  	-3,897838  	10343,368663  	13946,177637  	2,022722  	-0,047966  
50,589000  	16,739252  	34,003635  	357,499067  	-242,047242  	70,391471  	64,758364  	0,004624  	0,008852  	0,003961  	0,004097  	0,004350  	0,000002  	-0,000000  	22,700038  	19,510785  	20,705022  	22,195447  	28,026463  	26,243206  	27,750354  	28,703062  	34,642557  	33,213254  	36,746830  	58,963199  	23,032070  	22,214147  	22,203316  	63,881504  	0,085219  	0,043181  	-3118,608384  	-30930,050895  	-0,051156  	-0,049976  	0,303260  	0,153664  	-3,624275  	10439,091078  	14373,769204  	2,084739  	-0,047931  
51,594000  	16,749184  	33,999753  	1256,818530  	657,183579  	70,393496  	64,759421  	0,004609  	0,008821  	0,003962  	0,004060  	0,004361  	-0,000001  	-0,000000  	22,704545  	19,523231  	20,714559  	22,208504  	28,024326  	26,252491  	27,766370  	28,707454  	34,652072  	33,225510  	36,756981  	58,984266  	23,044875  	22,241899  	22,215437  	63,902586  	0,054976  	0,027857  	-2010,231748  	-9727,802427  	-0,013768  	-0,050009  	0,312486  	0,158339  	-3,735180  	10372,417816  	14054,487748  	2,038431  	-0,047959  
52,588000  	16,750348  	34,000554  	1256,818530  	1256,670793  	70,386642  	64,759857  	0,004614  	0,008833  	0,003963  	0,004148  	0,004364  	0,000001  	-0,000000  	22,706056  	19,525636  	20,710591  	22,212755  	28,021048  	26,236745  	27,760144  	28,693365  	34,645523  	33,223785  	36,764568  	58,974920  	23,031487  	22,234717  	22,205813  	63,889600  	0,126668  	0,064184  	-4631,628877  	-1,993277  	-0,011067  	-0,049992  	0,314444  	0,159331  	-3,753729  	10397,977138  	14163,235646  	2,054204  	-0,047945  
53,587000  	16,752402  	33,999722  	957,045375  	57,696365  	70,385241  	64,763557  	0,004621  	0,008803  	0,003962  	0,004091  	0,004362  	0,000001  	-0,000001  	22,717984  	19,522996  	20,708232  	22,209705  	28,032964  	26,256929  	27,772017  	28,703895  	34,648679  	33,224428  	36,759275  	58,965668  	23,036986  	22,239063  	22,211547  	63,895606  	0,080360  	0,040719  	-2937,882513  	-21301,872443  	-0,021690  	-0,049987  	0,313225  	0,158713  	-3,735778  	10332,856013  	14309,040162  	2,075351  	-0,047940  
54,592000  	16,746578  	33,995840  	357,499067  	657,183579  	70,384181  	64,761878  	0,004603  	0,008850  	0,003962  	0,004103  	0,004343  	0,000000  	-0,000000  	22,727657  	19,530248  	20,733239  	22,221361  	28,041245  	26,266792  	27,783412  	28,719453  	34,667660  	33,243655  	36,773632  	58,990794  	23,055299  	22,269154  	22,227431  	63,907345  	0,090484  	0,045849  	-3308,386992  	7100,014373  	-0,021695  	-0,049999  	0,297811  	0,150903  	-3,552328  	10433,982609  	13917,198910  	2,018519  	-0,047950  
55,595000  	16,732877  	33,995008  	1256,818530  	657,183579  	70,385303  	64,767755  	0,004620  	0,008839  	0,003963  	0,004105  	0,004309  	0,000001  	-0,000000  	22,712325  	19,530977  	20,720872  	22,209306  	28,026577  	26,254485  	27,773304  	28,713979  	34,652060  	33,242151  	36,775763  	58,980955  	23,039332  	22,270260  	22,211777  	63,910990  	0,091451  	0,046339  	-3346,226075  	-9725,030363  	-0,013764  	-0,049993  	0,270634  	0,137132  	-3,225436  	10410,979998  	14284,658206  	2,071815  	-0,047946  
56,589000  	16,728217  	33,993283  	1256,818530  	57,696365  	70,386424  	64,769497  	0,004612  	0,008819  	0,003962  	0,004087  	0,004366  	-0,000001  	-0,000000  	22,714739  	19,536846  	20,719268  	22,206557  	28,032123  	26,255528  	27,767848  	28,708157  	34,651610  	33,241315  	36,772473  	58,974860  	23,044171  	22,266574  	22,220115  	63,897053  	0,077474  	0,039257  	-2835,282686  	-24496,186542  	-0,018202  	-0,050006  	0,315819  	0,160028  	-3,763538  	10367,061741  	14118,574231  	2,047726  	-0,047957  
57,589000  	16,729750  	33,993006  	957,045375  	956,927186  	70,385832  	64,765765  	0,004611  	0,008820  	0,003963  	0,004150  	0,004331  	0,000001  	-0,000000  	22,709995  	19,533146  	20,721736  	22,211186  	28,041364  	26,247288  	27,755810  	28,697203  	34,648095  	33,232385  	36,761419  	58,968452  	23,053908  	22,257089  	22,218289  	63,902222  	0,127890  	0,064803  	-4679,853734  	-1,916707  	-0,013763  	-0,049989  	0,288710  	0,146292  	-3,442407  	10370,445456  	14093,987504  	2,044160  	-0,047942  
58,594000  	16,740356  	33,992636  	-242,047242  	357,439972  	70,385272  	64,760479  	0,004624  	0,008829  	0,003965  	0,004115  	0,004365  	-0,000000  	-0,000000  	22,716741  	19,536907  	20,718126  	22,213020  	28,035938  	26,257256  	27,775702  	28,704799  	34,654332  	33,232698  	36,761583  	58,983883  	23,057069  	22,266283  	22,225448  	63,909484  	0,100033  	0,050687  	-3658,150983  	30943,112560  	-0,051183  	-0,050001  	0,315561  	0,159897  	-3,765723  	10389,943379  	14364,985204  	2,083465  	-0,047952  
59,587000  	16,750287  	33,993468  	657,272221  	1256,670793  	70,385303  	64,767787  	0,004601  	0,008843  	0,003961  	0,004106  	0,004362  	0,000000  	-0,000000  	22,718511  	19,533490  	20,719988  	22,212086  	28,033556  	26,259112  	27,773010  	28,706381  	34,658218  	33,239876  	36,766491  	58,980531  	23,055182  	22,269565  	22,216696  	63,906560  	0,092730  	0,046987  	-3389,302932  	9721,647793  	-0,013764  	-0,049995  	0,312745  	0,158470  	-3,727290  	10419,441761  	13869,324698  	2,011575  	-0,047947  
60,587000  	16,754640  	33,993653  	57,725912  	1256,670793  	70,387172  	64,765547  	0,004620  	0,008822  	0,003961  	0,004087  	0,004381  	0,000001  	-0,000000  	22,709739  	19,525973  	20,718033  	22,208857  	28,032663  	26,240803  	27,763562  	28,700799  	34,650638  	33,232396  	36,765199  	58,965679  	23,056258  	22,256546  	22,213278  	63,906743  	0,076919  	0,038975  	-2810,725794  	24487,779102  	-0,018199  	-0,049992  	0,328396  	0,166401  	-3,916683  	10373,560342  	14278,345589  	2,070899  	-0,047945  
61,558000  	16,764847  	33,991311  	957,045375  	1256,670793  	70,386923  	64,764926  	0,004614  	0,008821  	0,003962  	0,004110  	0,004354  	-0,000000  	-0,000000  	22,715440  	19,529577  	20,723579  	22,212666  	28,037445  	26,253527  	27,774638  	28,707528  	34,655866  	33,242721  	36,770668  	58,977610  	23,074543  	22,265401  	22,215612  	63,917711  	0,095381  	0,048330  	-3482,819901  	4416,771226  	-0,012271  	-0,050000  	0,306871  	0,155494  	-3,660202  	10372,127763  	14157,403183  	2,053358  	-0,047952  
62,559000  	16,768096  	33,987183  	357,499067  	1256,670793  	70,386300  	64,761878  	0,004605  	0,008832  	0,003963  	0,004100  	0,004340  	-0,000000  	-0,000000  	22,709520  	19,531501  	20,723164  	22,212918  	28,031734  	26,256619  	27,774634  	28,704174  	34,652824  	33,244215  	36,769775  	58,980181  	23,077336  	22,265458  	22,213598  	63,912530  	0,087747  	0,044462  	-3202,674201  	16231,508416  	-0,015676  	-0,050002  	0,295230  	0,149595  	-3,522872  	10395,412645  	13965,553277  	2,025532  	-0,047953  
63,561000  	16,772970  	33,981730  	1256,818530  	1256,670793  	70,386580  	64,760945  	0,004622  	0,008851  	0,003962  	0,004042  	0,004390  	-0,000000  	-0,000000  	22,703854  	19,530799  	20,718856  	22,212916  	28,032477  	26,249341  	27,772446  	28,699317  	34,644675  	33,237951  	36,770411  	58,975956  	23,078673  	22,259415  	22,219181  	63,908071  	0,040717  	0,020632  	-1485,238875  	-1,993653  	-0,011069  	-0,050003  	0,335469  	0,169985  	-4,003897  	10436,999867  	14324,101474  	2,077535  	-0,047954  
64,557000  	16,768924  	33,981976  	1256,818530  	1256,670793  	70,390318  	64,761194  	0,004607  	0,008836  	0,003962  	0,004121  	0,004358  	0,000000  	-0,000000  	22,704450  	19,533027  	20,712989  	22,211053  	28,037248  	26,247354  	27,768033  	28,707726  	34,649636  	33,234240  	36,770491  	58,974094  	23,087663  	22,257276  	22,220797  	63,910212  	0,104386  	0,052893  	-3808,642322  	-1,993469  	-0,011068  	-0,049997  	0,309531  	0,156842  	-3,696616  	10405,234828  	13996,346705  	2,029998  	-0,047949  
65,558000  	16,757766  	33,988600  	1256,818530  	57,696365  	70,395303  	64,762935  	0,004616  	0,008824  	0,003963  	0,004074  	0,004359  	-0,000001  	-0,000000  	22,708145  	19,526590  	20,713023  	22,204594  	28,028836  	26,249001  	27,759996  	28,704808  	34,648189  	33,229586  	36,769393  	58,973373  	23,091792  	22,250327  	22,220609  	63,903790  	0,066771  	0,033833  	-2438,732272  	-24497,743425  	-0,018203  	-0,050010  	0,310958  	0,157565  	-3,715793  	10377,817752  	14200,468791  	2,059604  	-0,047960  
66,557000  	16,756295  	33,988846  	1256,818530  	657,183579  	70,398355  	64,768408  	0,004617  	0,008822  	0,003962  	0,004129  	0,004324  	0,000000  	-0,000000  	22,715923  	19,525045  	20,719014  	22,207135  	28,025955  	26,255095  	27,766303  	28,704246  	34,645215  	33,236826  	36,773850  	58,982288  	23,091205  	22,256066  	22,228458  	63,910429  	0,110948  	0,056218  	-4052,665226  	-9725,926369  	-0,013765  	-0,049998  	0,283191  	0,143495  	-3,382536  	10374,666787  	14228,586064  	2,063682  	-0,047950  
67,559000  	16,754364  	33,986998  	357,499067  	657,183579  	70,395396  	64,770150  	0,004607  	0,008858  	0,003961  	0,004112  	0,004362  	0,000000  	-0,000000  	22,717322  	19,525753  	20,717196  	22,208391  	28,028998  	26,250039  	27,770465  	28,706432  	34,650361  	33,242756  	36,771826  	58,987409  	23,089265  	22,257307  	22,224001  	63,918598  	0,097565  	0,049437  	-3563,852949  	7099,639495  	-0,021694  	-0,049996  	0,313113  	0,158657  	-3,736813  	10452,771671  	14015,030358  	2,032708  	-0,047948  
68,557000  	16,751360  	33,993283  	957,045375  	1256,670793  	70,393340  	64,773384  	0,004617  	0,008807  	0,003964  	0,004129  	0,004367  	-0,000001  	-0,000000  	22,710458  	19,519482  	20,714026  	22,200601  	28,027910  	26,240396  	27,765492  	28,698798  	34,653759  	33,234459  	36,764027  	58,977576  	23,094342  	22,243834  	22,215577  	63,909644  	0,111391  	0,056443  	-4071,057600  	4417,345328  	-0,012272  	-0,050007  	0,317177  	0,160716  	-3,781763  	10341,677159  	14231,170425  	2,064057  	-0,047958  
69,559000  	16,767207  	33,999999  	957,045375  	57,696365  	70,399508  	64,772016  	0,004608  	0,008826  	0,003961  	0,004117  	0,004334  	-0,000000  	-0,000000  	22,709928  	19,523456  	20,720049  	22,200289  	28,028345  	26,247775  	27,769906  	28,704032  	34,654630  	33,233244  	36,768295  	58,975095  	23,104543  	22,240973  	22,218377  	63,911605  	0,101184  	0,051271  	-3696,078559  	-21306,902816  	-0,021695  	-0,050000  	0,290404  	0,147150  	-3,467178  	10383,850853  	14032,993780  	2,035314  	-0,047952  
70,557000  	16,789767  	34,000307  	-242,047242  	657,183579  	70,399383  	64,773446  	0,004616  	0,008794  	0,003962  	0,004136  	0,004393  	-0,000001  	-0,000000  	22,711625  	19,524490  	20,718542  	22,203001  	28,018163  	26,244969  	27,765558  	28,704596  	34,648315  	33,232413  	36,771644  	58,975589  	23,099727  	22,226831  	22,209711  	63,911022  	0,116797  	0,059182  	-4260,857329  	32747,965826  	-0,035230  	-0,050007  	0,337672  	0,171101  	-4,030407  	10314,023797  	14200,645318  	2,059629  	-0,047958  
71,561000  	16,802917  	34,003635  	-242,047242  	657,183579  	70,393060  	64,770181  	0,004621  	0,008839  	0,003963  	0,004097  	0,004367  	-0,000000  	-0,000000  	22,707703  	19,522068  	20,710204  	22,207762  	28,017534  	26,237751  	27,759759  	28,695868  	34,648184  	33,226277  	36,768219  	58,964475  	23,098744  	22,210438  	22,212251  	63,898620  	0,084951  	0,043045  	-3097,323473  	32745,215546  	-0,035227  	-0,050003  	0,316667  	0,160458  	-3,777643  	10411,818321  	14306,879467  	2,075037  	-0,047954  
72,557000  	16,802979  	34,004559  	957,045375  	1256,670793  	70,387390  	64,776774  	0,004602  	0,008838  	0,003964  	0,004133  	0,004300  	0,000001  	-0,000000  	22,715611  	19,531556  	20,714961  	22,210793  	28,032473  	26,254148  	27,767575  	28,702246  	34,657544  	33,228618  	36,776983  	58,974773  	23,111670  	22,199233  	22,221024  	63,902121  	0,114240  	0,057886  	-4165,394976  	4415,482327  	-0,012267  	-0,049984  	0,264122  	0,133833  	-3,143941  	10407,860160  	13889,526486  	2,014505  	-0,047938  
73,672000  	16,788756  	34,000739  	957,045375  	956,927186  	70,383091  	64,770057  	0,004622  	0,008819  	0,003963  	0,004080  	0,004332  	-0,000000  	-0,000000  	22,719740  	19,532915  	20,723172  	22,219863  	28,032671  	26,253334  	27,775467  	28,703786  	34,656936  	33,242630  	36,777056  	58,984698  	23,106660  	22,186051  	22,219165  	63,910342  	0,071733  	0,036348  	-2617,111564  	-1,917269  	-0,013767  	-0,050005  	0,289301  	0,146591  	-3,445139  	10368,242469  	14328,090991  	2,078114  	-0,047956  
74,557000  	16,772387  	34,000800  	357,499067  	357,439972  	70,381845  	64,764770  	0,004612  	0,008850  	0,003962  	0,004097  	0,004338  	0,000000  	-0,000000  	22,707312  	19,523123  	20,710326  	22,201669  	28,025688  	26,236707  	27,759269  	28,698720  	34,642134  	33,234399  	36,759603  	58,966224  	23,089279  	22,152672  	22,200771  	63,902087  	0,085041  	0,043091  	-3105,580329  	-1,685080  	-0,026849  	-0,049995  	0,293754  	0,148847  	-3,500680  	10434,169375  	14110,983555  	2,046625  	-0,047947  
75,557000  	16,771008  	33,996733  	1256,818530  	357,439972  	70,381097  	64,767320  	0,004612  	0,008826  	0,003963  	0,004069  	0,004382  	-0,000000  	-0,000000  	22,701187  	19,513783  	20,714135  	22,200312  	28,025304  	26,237873  	27,758776  	28,693785  	34,646827  	33,231106  	36,771737  	58,972537  	23,080580  	22,131229  	22,209519  	63,900965  	0,062230  	0,031533  	-2272,220394  	-16234,275255  	-0,015675  	-0,050000  	0,328515  	0,166461  	-3,912640  	10382,875992  	14106,930488  	2,046037  	-0,047952  
76,558000  	16,772602  	33,999137  	57,725912  	-242,047242  	70,383216  	64,765579  	0,004624  	0,008819  	0,003964  	0,004090  	0,004345  	0,000000  	-0,000000  	22,710677  	19,512452  	20,714915  	22,204753  	28,027642  	26,244328  	27,758412  	28,689337  	34,651034  	33,220671  	36,766399  	58,968647  	23,073121  	22,116049  	22,204922  	63,899432  	0,079539  	0,040303  	-2904,349479  	-27697,711413  	-0,093553  	-0,049996  	0,299736  	0,151879  	-3,572333  	10367,805975  	14364,017834  	2,083325  	-0,047948  
77,558000  	16,767973  	34,000030  	57,725912  	1256,670793  	70,386393  	64,771145  	0,004603  	0,008818  	0,003964  	0,004130  	0,004370  	0,000001  	-0,000000  	22,712423  	19,528108  	20,726318  	22,202443  	28,033542  	26,251422  	27,761668  	28,708196  	34,656083  	33,244494  	36,776904  	58,976590  	23,078484  	22,090891  	22,213092  	63,909144  	0,111824  	0,056662  	-4084,539026  	24483,630798  	-0,018196  	-0,049983  	0,319635  	0,161961  	-3,807868  	10366,635151  	13920,454074  	2,018991  	-0,047937  
78,560000  	16,774778  	34,001755  	1256,818530  	1256,670793  	70,385583  	64,763557  	0,004620  	0,008812  	0,003964  	0,004126  	0,004381  	-0,000000  	-0,000001  	22,706123  	19,528021  	20,717261  	22,201611  	28,021233  	26,251556  	27,761361  	28,702515  	34,659649  	33,238618  	36,771388  	58,973100  	23,063581  	22,068426  	22,204170  	63,898990  	0,109051  	0,055257  	-3982,097665  	-1,993611  	-0,011069  	-0,050001  	0,328152  	0,166277  	-3,914056  	10352,678654  	14275,394052  	2,070471  	-0,047953  
79,557000  	16,778181  	34,006007  	1256,818530  	357,439972  	70,384617  	64,767507  	0,004616  	0,008853  	0,003963  	0,004112  	0,004367  	0,000001  	-0,000000  	22,727639  	19,524565  	20,714377  	22,208674  	28,025268  	26,246508  	27,776105  	28,708846  	34,659317  	33,229816  	36,775321  	58,968663  	23,066409  	22,054143  	22,209081  	63,907113  	0,097722  	0,049516  	-3568,554606  	-16230,019257  	-0,015671  	-0,049985  	0,317235  	0,160745  	-3,780530  	10441,032310  	14188,330771  	2,057843  	-0,047939  
80,561000  	16,769598  	34,008348  	1256,818530  	956,927186  	70,383496  	64,761101  	0,004608  	0,008800  	0,003963  	0,004073  	0,004370  	0,000001  	-0,000000  	22,715216  	19,514110  	20,711521  	22,206044  	28,024198  	26,238328  	27,761531  	28,694537  	34,644210  	33,220841  	36,768654  	58,964472  	23,065645  	22,039835  	22,210981  	63,894753  	0,066156  	0,033522  	-2417,375580  	-4419,236740  	-0,012266  	-0,049982  	0,319027  	0,161653  	-3,805457  	10326,094243  	14018,730371  	2,033245  	-0,047936  
81,557000  	16,755559  	34,010166  	957,045375  	1256,670793  	70,383932  	64,765237  	0,004624  	0,008824  	0,003963  	0,004104  	0,004362  	0,000001  	-0,000000  	22,713123  	19,517853  	20,718070  	22,219827  	28,024429  	26,255917  	27,765071  	28,702886  	34,652686  	33,239061  	36,768501  	58,976815  	23,070204  	22,038089  	22,218420  	63,902402  	0,090720  	0,045969  	-3318,037804  	4416,165751  	-0,012269  	-0,049992  	0,312698  	0,158446  	-3,727511  	10377,970561  	14377,984677  	2,085350  	-0,047945  
82,560000  	16,744892  	34,008749  	357,499067  	1256,670793  	70,382125  	64,758644  	0,004607  	0,008859  	0,003963  	0,004094  	0,004412  	0,000000  	-0,000000  	22,711503  	19,524275  	20,717489  	22,217230  	28,029170  	26,245253  	27,769624  	28,710401  	34,650924  	33,236711  	36,770448  	58,972301  	23,059551  	22,022653  	22,213494  	63,901662  	0,082989  	0,042051  	-3036,922610  	16230,184324  	-0,015675  	-0,049997  	0,352687  	0,178709  	-4,207784  	10455,044696  	14008,873085  	2,031815  	-0,047949  
83,557000  	16,730915  	34,006900  	357,499067  	357,439972  	70,382250  	64,768440  	0,004616  	0,008812  	0,003963  	0,004090  	0,004403  	0,000001  	-0,000000  	22,716000  	19,534291  	20,715288  	22,210981  	28,030101  	26,250011  	27,772747  	28,705429  	34,662959  	33,239533  	36,779558  	58,978547  	23,068945  	22,015931  	22,211989  	63,903942  	0,079242  	0,040152  	-2901,812503  	-1,684881  	-0,026846  	-0,049988  	0,345537  	0,175086  	-4,115395  	10352,706952  	14191,458836  	2,058297  	-0,047941  
84,558000  	16,722577  	34,004621  	957,045375  	956,927186  	70,388480  	64,758240  	0,004620  	0,008828  	0,003963  	0,004049  	0,004340  	-0,000001  	-0,000000  	22,710718  	19,529662  	20,712362  	22,205320  	28,029292  	26,250239  	27,771134  	28,706018  	34,651659  	33,239680  	36,771515  	58,976594  	23,059504  	21,994270  	22,207166  	63,904181  	0,046104  	0,023361  	-1688,927128  	-1,917473  	-0,013768  	-0,050011  	0,295226  	0,149593  	-3,526469  	10387,842972  	14277,406464  	2,070763  	-0,047961  
85,560000  	16,730608  	34,001724  	57,725912  	1256,670793  	70,390443  	64,768097  	0,004604  	0,008840  	0,003962  	0,004086  	0,004372  	-0,000000  	-0,000000  	22,717183  	19,521127  	20,713585  	22,207791  	28,026726  	26,244141  	27,766867  	28,703224  	34,645388  	33,241740  	36,775810  	58,969935  	23,056063  	21,994313  	22,203852  	63,906473  	0,075919  	0,038469  	-2779,366851  	24492,038602  	-0,018202  	-0,050002  	0,320646  	0,162474  	-3,824745  	10413,369751  	13939,752042  	2,021790  	-0,047953  
86,557000  	16,742317  	33,995439  	1256,818530  	1256,670793  	70,388511  	64,761443  	0,004624  	0,008803  	0,003962  	0,004081  	0,004381  	0,000000  	-0,000000  	22,703355  	19,519554  	20,707037  	22,202639  	28,019559  	26,242743  	27,757189  	28,700916  	34,645506  	33,228292  	36,773508  	58,960016  	23,044581  	21,968499  	22,203516  	63,897702  	0,071913  	0,036439  	-2629,967028  	-1,993518  	-0,011068  	-0,049999  	0,328312  	0,166358  	-3,919476  	10333,096545  	14370,026825  	2,084196  	-0,047950  
87,560000  	16,753352  	33,987398  	1256,818530  	1256,670793  	70,389290  	64,762002  	0,004609  	0,008814  	0,003962  	0,004118  	0,004346  	0,000000  	-0,000001  	22,705535  	19,524892  	20,705600  	22,209389  	28,021986  	26,243755  	27,756442  	28,702211  	34,647690  	33,226450  	36,775664  	58,968175  	23,043799  	21,952942  	22,200976  	63,896136  	0,101843  	0,051604  	-3720,402892  	-1,993381  	-0,011067  	-0,049995  	0,300630  	0,152332  	-3,589140  	10355,961204  	14043,267670  	2,036804  	-0,047947  
88,557000  	16,768249  	33,988816  	1256,818530  	57,696365  	70,390661  	64,768657  	0,004616  	0,008843  	0,003962  	0,004122  	0,004337  	-0,000002  	-0,000000  	22,708586  	19,530028  	20,713032  	22,203493  	28,029296  	26,245690  	27,768607  	28,699659  	34,653198  	33,233577  	36,779877  	58,973400  	23,050284  	21,957805  	22,204654  	63,905654  	0,105769  	0,053594  	-3860,792062  	-24503,624782  	-0,018208  	-0,050023  	0,293149  	0,148541  	-3,496540  	10418,900565  	14205,072624  	2,060272  	-0,047971  
89,560000  	16,770426  	33,992821  	-242,047242  	57,696365  	70,391471  	64,759794  	0,004621  	0,008835  	0,003962  	0,004085  	0,004355  	-0,000000  	-0,000000  	22,710531  	19,527945  	20,719956  	22,205690  	28,032282  	26,252080  	27,775181  	28,700409  	34,652161  	33,235697  	36,778285  	58,978677  	23,042377  	21,965794  	22,206675  	63,907156  	0,075364  	0,038187  	-2751,234647  	27700,591610  	-0,093572  	-0,050003  	0,307288  	0,155705  	-3,671482  	10402,313782  	14311,377384  	2,075690  	-0,047954  
90,558000  	16,760862  	33,993437  	-242,047242  	657,183579  	70,387359  	64,763899  	0,004602  	0,008840  	0,003960  	0,004093  	0,004357  	0,000000  	-0,000000  	22,722454  	19,530110  	20,724893  	22,216836  	28,040020  	26,255541  	27,775619  	28,709282  	34,655627  	33,241767  	36,786367  	58,979788  	23,039528  	21,971361  	22,212722  	63,908678  	0,082280  	0,041692  	-3005,503450  	32740,916286  	-0,035222  	-0,049995  	0,309224  	0,156686  	-3,689227  	10413,405123  	13896,375746  	2,015499  	-0,047947  
91,560000  	16,746793  	33,992328  	657,272221  	657,183579  	70,390941  	64,771363  	0,004623  	0,008849  	0,003962  	0,004097  	0,004386  	-0,000000  	-0,000000  	22,717844  	19,528715  	20,723332  	22,205473  	28,038147  	26,253757  	27,768997  	28,707006  	34,648655  	33,240984  	36,783757  	58,974543  	23,043142  	21,961573  	22,215404  	63,901048  	0,085094  	0,043118  	-3110,617382  	-1,810810  	-0,018202  	-0,050004  	0,331668  	0,168059  	-3,954275  	10431,838340  	14352,698902  	2,081683  	-0,047955  
92,557000  	16,744157  	33,990233  	57,725912  	1256,670793  	70,394056  	64,767569  	0,004611  	0,008831  	0,003960  	0,004071  	0,004332  	0,000001  	-0,000000  	22,707205  	19,522607  	20,711223  	22,197709  	28,027775  	26,250451  	27,761168  	28,699730  	34,639006  	33,232750  	36,773750  	58,970189  	23,035223  	21,952315  	22,211476  	63,892722  	0,063981  	0,032419  	-2338,895268  	24487,474212  	-0,018198  	-0,049992  	0,289197  	0,146538  	-3,452155  	10393,941865  	14094,065176  	2,044171  	-0,047944  
93,557000  	16,751513  	33,989555  	957,045375  	57,696365  	70,395489  	64,767227  	0,004612  	0,008819  	0,003962  	0,004060  	0,004397  	-0,000001  	-0,000001  	22,715918  	19,526227  	20,710838  	22,210190  	28,026574  	26,249736  	27,765147  	28,699955  	34,646150  	33,237268  	36,774631  	58,973562  	23,025551  	21,957038  	22,214792  	63,893184  	0,054983  	0,027860  	-2009,043254  	-21310,243395  	-0,021698  	-0,050009  	0,340719  	0,172645  	-4,068462  	10367,179177  	14117,479761  	2,047567  	-0,047959  
94,558000  	16,765920  	33,990294  	357,499067  	657,183579  	70,399415  	64,767911  	0,004621  	0,008818  	0,003963  	0,004135  	0,004335  	-0,000001  	-0,000000  	22,718918  	19,534779  	20,724277  	22,216712  	28,030963  	26,253851  	27,771704  	28,700884  	34,655559  	33,248391  	36,777836  	58,980885  	23,023991  	21,956087  	22,215469  	63,898377  	0,115785  	0,058669  	-4227,326321  	7101,679229  	-0,021700  	-0,050012  	0,291922  	0,147919  	-3,487785  	10365,147392  	14314,964419  	2,076210  	-0,047962  
95,556000  	16,770150  	33,993529  	357,499067  	657,183579  	70,403745  	64,763806  	0,004606  	0,008833  	0,003961  	0,004072  	0,004354  	-0,000000  	-0,000000  	22,715969  	19,536772  	20,723165  	22,211577  	28,031900  	26,254229  	27,769569  	28,704524  	34,656353  	33,245507  	36,782445  	58,981245  	23,024667  	21,947743  	22,209070  	63,905784  	0,065033  	0,032952  	-2374,220577  	7100,335698  	-0,021696  	-0,050001  	0,306599  	0,155356  	-3,668628  	10398,816169  	13974,605599  	2,026845  	-0,047953  
96,560000  	16,761874  	33,998767  	957,045375  	57,696365  	70,404866  	64,771954  	0,004619  	0,008849  	0,003962  	0,004108  	0,004338  	0,000001  	-0,000000  	22,722662  	19,533323  	20,714333  	22,204237  	28,027837  	26,248736  	27,765189  	28,709511  	34,648074  	33,235458  	36,783228  	58,978926  	23,024351  	21,939581  	22,213563  	63,899954  	0,094067  	0,047664  	-3436,908807  	-21301,817833  	-0,021690  	-0,049987  	0,294019  	0,148982  	-3,513726  	10431,448537  	14268,594219  	2,069485  	-0,047940  
97,557000  	16,758165  	34,001201  	957,045375  	1256,670793  	70,399944  	64,771674  	0,004613  	0,008823  	0,003962  	0,004140  	0,004409  	0,000002  	-0,000000  	22,709682  	19,528410  	20,714571  	22,212207  	28,026279  	26,249372  	27,761148  	28,710206  	34,641497  	33,236407  	36,776106  	58,976891  	23,018394  	21,928687  	22,212476  	63,899143  	0,120243  	0,060928  	-4394,861557  	4414,703813  	-0,012265  	-0,049974  	0,350531  	0,177617  	-4,185633  	10375,512185  	14133,374282  	2,049873  	-0,047929  
98,559000  	16,763866  	33,998982  	357,499067  	1256,670793  	70,397950  	64,772420  	0,004610  	0,008803  	0,003962  	0,004135  	0,004338  	-0,000000  	-0,000001  	22,708922  	19,527091  	20,722230  	22,215750  	28,026933  	26,245905  	27,763319  	28,708653  	34,649771  	33,238266  	36,771909  	58,969903  	23,018357  	21,924099  	22,206890  	63,903195  	0,115927  	0,058741  	-4235,165984  	16232,139559  	-0,015677  	-0,050004  	0,293867  	0,148905  	-3,507311  	10334,024714  	14060,214294  	2,039262  	-0,047955  
99,559000  	16,776924  	34,000831  	1256,818530  	1256,670793  	70,393060  	64,774970  	0,004623  	0,008814  	0,003962  	0,004095  	0,004368  	-0,000000  	-0,000000  	22,714483  	19,529729  	20,719768  	22,206982  	28,019629  	26,241735  	27,763884  	28,700406  	34,647039  	33,232627  	36,765237  	58,971268  	23,017192  	21,917039  	22,205057  	63,896936  	0,083216  	0,042166  	-3038,168499  	-1,993735  	-0,011069  	-0,050005  	0,318011  	0,161138  	-3,790441  	10357,644926  	14348,165680  	2,081025  	-0,047956  
100,563000  	16,781522  	34,001570  	1256,818530  	1256,670793  	70,387951  	64,774908  	0,004608  	0,008832  	0,003964  	0,004055  	0,004372  	0,000001  	-0,000000  	22,717954  	19,531504  	20,708025  	22,216602  	28,030007  	26,251203  	27,776284  	28,701216  	34,654463  	33,240281  	36,770249  	58,970920  	23,023045  	21,929966  	22,206327  	63,897522  	0,051540  	0,026116  	-1881,269721  	-1,993316  	-0,011067  	-0,049993  	0,321226  	0,162768  	-3,825327  	10396,384676  	14016,696776  	2,032950  	-0,047946  
101,556000  	16,770180  	33,996086  	957,045375  	956,927186  	70,389072  	64,770523  	0,004617  	0,008851  	0,003962  	0,004093  	0,004342  	0,000000  	-0,000000  	22,704651  	19,522809  	20,705258  	22,206098  	28,033552  	26,247813  	27,765418  	28,705338  	34,641282  	33,223897  	36,777109  	58,970640  	23,011416  	21,919547  	22,192581  	63,885999  	0,081673  	0,041384  	-2982,161357  	-1,916879  	-0,013764  	-0,049994  	0,297197  	0,150592  	-3,542646  	10435,732831  	14216,843466  	2,061979  	-0,047946  
102,557000  	16,767912  	33,991219  	-242,047242  	357,439972  	70,390131  	64,765921  	0,004622  	0,008821  	0,003964  	0,004120  	0,004390  	0,000001  	-0,000000  	22,718354  	19,535121  	20,717357  	22,207562  	28,029655  	26,251261  	27,763449  	28,711869  	34,653957  	33,238933  	36,776333  	58,976755  	23,030408  	21,930120  	22,214769  	63,911200  	0,104101  	0,052749  	-3800,533278  	30936,423575  	-0,051172  	-0,049989  	0,334963  	0,169728  	-3,996842  	10372,574162  	14325,718464  	2,077770  	-0,047942  
103,560000  	16,770119  	33,996210  	657,272221  	1256,670793  	70,389851  	64,764024  	0,004606  	0,008818  	0,003963  	0,004134  	0,004356  	-0,000000  	-0,000000  	22,718180  	19,521700  	20,720356  	22,201354  	28,035559  	26,248434  	27,759053  	28,707858  	34,655976  	33,229181  	36,770927  	58,975746  	23,034989  	21,914768  	22,204656  	63,903415  	0,115241  	0,058393  	-4207,897497  	9723,134408  	-0,013766  	-0,050003  	0,308543  	0,156341  	-3,682655  	10366,203609  	13993,515207  	2,029588  	-0,047954  
104,557000  	16,774594  	33,999352  	1256,818530  	57,696365  	70,388792  	64,770554  	0,004622  	0,008823  	0,003961  	0,004130  	0,004354  	-0,000000  	-0,000000  	22,698455  	19,521722  	20,709031  	22,204029  	28,018347  	26,241379  	27,754879  	28,701470  	34,642382  	33,231169  	36,758772  	58,968092  	23,024229  	21,900445  	22,198550  	63,906318  	0,111612  	0,056555  	-4075,065457  	-24493,847631  	-0,018200  	-0,050001  	0,306243  	0,155176  	-3,650273  	10376,197701  	14331,713332  	2,078639  	-0,047952  
105,558000  	16,777261  	34,001139  	57,725912  	-242,047242  	70,383278  	64,777116  	0,004609  	0,008834  	0,003963  	0,004092  	0,004377  	0,000000  	-0,000000  	22,712762  	19,523090  	20,711068  	22,206526  	28,027501  	26,252414  	27,769809  	28,697746  	34,644393  	33,234098  	36,782904  	58,967370  	23,032036  	21,911960  	22,206594  	63,912546  	0,081063  	0,041075  	-2959,556994  	-27699,360542  	-0,093558  	-0,049999  	0,325091  	0,164726  	-3,866608  	10399,982747  	14041,940185  	2,036611  	-0,047951  
106,558000  	16,775545  	33,997257  	1256,818530  	357,439972  	70,380910  	64,774441  	0,004614  	0,008811  	0,003963  	0,004108  	0,004343  	0,000001  	-0,000000  	22,709279  	19,510475  	20,701555  	22,195471  	28,016285  	26,250048  	27,748453  	28,688964  	34,637635  	33,231506  	36,768123  	58,953898  	23,025050  	21,888092  	22,187837  	63,901681  	0,094036  	0,047649  	-3432,732634  	-16232,313692  	-0,015673  	-0,049993  	0,297555  	0,150774  	-3,539295  	10349,724359  	14159,655672  	2,053684  	-0,047946  
107,557000  	16,779867  	33,999568  	1256,818530  	357,439972  	70,381440  	64,761660  	0,004621  	0,008827  	0,003962  	0,004130  	0,004402  	0,000001  	-0,000000  	22,710485  	19,522179  	20,713557  	22,207180  	28,021574  	26,244090  	27,769227  	28,702598  	34,645177  	33,227650  	36,772682  	58,964835  	23,038929  	21,897664  	22,195492  	63,908788  	0,111704  	0,056601  	-4077,241618  	-16229,512817  	-0,015670  	-0,049984  	0,344299  	0,174459  	-4,105004  	10385,474442  	14300,051390  	2,074047  	-0,047937  
108,557000  	16,785568  	33,999814  	57,725912  	956,927186  	70,380132  	64,763962  	0,004604  	0,008806  	0,003961  	0,004079  	0,004376  	0,000000  	-0,000000  	22,707183  	19,526544  	20,718271  	22,212684  	28,022651  	26,245647  	27,768315  	28,706010  	34,648441  	33,233336  	36,767923  	58,971773  	23,028175  	21,898797  	22,199695  	63,899396  	0,070248  	0,035595  	-2563,246336  	21303,254704  	-0,021695  	-0,049997  	0,323889  	0,164117  	-3,859184  	10338,965518  	13941,863309  	2,022096  	-0,047949  
109,557000  	16,790779  	33,997442  	57,725912  	956,927186  	70,383839  	64,754010  	0,004619  	0,008814  	0,003962  	0,004080  	0,004348  	-0,000001  	-0,000000  	22,713124  	19,526021  	20,722598  	22,209735  	28,028080  	26,254637  	27,767547  	28,705864  	34,649503  	33,234867  	36,771724  	58,974761  	23,037709  	21,895823  	22,209015  	63,897186  	0,071125  	0,036040  	-2594,131487  	21306,866356  	-0,021699  	-0,050007  	0,301668  	0,152858  	-3,603158  	10356,254794  	14268,410631  	2,069458  	-0,047957  
110,558000  	16,799546  	33,997504  	1256,818530  	357,439972  	70,386206  	64,758799  	0,004612  	0,008827  	0,003961  	0,004122  	0,004340  	0,000000  	-0,000000  	22,716166  	19,521914  	20,711982  	22,206421  	28,028685  	26,250739  	27,766158  	28,710146  	34,657089  	33,240815  	36,773916  	58,975050  	23,051169  	21,889201  	22,207981  	63,909453  	0,105353  	0,053383  	-3840,563485  	-16232,629919  	-0,015673  	-0,049994  	0,295193  	0,149576  	-3,524294  	10385,736197  	14116,102848  	2,047368  	-0,047947  
111,564000  	16,804879  	34,000184  	1256,818530  	1256,670793  	70,387421  	64,766729  	0,004612  	0,008847  	0,003963  	0,004121  	0,004364  	0,000001  	-0,000000  	22,718071  	19,525205  	20,711310  	22,212317  	28,031082  	26,252895  	27,770943  	28,707622  	34,652751  	33,240755  	36,779295  	58,977084  	23,052615  	21,889816  	22,210834  	63,910193  	0,104461  	0,052931  	-3807,461133  	-1,993104  	-0,011066  	-0,049987  	0,314249  	0,159232  	-3,747337  	10427,804482  	14105,186398  	2,045784  	-0,047940  
112,556000  	16,805921  	34,000800  	57,725912  	57,696365  	70,386798  	64,758146  	0,004621  	0,008836  	0,003963  	0,004117  	0,004364  	-0,000001  	-0,000000  	22,711415  	19,519588  	20,704701  	22,213431  	28,019493  	26,246924  	27,762662  	28,697917  	34,642277  	33,231256  	36,767493  	58,971017  	23,037111  	21,888729  	22,204032  	63,898059  	0,101022  	0,051188  	-3681,996345  	-1,525277  	-0,051188  	-0,050009  	0,314676  	0,159449  	-3,757743  	10405,283641  	14300,672766  	2,074137  	-0,047959  
113,558000  	16,795775  	34,002803  	957,045375  	1256,670793  	70,384493  	64,762065  	0,004603  	0,008816  	0,003960  	0,004112  	0,004394  	0,000000  	-0,000000  	22,707162  	19,521062  	20,705116  	22,209701  	28,018065  	26,244096  	27,755769  	28,700470  	34,639687  	33,230494  	36,769203  	58,967276  	23,032919  	21,886096  	22,214571  	63,897076  	0,097147  	0,049225  	-3543,270356  	4416,345259  	-0,012269  	-0,049995  	0,338360  	0,171449  	-4,036092  	10360,771130  	13929,266319  	2,020269  	-0,047947  
114,561000  	16,786212  	34,001879  	357,499067  	657,183579  	70,387483  	64,762562  	0,004619  	0,008847  	0,003961  	0,004097  	0,004391  	-0,000000  	-0,000000  	22,712734  	19,526649  	20,710040  	22,206628  	28,033334  	26,251050  	27,760137  	28,704403  	34,647475  	33,230601  	36,771646  	58,967813  	23,046041  	21,881986  	22,215124  	63,902202  	0,084925  	0,043032  	-3099,060970  	7100,792727  	-0,021698  	-0,050005  	0,336189  	0,170349  	-4,011980  	10427,566072  	14263,143055  	2,068694  	-0,047956  
115,557000  	16,778395  	33,999198  	1256,818530  	657,183579  	70,390038  	64,762282  	0,004617  	0,008832  	0,003965  	0,004131  	0,004360  	0,000000  	-0,000000  	22,716954  	19,522149  	20,716839  	22,207479  	28,031532  	26,251525  	27,766023  	28,701084  	34,645656  	33,234355  	36,769555  	58,971655  	23,047444  	21,873815  	22,201711  	63,906737  	0,112825  	0,057169  	-4118,399350  	-9725,877937  	-0,013765  	-0,049998  	0,311353  	0,157765  	-3,717464  	10395,471363  	14228,063544  	2,063606  	-0,047950  
116,556000  	16,769261  	34,001293  	57,725912  	57,696365  	70,389353  	64,768502  	0,004607  	0,008806  	0,003961  	0,004104  	0,004360  	-0,000000  	-0,000000  	22,714859  	19,527946  	20,725803  	22,208348  	28,030868  	26,249768  	27,771538  	28,703327  	34,646386  	33,238071  	36,774821  	58,974162  	23,044626  	21,866294  	22,200111  	63,907034  	0,091257  	0,046241  	-3333,294705  	-1,525078  	-0,051181  	-0,050002  	0,311660  	0,157920  	-3,716567  	10340,154735  	13997,377625  	2,030148  	-0,047953  
117,561000  	16,774165  	34,002988  	57,725912  	-242,047242  	70,389072  	64,766885  	0,004624  	0,008817  	0,003963  	0,004115  	0,004337  	0,000000  	-0,000001  	22,715133  	19,532189  	20,726349  	22,206377  	28,034879  	26,250797  	27,773182  	28,706967  	34,651807  	33,240854  	36,775911  	58,977248  	23,048929  	21,856158  	22,202965  	63,904421  	0,099587  	0,050461  	-3636,873813  	-27698,218525  	-0,093555  	-0,049997  	0,293429  	0,148682  	-3,499988  	10363,218186  	14379,396895  	2,085555  	-0,047949  
118,558000  	16,773491  	34,001139  	1256,818530  	357,439972  	70,388574  	64,776027  	0,004602  	0,008834  	0,003962  	0,004096  	0,004355  	-0,000000  	-0,000001  	22,713452  	19,522382  	20,720986  	22,208125  	28,031981  	26,253213  	27,767755  	28,700320  	34,650573  	33,235443  	36,772353  	58,976548  	23,041554  	21,841892  	22,198914  	63,896514  	0,084413  	0,042773  	-3082,526464  	-16234,812605  	-0,015676  	-0,050002  	0,307526  	0,155826  	-3,661854  	10399,837721  	13899,171939  	2,015904  	-0,047953  
119,562000  	16,763284  	34,004559  	357,499067  	1256,670793  	70,383994  	64,767942  	0,004619  	0,008825  	0,003962  	0,004091  	0,004361  	0,000000  	-0,000000  	22,713324  	19,521521  	20,722343  	22,216741  	28,030670  	26,256762  	27,762998  	28,702090  	34,649216  	33,233013  	36,773856  	58,972135  	23,030201  	21,829574  	22,196784  	63,899263  	0,080403  	0,040741  	-2938,412815  	16230,058333  	-0,015675  	-0,049997  	0,312332  	0,158261  	-3,721401  	10381,107377  	14267,160817  	2,069277  	-0,047948  
120,556000  	16,754333  	34,008687  	957,045375  	1256,670793  	70,379322  	64,757929  	0,004619  	0,008835  	0,003963  	0,004164  	0,004313  	0,000000  	-0,000001  	22,714303  	19,531125  	20,724527  	22,221586  	28,033465  	26,254642  	27,768353  	28,711981  	34,653749  	33,239713  	36,773663  	58,970400  	23,029285  	21,815851  	22,199678  	63,907860  	0,139560  	0,070716  	-5104,252187  	4416,353991  	-0,012269  	-0,049995  	0,274341  	0,139011  	-3,271850  	10402,613740  	14263,340766  	2,068723  	-0,047947  
121,559000  	16,768157  	34,012723  	-242,047242  	1256,670793  	70,372718  	64,759794  	0,004604  	0,008812  	0,003962  	0,004080  	0,004383  	-0,000000  	-0,000000  	22,713168  	19,531766  	20,719407  	22,217666  	28,037183  	26,249529  	27,772523  	28,710098  	34,654317  	33,237260  	36,771040  	58,968222  	23,027709  	21,798923  	22,203096  	63,900441  	0,071665  	0,036313  	-2619,585369  	35511,817940  	-0,021698  	-0,050004  	0,329383  	0,166901  	-3,922375  	10352,367377  	13937,817303  	2,021509  	-0,047955  
122,556000  	16,788572  	34,013401  	357,499067  	1256,670793  	70,370225  	64,766201  	0,004623  	0,008794  	0,003961  	0,004099  	0,004354  	-0,000001  	-0,000000  	22,719364  	19,524407  	20,715080  	22,211420  	28,036344  	26,247448  	27,766175  	28,708009  	34,647558  	33,233569  	36,768134  	58,964930  	23,026836  	21,781098  	22,200890  	63,893497  	0,086677  	0,043920  	-3164,682458  	16232,962066  	-0,015677  	-0,050007  	0,306389  	0,155250  	-3,642776  	10313,904238  	14338,986258  	2,079694  	-0,047957  
123,561000  	16,804665  	34,010721  	357,499067  	357,439972  	70,372095  	64,763588  	0,004608  	0,008833  	0,003961  	0,004068  	0,004338  	0,000000  	-0,000000  	22,712437  	19,519028  	20,715671  	22,205065  	28,024355  	26,240166  	27,766772  	28,703300  	34,641678  	33,233394  	36,759464  	58,962971  	23,022889  	21,757789  	22,192518  	63,888620  	0,061457  	0,031140  	-2241,401779  	-1,685189  	-0,026851  	-0,049998  	0,293990  	0,148967  	-3,498149  	10398,603935  	14018,405561  	2,033198  	-0,047950  
124,558000  	16,805278  	34,005175  	957,045375  	956,927186  	70,373154  	64,754943  	0,004610  	0,008833  	0,003963  	0,004148  	0,004392  	-0,000001  	-0,000000  	22,709905  	19,525444  	20,720031  	22,209252  	28,021455  	26,242950  	27,763809  	28,703049  	34,636272  	33,235506  	36,759864  	58,966006  	23,017415  	21,747257  	22,195477  	63,897888  	0,126545  	0,064121  	-4613,610453  	-1,917541  	-0,013769  	-0,050013  	0,336867  	0,170693  	-4,015270  	10398,618791  	14080,183066  	2,042158  	-0,047963  
125,556000  	16,785721  	34,001478  	-242,047242  	1256,670793  	70,379509  	64,748568  	0,004620  	0,008805  	0,003961  	0,004111  	0,004338  	0,000001  	-0,000000  	22,711665  	19,532048  	20,723372  	22,219369  	28,031858  	26,248003  	27,771524  	28,704628  	34,646483  	33,234039  	36,769285  	58,972422  	23,007751  	21,740626  	22,200327  	63,895220  	0,096747  	0,049022  	-3530,470737  	35503,673772  	-0,021693  	-0,049992  	0,293902  	0,148922  	-3,511080  	10338,648582  	14285,406682  	2,071923  	-0,047944  
126,562000  	16,776096  	34,001601  	-242,047242  	657,183579  	70,382437  	64,745645  	0,004606  	0,008809  	0,003962  	0,004105  	0,004349  	-0,000000  	-0,000000  	22,709514  	19,530633  	20,722563  	22,217599  	28,040732  	26,258982  	27,776524  	28,707687  	34,657204  	33,231591  	36,772941  	58,976308  	23,003949  	21,728751  	22,199075  	63,894760  	0,092029  	0,046632  	-3360,209974  	32745,021324  	-0,035227  	-0,050002  	0,302423  	0,153240  	-3,616631  	10347,128739  	13979,583670  	2,027567  	-0,047953  
127,559000  	16,774901  	34,002988  	657,272221  	657,183579  	70,375770  	64,742193  	0,004623  	0,008812  	0,003962  	0,004118  	0,004357  	0,000001  	-0,000000  	22,708725  	19,517244  	20,706955  	22,207949  	28,019183  	26,246529  	27,768368  	28,706811  	34,643250  	33,236569  	36,762409  	58,966023  	22,997801  	21,713657  	22,199943  	63,899474  	0,102625  	0,052001  	-3747,680707  	-1,810284  	-0,018197  	-0,049988  	0,309173  	0,156660  	-3,695247  	10353,635121  	14344,515094  	2,080496  	-0,047941  
128,558000  	16,779438  	34,002803  	1256,818530  	57,696365  	70,370039  	64,754694  	0,004613  	0,008812  	0,003963  	0,004084  	0,004375  	0,000001  	-0,000000  	22,720976  	19,530103  	20,722982  	22,212449  	28,037073  	26,257100  	27,777599  	28,709941  	34,649325  	33,241005  	36,771092  	58,970779  	22,994265  	21,719112  	22,220065  	63,911376  	0,074994  	0,038000  	-2737,885522  	-24486,217471  	-0,018195  	-0,049984  	0,323450  	0,163895  	-3,853385  	10352,631255  	14140,258848  	2,050871  	-0,047937  
129,560000  	16,793078  	34,001478  	1256,818530  	956,927186  	70,366145  	64,754041  	0,004612  	0,008840  	0,003963  	0,004126  	0,004371  	0,000000  	-0,000000  	22,717657  	19,528740  	20,717179  	22,212167  	28,042119  	26,256243  	27,774655  	28,708557  	34,651633  	33,247408  	36,771664  	58,968665  	22,995390  	21,709097  	22,212395  	63,903780  	0,108844  	0,055152  	-3970,237075  	-4420,350019  	-0,012270  	-0,049996  	0,320185  	0,162240  	-3,812284  	10413,577032  	14121,116224  	2,048095  	-0,047948  
130,558000  	16,798044  	34,003635  	1256,818530  	357,439972  	70,358170  	64,762935  	0,004624  	0,008827  	0,003963  	0,004031  	0,004352  	0,000002  	-0,000000  	22,715338  	19,527527  	20,720280  	22,209713  	28,040562  	26,261893  	27,760640  	28,715166  	34,650744  	33,243662  	36,771555  	58,968774  	22,987960  	21,704990  	22,203184  	63,920672  	0,031950  	0,016189  	-1165,231768  	-16228,719870  	-0,015670  	-0,049981  	0,305424  	0,154761  	-3,625605  	10384,303619  	14366,708111  	2,083715  	-0,047935  
131,559000  	16,795009  	34,004374  	1256,818530  	357,439972  	70,355958  	64,759639  	0,004604  	0,008831  	0,003961  	0,004160  	0,004344  	-0,000000  	-0,000000  	22,717014  	19,531062  	20,726174  	22,221612  	28,028247  	26,256422  	27,776802  	28,710214  	34,652220  	33,243079  	36,770354  	58,970511  	22,983509  	21,716264  	22,205666  	63,908957  	0,136174  	0,069001  	-4967,423193  	-16234,371550  	-0,015675  	-0,050000  	0,298859  	0,151434  	-3,548363  	10393,218147  	13945,344428  	2,022601  	-0,047952  
132,576000  	16,797339  	34,006654  	57,725912  	956,927186  	70,358949  	64,743406  	0,004621  	0,008827  	0,003963  	0,004111  	0,004356  	-0,000001  	-0,000000  	22,720474  	19,532529  	20,722615  	22,220499  	28,031998  	26,258102  	27,770750  	28,721023  	34,654850  	33,243296  	36,772458  	58,974953  	22,987414  	21,711513  	22,210019  	63,901127  	0,096530  	0,048913  	-3521,256694  	21306,933441  	-0,021699  	-0,050007  	0,308384  	0,156261  	-3,674022  	10384,573156  	14308,793023  	2,075315  	-0,047957  
133,557000  	16,809232  	34,006099  	957,045375  	1256,670793  	70,360755  	64,735632  	0,004618  	0,008815  	0,003960  	0,004113  	0,004335  	0,000001  	-0,000000  	22,720013  	19,523880  	20,724960  	22,208478  	28,033785  	26,253329  	27,758042  	28,706821  	34,647118  	33,237980  	36,767570  	58,970861  	22,984875  	21,709249  	22,211113  	63,900654  	0,098544  	0,049933  	-3592,094107  	4416,235937  	-0,012269  	-0,049993  	0,291309  	0,147609  	-3,476510  	10358,416042  	14234,051351  	2,064475  	-0,047946  
134,557000  	16,819838  	34,001540  	-242,047242  	1256,670793  	70,364307  	64,743779  	0,004610  	0,008825  	0,003963  	0,004092  	0,004366  	0,000000  	-0,000000  	22,708194  	19,524582  	20,719217  	22,217356  	28,025780  	26,249087  	27,764278  	28,698618  	34,642765  	33,238272  	36,767760  	58,965766  	22,976527  	21,708886  	22,198597  	63,899675  	0,081031  	0,041059  	-2951,135858  	35507,735455  	-0,021696  	-0,049998  	0,316138  	0,160190  	-3,769741  	10381,775206  	14075,932288  	2,041541  	-0,047950  
135,558000  	16,816987  	34,000615  	657,272221  	357,439972  	70,366020  	64,740390  	0,004621  	0,008831  	0,003961  	0,004086  	0,004341  	-0,000000  	-0,000000  	22,719443  	19,534360  	20,721585  	22,222079  	28,036909  	26,265248  	27,770920  	28,709906  	34,649628  	33,237481  	36,776614  	58,971301  	22,979644  	21,716587  	22,204990  	63,906653  	0,076062  	0,038541  	-2770,479032  	-7103,780818  	-0,021696  	-0,050002  	0,296608  	0,150293  	-3,540063  	10393,469291  	14315,366901  	2,076268  	-0,047953  
136,557000  	16,808282  	34,007640  	57,725912  	-242,047242  	70,367889  	64,751398  	0,004609  	0,008828  	0,003964  	0,004092  	0,004350  	-0,000000  	-0,000000  	22,718256  	19,528089  	20,719143  	22,215977  	28,031980  	26,252270  	27,765984  	28,711049  	34,650399  	33,233383  	36,775482  	58,968283  	22,977056  	21,702633  	22,200920  	63,908302  	0,081568  	0,041331  	-2973,747129  	-27702,756166  	-0,093570  	-0,050006  	0,303445  	0,153758  	-3,615795  	10386,388462  	14051,712738  	2,038029  	-0,047956  
137,559000  	16,794948  	34,011522  	1256,818530  	57,696365  	70,373341  	64,750092  	0,004615  	0,008829  	0,003962  	0,004123  	0,004350  	-0,000001  	-0,000000  	22,725314  	19,531412  	20,725148  	22,221049  	28,033741  	26,254421  	27,764543  	28,719391  	34,655184  	33,243090  	36,769622  	58,971541  	22,982748  	21,710774  	22,205182  	63,914549  	0,106299  	0,053863  	-3879,248417  	-24499,242911  	-0,018204  	-0,050013  	0,303165  	0,153616  	-3,616798  	10390,115996  	14170,783955  	2,055298  	-0,047963  
138,557000  	16,773552  	34,014295  	1256,818530  	1256,670793  	70,376269  	64,739332  	0,004619  	0,008844  	0,003961  	0,004091  	0,004330  	0,000001  	-0,000000  	22,720000  	19,533092  	20,726685  	22,223584  	28,031459  	26,253879  	27,771014  	28,715401  	34,648912  	33,242907  	36,767288  	58,969459  	22,983434  	21,706353  	22,199098  	63,909189  	0,080011  	0,040542  	-2924,007529  	-1,993287  	-0,011067  	-0,049992  	0,287382  	0,145619  	-3,436846  	10420,634515  	14257,684830  	2,067902  	-0,047945  
139,558000  	16,754609  	34,008841  	357,499067  	357,439972  	70,372749  	64,742629  	0,004606  	0,008845  	0,003962  	0,004096  	0,004331  	0,000001  	-0,000000  	22,722920  	19,530875  	20,727050  	22,227953  	28,036983  	26,259010  	27,773985  	28,709944  	34,650342  	33,239936  	36,771543  	58,976397  	22,968630  	21,701461  	22,200942  	63,903939  	0,084397  	0,042765  	-3086,706151  	-1,684736  	-0,026844  	-0,049983  	0,288381  	0,146125  	-3,444621  	10422,901880  	13979,449509  	2,027548  	-0,047937  
140,559000  	16,741429  	34,005637  	957,045375  	956,927186  	70,374929  	64,752020  	0,004622  	0,008823  	0,003963  	0,004112  	0,004406  	0,000001  	-0,000000  	22,719883  	19,530796  	20,728547  	22,223898  	28,038764  	26,262839  	27,772361  	28,708634  	34,656866  	33,239804  	36,773259  	58,975859  	22,970664  	21,689432  	22,204014  	63,905840  	0,097268  	0,049286  	-3559,508221  	-1,916794  	-0,013763  	-0,049992  	0,348104  	0,176387  	-4,152678  	10376,420546  	14335,145024  	2,079137  	-0,047944  
141,558000  	16,740325  	34,008071  	1256,818530  	-242,047242  	70,378449  	64,754321  	0,004611  	0,008831  	0,003963  	0,004123  	0,004365  	0,000001  	-0,000000  	22,726193  	19,537067  	20,727883  	22,226371  	28,042273  	26,264097  	27,777426  	28,714485  	34,658844  	33,247607  	36,775619  	58,979421  	22,985283  	21,694490  	22,213731  	63,904716  	0,106255  	0,053840  	-3889,195955  	-35504,060625  	-0,021691  	-0,049991  	0,315158  	0,159693  	-3,760461  	10394,438492  	14081,101008  	2,042291  	-0,047944  
142,558000  	16,751728  	34,010906  	1256,818530  	357,439972  	70,379197  	64,751958  	0,004614  	0,008838  	0,003963  	0,004098  	0,004396  	0,000000  	-0,000000  	22,724035  	19,542691  	20,732338  	22,223846  	28,039779  	26,261854  	27,781867  	28,712747  	34,653934  	33,250949  	36,776027  	58,975996  	22,974234  	21,693349  	22,216771  	63,902033  	0,085969  	0,043561  	-3145,083191  	-16233,876998  	-0,015675  	-0,049999  	0,340186  	0,172375  	-4,061348  	10409,119414  	14153,583131  	2,052804  	-0,047950  
143,558000  	16,780602  	34,013309  	1256,818530  	357,439972  	70,379197  	64,757276  	0,004620  	0,008836  	0,003962  	0,004093  	0,004337  	0,000000  	-0,000000  	22,719957  	19,534346  	20,728178  	22,218729  	28,033466  	26,254444  	27,773428  	28,708148  	34,654920  	33,242707  	36,768457  	58,968024  	22,953737  	21,680231  	22,203826  	63,901633  	0,081865  	0,041482  	-2990,361599  	-16233,951894  	-0,015675  	-0,049999  	0,293348  	0,148642  	-3,498858  	10404,629254  	14286,070425  	2,072019  	-0,047951  
144,558000  	16,804144  	34,011583  	1256,818530  	-242,047242  	70,375459  	64,763619  	0,004604  	0,008831  	0,003963  	0,004102  	0,004379  	-0,000001  	-0,000000  	22,721937  	19,521981  	20,717704  	22,215373  	28,033329  	26,249672  	27,768221  	28,705915  	34,651931  	33,236858  	36,761114  	58,965430  	22,946631  	21,674117  	22,196050  	63,891944  	0,089648  	0,045425  	-3269,850263  	-35517,501859  	-0,021699  	-0,050012  	0,326491  	0,165435  	-3,887183  	10393,276865  	13937,040583  	2,021397  	-0,047962  
145,560000  	16,793354  	34,009858  	57,725912  	1256,670793  	70,372905  	64,758519  	0,004622  	0,008796  	0,003962  	0,004104  	0,004376  	-0,000000  	-0,000000  	22,717802  	19,523778  	20,717662  	22,217477  	28,034649  	26,256287  	27,769820  	28,706287  	34,648928  	33,239179  	36,762190  	58,967684  	22,946676  	21,681787  	22,195947  	63,884663  	0,091294  	0,046259  	-3331,620727  	24493,647347  	-0,018203  	-0,050006  	0,323668  	0,164005  	-3,855324  	10317,870889  	14322,202040  	2,077260  	-0,047956  
146,561000  	16,772326  	34,006962  	657,272221  	657,183579  	70,369602  	64,749004  	0,004613  	0,008836  	0,003962  	0,004114  	0,004361  	-0,000000  	-0,000000  	22,713305  	19,532859  	20,723311  	22,220233  	28,035293  	26,257886  	27,767038  	28,709394  	34,653005  	33,238647  	36,765649  	58,971179  	22,942508  	21,684425  	22,197936  	63,891737  	0,098908  	0,050117  	-3613,293792  	-1,810691  	-0,018201  	-0,050001  	0,312175  	0,158181  	-3,722531  	10403,643074  	14125,317575  	2,048704  	-0,047952  
147,559000  	16,761015  	34,007424  	657,272221  	-242,047242  	70,366207  	64,753109  	0,004612  	0,008829  	0,003961  	0,004103  	0,004371  	-0,000001  	-0,000000  	22,718834  	19,536206  	20,726673  	22,212935  	28,039598  	26,253582  	27,768786  	28,711463  	34,651743  	33,237000  	36,771905  	58,972083  	22,934343  	21,671226  	22,207442  	63,899256  	0,090077  	0,045643  	-3292,936031  	-32750,513831  	-0,035229  	-0,050011  	0,319981  	0,162137  	-3,810532  	10389,053412  	14117,529189  	2,047574  	-0,047961  
148,557000  	16,751574  	34,004959  	1256,818530  	-242,047242  	70,370506  	64,755969  	0,004623  	0,008840  	0,003960  	0,004113  	0,004373  	-0,000000  	-0,000000  	22,723815  	19,534451  	20,724408  	22,210007  	28,040145  	26,259137  	27,770283  	28,713554  	34,651043  	33,238569  	36,776650  	58,968131  	22,930128  	21,661010  	22,206628  	63,903488  	0,098435  	0,049878  	-3599,937283  	-35511,424830  	-0,021696  	-0,050003  	0,321296  	0,162803  	-3,827172  	10413,127804  	14355,770477  	2,082128  	-0,047954  
149,560000  	16,741459  	34,002341  	957,045375  	956,927186  	70,374369  	64,752113  	0,004606  	0,008835  	0,003963  	0,004138  	0,004353  	-0,000000  	-0,000000  	22,717350  	19,529721  	20,719078  	22,208716  	28,030931  	26,251090  	27,764106  	28,708171  	34,641127  	33,234554  	36,763225  	58,955086  	22,922841  	21,649255  	22,199651  	63,899989  	0,118568  	0,060079  	-4338,139128  	-1,917265  	-0,013767  	-0,050005  	0,306055  	0,155080  	-3,650635  	10401,827060  	13975,142242  	2,026923  	-0,047956  
150,559000  	16,729873  	34,003203  	357,499067  	357,439972  	70,372811  	64,754228  	0,004620  	0,008822  	0,003962  	0,004112  	0,004374  	0,000000  	-0,000000  	22,723908  	19,529956  	20,724715  	22,217510  	28,028748  	26,254530  	27,770579  	28,706927  	34,640275  	33,238919  	36,764545  	58,958972  	22,929337  	21,659311  	22,208203  	63,900587  	0,097261  	0,049283  	-3561,130586  	-1,685162  	-0,026851  	-0,049997  	0,322331  	0,163327  	-3,842259  	10375,165537  	14274,469049  	2,070337  	-0,047949  
151,559000  	16,722608  	34,002926  	1256,818530  	1256,670793  	70,373621  	64,750901  	0,004617  	0,008843  	0,003964  	0,004083  	0,004344  	0,000000  	-0,000000  	22,720115  	19,536767  	20,729466  	22,221338  	28,041499  	26,253661  	27,772665  	28,708471  	34,650304  	33,238414  	36,779786  	58,967445  	22,935755  	21,665634  	22,202278  	63,899352  	0,073625  	0,037306  	-2696,818216  	-1,993444  	-0,011068  	-0,049997  	0,298351  	0,151177  	-3,559035  	10420,241175  	14211,950129  	2,061269  	-0,047949  
152,558000  	16,715619  	34,000276  	57,725912  	1256,670793  	70,380287  	64,749470  	0,004607  	0,008829  	0,003963  	0,004127  	0,004367  	0,000001  	-0,000000  	22,723345  	19,538893  	20,721746  	22,213148  	28,045386  	26,264769  	27,773009  	28,705589  	34,648571  	33,235362  	36,774897  	58,959399  	22,934240  	21,662156  	22,198283  	63,905809  	0,109810  	0,055642  	-4023,265093  	24485,072751  	-0,018197  	-0,049986  	0,316892  	0,160572  	-3,785657  	10389,564896  	14010,094654  	2,031992  	-0,047940  
153,559000  	16,720217  	33,999260  	957,045375  	-242,047242  	70,383122  	64,749626  	0,004623  	0,008830  	0,003965  	0,004109  	0,004342  	0,000001  	-0,000000  	22,725579  	19,534765  	20,722958  	22,209225  	28,037095  	26,262463  	27,776669  	28,707288  	34,645078  	33,234994  	36,765309  	58,952466  	22,930933  	21,659151  	22,204103  	63,895016  	0,095219  	0,048248  	-3487,530438  	-34182,611218  	-0,026842  	-0,049982  	0,297136  	0,150561  	-3,551329  	10390,909751  	14349,457860  	2,081213  	-0,047936  
154,558000  	16,732601  	33,998151  	357,499067  	357,439972  	70,381814  	64,751367  	0,004604  	0,008807  	0,003962  	0,004061  	0,004360  	-0,000000  	-0,000000  	22,722942  	19,535940  	20,726599  	22,216136  	28,036719  	26,262524  	27,774816  	28,714010  	34,648598  	33,241651  	36,768797  	58,960373  	22,919270  	21,684472  	22,212541  	63,895736  	0,056075  	0,028413  	-2052,205809  	-1,685293  	-0,026853  	-0,050002  	0,311374  	0,157775  	-3,719485  	10342,494967  	13949,566962  	2,023214  	-0,047953  
155,559000  	16,729290  	33,992790  	1256,818530  	1256,670793  	70,382312  	64,762904  	0,004619  	0,008820  	0,003961  	0,004133  	0,004378  	0,000001  	-0,000000  	22,717744  	19,536920  	20,725459  	22,226207  	28,040537  	26,246506  	27,771520  	28,706397  	34,653453  	33,244717  	36,769823  	58,960916  	22,909763  	21,697708  	22,204332  	63,886506  	0,114685  	0,058112  	-4196,695414  	-1,992922  	-0,011065  	-0,049982  	0,326030  	0,165202  	-3,886935  	10370,222611  	14265,035428  	2,068968  	-0,047936  
156,561000  	16,723650  	33,990941  	1256,818530  	57,696365  	70,377079  	64,765330  	0,004620  	0,008845  	0,003962  	0,004105  	0,004369  	-0,000001  	-0,000000  	22,720516  	19,534805  	20,731106  	22,214976  	28,037976  	26,253693  	27,773616  	28,703618  	34,656175  	33,229645  	36,765246  	58,965034  	22,917328  	21,704838  	22,197251  	63,893628  	0,091479  	0,046353  	-3348,250472  	-24497,146142  	-0,018203  	-0,050009  	0,318190  	0,161229  	-3,788298  	10423,177077  	14289,678644  	2,072543  	-0,047959  
157,558000  	16,712677  	33,990325  	57,725912  	1256,670793  	70,371253  	64,752082  	0,004606  	0,008838  	0,003962  	0,004085  	0,004384  	-0,000000  	-0,000000  	22,718181  	19,536172  	20,726115  	22,218085  	28,033478  	26,257355  	27,762320  	28,708087  	34,646676  	33,233638  	36,770733  	58,965270  	22,906247  	21,725207  	22,201656  	63,882657  	0,075582  	0,038298  	-2768,066061  	24492,955066  	-0,018202  	-0,050004  	0,330636  	0,167536  	-3,941670  	10408,708388  	13977,832519  	2,027313  	-0,047955  
158,561000  	16,706608  	33,988785  	1256,818530  	657,183579  	70,366643  	64,753388  	0,004621  	0,008818  	0,003961  	0,004137  	0,004336  	-0,000001  	-0,000000  	22,722164  	19,535939  	20,718881  	22,223291  	28,023201  	26,255796  	27,771364  	28,705319  	34,645898  	33,238352  	36,771581  	58,962008  	22,904666  	21,732729  	22,208287  	63,888008  	0,117643  	0,059611  	-4309,637533  	-9727,419951  	-0,013767  	-0,050007  	0,292124  	0,148021  	-3,478886  	10365,735987  	14308,863634  	2,075325  	-0,047957  
159,559000  	16,706516  	33,982592  	1256,818530  	657,183579  	70,364026  	64,745241  	0,004610  	0,008833  	0,003963  	0,004121  	0,004361  	-0,000001  	-0,000000  	22,722989  	19,538296  	20,726143  	22,222127  	28,035576  	26,252361  	27,771974  	28,707637  	34,652912  	33,236970  	36,778045  	58,970680  	22,905160  	21,750842  	22,210613  	63,895167  	0,104753  	0,053079  	-3836,047963  	-9728,127212  	-0,013768  	-0,050011  	0,311837  	0,158010  	-3,717303  	10398,831733  	14075,798127  	2,041522  	-0,047961  
160,560000  	16,697565  	33,980497  	1256,818530  	57,696365  	70,367702  	64,753451  	0,004613  	0,008811  	0,003962  	0,004073  	0,004361  	-0,000001  	-0,000000  	22,727359  	19,527122  	20,727758  	22,213805  	28,032378  	26,258597  	27,763128  	28,705966  	34,655273  	33,236369  	36,768557  	58,967089  	22,911706  	21,757469  	22,208542  	63,892210  	0,065613  	0,033247  	-2403,704584  	-24498,538009  	-0,018204  	-0,050012  	0,311937  	0,158061  	-3,715492  	10350,235135  	14130,571028  	2,049466  	-0,047961  
161,557000  	16,678224  	33,976739  	1256,818530  	-242,047242  	70,368917  	64,759266  	0,004621  	0,008824  	0,003962  	0,004115  	0,004325  	0,000001  	-0,000000  	22,724600  	19,536230  	20,720751  	22,218185  	28,027984  	26,259827  	27,769215  	28,700941  	34,645586  	33,246746  	36,770080  	58,971984  	22,911253  	21,784413  	22,205730  	63,888166  	0,099865  	0,050602  	-3661,811450  	-35500,147092  	-0,021689  	-0,049985  	0,283943  	0,143876  	-3,379288  	10378,540762  	14308,030425  	2,075204  	-0,047939  
162,561000  	16,674791  	33,972610  	1256,818530  	357,439972  	70,368979  	64,752300  	0,004603  	0,008818  	0,003962  	0,004096  	0,004386  	0,000001  	-0,000000  	22,715178  	19,529082  	20,716353  	22,215827  	28,033809  	26,252427  	27,766279  	28,701614  	34,644536  	33,242069  	36,765258  	58,966662  	22,909806  	21,806542  	22,201471  	63,884181  	0,084276  	0,042703  	-3090,087085  	-16231,368575  	-0,015672  	-0,049990  	0,331824  	0,168138  	-3,954080  	10364,915350  	13928,489599  	2,020157  	-0,047943  
163,557000  	16,688309  	33,973350  	1256,818530  	357,439972  	70,368076  	64,747729  	0,004621  	0,008811  	0,003965  	0,004094  	0,004347  	0,000001  	-0,000000  	22,704893  	19,531534  	20,721287  	22,215390  	28,044073  	26,252302  	27,772882  	28,709058  	34,644808  	33,243595  	36,775937  	58,970078  	22,920106  	21,828815  	22,207264  	63,881879  	0,082524  	0,041815  	-3023,602899  	-16229,007565  	-0,015670  	-0,049982  	0,301139  	0,152589  	-3,590771  	10351,066384  	14305,657898  	2,074860  	-0,047936  
164,560000  	16,712891  	33,970577  	1256,818530  	-242,047242  	70,367453  	64,744868  	0,004613  	0,008818  	0,003963  	0,004079  	0,004360  	0,000001  	-0,000000  	22,707432  	19,533802  	20,724602  	22,219200  	28,044165  	26,263569  	27,770108  	28,702861  	34,642375  	33,243796  	36,773057  	58,969938  	22,922846  	21,848046  	22,210283  	63,880018  	0,070563  	0,035755  	-2581,260311  	-35502,050551  	-0,021690  	-0,049988  	0,311549  	0,157864  	-3,716383  	10365,414099  	14140,237665  	2,050868  	-0,047941  
165,558000  	16,747099  	33,969098  	1256,818530  	956,927186  	70,368668  	64,739892  	0,004611  	0,008835  	0,003961  	0,004119  	0,004365  	0,000002  	-0,000000  	22,715465  	19,532920  	20,728010  	22,214168  	28,035774  	26,253873  	27,770355  	28,707228  	34,641872  	33,238642  	36,774184  	58,969574  	22,923239  	21,865426  	22,199309  	63,877342  	0,103190  	0,052287  	-3766,967081  	-4418,962548  	-0,012266  	-0,049979  	0,315156  	0,159692  	-3,763543  	10402,163804  	14080,670282  	2,042229  	-0,047933  
166,558000  	16,756417  	33,969098  	1256,818530  	-242,047242  	70,365677  	64,748226  	0,004624  	0,008805  	0,003963  	0,004060  	0,004358  	0,000001  	-0,000000  	22,717159  	19,528389  	20,716481  	22,207761  	28,025132  	26,238090  	27,766594  	28,702624  	34,640220  	33,235522  	36,764147  	58,961706  	22,918396  	21,876788  	22,190614  	63,871354  	0,055522  	0,028134  	-2025,764049  	-35505,207382  	-0,021692  	-0,049993  	0,309494  	0,156823  	-3,688492  	10337,774178  	14369,843236  	2,084170  	-0,047945  
167,559000  	16,746486  	33,968266  	357,499067  	-242,047242  	70,366238  	64,736192  	0,004603  	0,008879  	0,003962  	0,004132  	0,004391  	0,000000  	-0,000000  	22,711172  	19,522886  	20,710666  	22,203257  	28,020708  	26,237098  	27,764500  	28,696796  	34,637551  	33,226011  	36,760513  	58,956782  	22,920899  	21,888980  	22,188152  	63,869074  	0,113294  	0,057407  	-4135,764524  	-30941,616292  	-0,051175  	-0,049997  	0,336249  	0,170380  	-4,016333  	10497,023842  	13915,977341  	2,018342  	-0,047949  
168,559000  	16,730424  	33,961550  	957,045375  	956,927186  	70,372593  	64,729972  	0,004620  	0,008919  	0,003962  	0,004108  	0,004348  	0,000000  	-0,000000  	22,715300  	19,530493  	20,720053  	22,211633  	28,030768  	26,246798  	27,764965  	28,701664  	34,642758  	33,223205  	36,763559  	58,959672  	22,934356  	21,901617  	22,194662  	63,875348  	0,093768  	0,047513  	-3424,833728  	-1,916997  	-0,013765  	-0,049998  	0,301902  	0,152976  	-3,614130  	10584,242754  	14280,463917  	2,071206  	-0,047949  
169,558000  	16,730363  	33,952554  	1256,818530  	1256,670793  	70,374961  	64,731869  	0,004617  	0,008814  	0,003963  	0,004117  	0,004341  	-0,000001  	-0,000000  	22,720679  	19,538241  	20,723370  	22,217230  	28,033548  	26,252030  	27,768892  	28,703072  	34,645017  	33,231858  	36,763154  	58,968076  	22,947709  	21,920135  	22,201355  	63,882876  	0,101084  	0,051220  	-3690,143009  	-1,993919  	-0,011070  	-0,050010  	0,296336  	0,150155  	-3,547791  	10358,003601  	14213,715402  	2,061525  	-0,047960  
170,583000  	16,737045  	33,951198  	657,272221  	1256,670793  	70,376830  	64,755876  	0,004607  	0,008786  	0,003961  	0,004075  	0,004358  	0,000000  	-0,000000  	22,714955  	19,532501  	20,719480  	22,209460  	28,031340  	26,251190  	27,769710  	28,698438  	34,648967  	33,235483  	36,765930  	58,968977  	22,947304  	21,935163  	22,202726  	63,879471  	0,066997  	0,033948  	-2444,626416  	9722,167539  	-0,013765  	-0,049998  	0,309523  	0,156838  	-3,691145  	10297,678961  	14010,723091  	2,032084  	-0,047949  
171,557000  	16,740999  	33,953324  	657,272221  	1256,670793  	70,376456  	64,752766  	0,004625  	0,008830  	0,003964  	0,004108  	0,004362  	0,000001  	-0,000000  	22,709019  	19,521543  	20,716805  	22,201619  	28,028665  	26,249255  	27,760341  	28,695314  	34,647031  	33,228811  	36,762141  	58,963154  	22,945537  	21,936409  	22,202937  	63,876071  	0,094036  	0,047649  	-3430,873605  	9720,601894  	-0,013763  	-0,049989  	0,312767  	0,158481  	-3,731642  	10391,075293  	14391,598465  	2,087325  	-0,047942  
172,558000  	16,750072  	33,960287  	1256,818530  	1256,670793  	70,376892  	64,751087  	0,004606  	0,008820  	0,003961  	0,004060  	0,004351  	-0,000000  	-0,000000  	22,711976  	19,520169  	20,716159  	22,203471  	28,022484  	26,242508  	27,758444  	28,697835  	34,636299  	33,221050  	36,756769  	58,965536  	22,952832  	21,948281  	22,202393  	63,877409  	0,055201  	0,027971  	-2013,747781  	-1,993729  	-0,011069  	-0,050005  	0,304129  	0,154104  	-3,629950  	10369,103431  	13983,707348  	2,028165  	-0,047956  
173,559000  	16,754302  	33,965709  	57,725912  	57,696365  	70,378761  	64,749346  	0,004619  	0,008827  	0,003962  	0,004136  	0,004377  	0,000000  	-0,000000  	22,713845  	19,528051  	20,717645  	22,209366  	28,024484  	26,238427  	27,769664  	28,703806  	34,641112  	33,224029  	36,765718  	58,969145  	22,956823  	21,974174  	22,204528  	63,873910  	0,116602  	0,059083  	-4253,973063  	-1,524948  	-0,051177  	-0,049997  	0,324883  	0,164621  	-3,880151  	10385,622298  	14262,338090  	2,068577  	-0,047949  
174,558000  	16,754548  	33,968297  	657,272221  	1256,670793  	70,376393  	64,755503  	0,004616  	0,008817  	0,003963  	0,004147  	0,004320  	0,000000  	-0,000000  	22,707812  	19,527490  	20,714299  	22,202695  	28,022780  	26,243546  	27,766604  	28,701588  	34,647245  	33,231415  	36,767559  	58,968155  	22,957430  	21,986993  	22,210759  	63,876938  	0,125650  	0,063668  	-4584,710448  	9722,062877  	-0,013765  	-0,049997  	0,279672  	0,141712  	-3,335123  	10362,407453  	14198,851800  	2,059369  	-0,047949  
175,558000  	16,747559  	33,971347  	657,272221  	357,439972  	70,372406  	64,752455  	0,004608  	0,008831  	0,003964  	0,004065  	0,004362  	0,000000  	-0,000000  	22,708144  	19,522251  	20,713256  	22,192192  	28,018975  	26,239481  	27,754189  	28,694954  	34,643637  	33,227289  	36,763847  	58,968992  	22,955926  	21,997977  	22,209485  	63,882786  	0,059284  	0,030040  	-2164,410737  	-7103,344899  	-0,021695  	-0,049998  	0,312880  	0,158539  	-3,730515  	10393,564796  	14021,597175  	2,033661  	-0,047950  
176,599000  	16,753199  	33,972641  	1256,818530  	956,927186  	70,372281  	64,747977  	0,004622  	0,008826  	0,003962  	0,004128  	0,004374  	0,000000  	-0,000000  	22,708821  	19,521317  	20,717989  	22,198084  	28,022242  	26,237391  	27,757899  	28,690219  	34,637228  	33,232682  	36,760804  	58,960823  	22,957502  	22,001386  	22,198187  	63,885928  	0,110004  	0,055740  	-4015,119590  	-4420,333186  	-0,012269  	-0,049996  	0,322416  	0,163370  	-3,847185  	10383,140577  	14317,831223  	2,076626  	-0,047948  
177,558000  	16,775453  	33,974058  	957,045375  	-242,047242  	70,378792  	64,746174  	0,004607  	0,008794  	0,003962  	0,004081  	0,004351  	0,000000  	-0,000000  	22,705939  	19,520651  	20,712918  	22,196534  	28,018345  	26,238103  	27,759751  	28,692549  	34,632871  	33,224667  	36,762304  	58,962721  	22,948825  	21,998022  	22,194453  	63,882085  	0,071893  	0,036429  	-2620,892398  	-34191,560519  	-0,026849  	-0,049996  	0,304380  	0,154232  	-3,637346  	10313,045399  	14007,962204  	2,031683  	-0,047948  
178,557000  	16,777782  	33,974921  	-242,047242  	357,439972  	70,380599  	64,749595  	0,004614  	0,008818  	0,003962  	0,004110  	0,004375  	-0,000001  	-0,000000  	22,704655  	19,519215  	20,712900  	22,201252  	28,023369  	26,239882  	27,760497  	28,694701  	34,637169  	33,225198  	36,762296  	58,965193  	22,950630  	21,997163  	22,211353  	63,873399  	0,095679  	0,048481  	-3487,752399  	30948,496377  	-0,051192  	-0,050011  	0,322992  	0,163662  	-3,858652  	10365,162956  	14150,483311  	2,052354  	-0,047961  
179,558000  	16,766839  	33,978063  	657,272221  	1256,670793  	70,376082  	64,751585  	0,004619  	0,008833  	0,003961  	0,004120  	0,004359  	-0,000000  	-0,000000  	22,701864  	19,507323  	20,704692  	22,198604  	28,019217  	26,237045  	27,751011  	28,685753  	34,632028  	33,219117  	36,743025  	58,960855  	22,941979  	21,974323  	22,196287  	63,876278  	0,104096  	0,052746  	-3797,663996  	9722,992724  	-0,013766  	-0,050002  	0,310209  	0,157185  	-3,701662  	10396,932240  	14266,511197  	2,069183  	-0,047953  
180,557000  	16,749981  	33,977324  	1256,818530  	57,696365  	70,369602  	64,754757  	0,004605  	0,008802  	0,003960  	0,004101  	0,004336  	0,000000  	-0,000000  	22,707543  	19,523549  	20,718984  	22,206495  	28,017461  	26,245213  	27,764946  	28,695344  	34,628912  	33,220611  	36,755701  	58,970189  	22,935666  	21,972853  	22,190174  	63,877579  	0,088419  	0,044803  	-3228,770833  	-24491,225324  	-0,018198  	-0,049995  	0,292306  	0,148114  	-3,482045  	10330,763387  	13960,511657  	2,024801  	-0,047947  
181,557000  	16,747160  	33,974459  	1256,818530  	1256,670793  	70,364494  	64,747324  	0,004619  	0,008847  	0,003963  	0,004129  	0,004362  	0,000000  	-0,000000  	22,705265  	19,521978  	20,713804  	22,200675  	28,013668  	26,242988  	27,770638  	28,689291  	34,630244  	33,223391  	36,757684  	58,959269  	22,930576  	21,957489  	22,203441  	63,865335  	0,111246  	0,056369  	-4062,318847  	-1,993418  	-0,011068  	-0,049996  	0,313272  	0,158737  	-3,733341  	10427,472690  	14269,660444  	2,069639  	-0,047948  
182,558000  	16,758931  	33,977231  	657,272221  	1256,670793  	70,362002  	64,742224  	0,004611  	0,008832  	0,003963  	0,004076  	0,004357  	0,000000  	-0,000000  	22,711823  	19,509864  	20,700203  	22,191975  	28,022458  	26,230283  	27,749780  	28,694545  	34,640296  	33,217636  	36,749811  	58,964885  	22,930809  	21,946176  	22,195017  	63,873307  	0,068522  	0,034720  	-2500,868171  	9721,768118  	-0,013764  	-0,049995  	0,308641  	0,156390  	-3,679846  	10395,399911  	14097,327401  	2,044644  	-0,047947  
183,557000  	16,770610  	33,977416  	-242,047242  	1256,670793  	70,361690  	64,743468  	0,004611  	0,008799  	0,003963  	0,004084  	0,004389  	0,000001  	-0,000000  	22,699988  	19,519320  	20,709892  	22,196102  	28,025413  	26,238991  	27,753644  	28,688534  	34,632718  	33,224010  	36,759404  	58,960181  	22,939140  	21,935317  	22,199884  	63,870405  	0,075075  	0,038041  	-2738,201591  	35505,018132  	-0,021694  	-0,049994  	0,334730  	0,169610  	-3,989795  	10323,728543  	14092,532918  	2,043949  	-0,047946  
184,560000  	16,777169  	33,973041  	957,045375  	57,696365  	70,366176  	64,743468  	0,004624  	0,008832  	0,003963  	0,004129  	0,004341  	0,000000  	-0,000000  	22,703794  	19,524026  	20,716439  	22,198645  	28,023526  	26,241457  	27,755445  	28,698344  	34,640717  	33,225428  	36,758594  	58,957875  	22,925897  	21,936273  	22,201949  	63,879938  	0,110922  	0,056205  	-4043,100816  	-21305,785649  	-0,021694  	-0,049997  	0,296284  	0,150129  	-3,534367  	10395,414768  	14365,253526  	2,083504  	-0,047949  
185,559000  	16,793875  	33,979665  	957,045375  	-242,047242  	70,368232  	64,742162  	0,004603  	0,008843  	0,003962  	0,004092  	0,004349  	-0,000001  	-0,000000  	22,702965  	19,517688  	20,710729  	22,196179  	28,021524  	26,242483  	27,750515  	28,694504  	34,629256  	33,224837  	36,763093  	58,954183  	22,922920  	21,918352  	22,205991  	63,879427  	0,081180  	0,041134  	-2957,256146  	-34198,499108  	-0,026854  	-0,050008  	0,302793  	0,153428  	-3,614175  	10420,015500  	13914,169701  	2,018080  	-0,047958  
186,561000  	16,798166  	33,986443  	-242,047242  	-242,047242  	70,372780  	64,740981  	0,004619  	0,008819  	0,003960  	0,004066  	0,004352  	-0,000000  	-0,000000  	22,705013  	19,519668  	20,702107  	22,187865  	28,020799  	26,239014  	27,750989  	28,699442  	34,638135  	33,226440  	36,757177  	58,957540  	22,929943  	21,905101  	22,197498  	63,877685  	0,060204  	0,030506  	-2193,467194  	-0,000000  	-0,544446  	-0,050001  	0,304859  	0,154474  	-3,642538  	10367,421124  	14268,622464  	2,069489  	-0,047953  
187,560000  	16,795316  	33,985519  	657,272221  	657,183579  	70,372032  	64,754415  	0,004616  	0,008820  	0,003964  	0,004112  	0,004361  	0,000000  	-0,000000  	22,707130  	19,515422  	20,709511  	22,190791  	28,025890  	26,236286  	27,755250  	28,692780  	34,635405  	33,225464  	36,759448  	58,964895  	22,931772  	21,901630  	22,202186  	63,879593  	0,097069  	0,049185  	-3536,959999  	-1,810547  	-0,018199  	-0,049996  	0,312011  	0,158098  	-3,718602  	10370,603217  	14200,009820  	2,059537  	-0,047948  
188,560000  	16,795254  	33,985026  	1256,818530  	1256,670793  	70,371472  	64,750621  	0,004606  	0,008851  	0,003962  	0,004083  	0,004368  	0,000000  	-0,000000  	22,706710  	19,515075  	20,713772  	22,198451  	28,020481  	26,242650  	27,753617  	28,687926  	34,640342  	33,226746  	36,772309  	58,960489  	22,935852  	21,901125  	22,203161  	63,875554  	0,074215  	0,037605  	-2704,157810  	-1,993530  	-0,011068  	-0,049999  	0,317637  	0,160949  	-3,787841  	10436,236532  	13986,341136  	2,028547  	-0,047951  
189,563000  	16,793201  	33,990325  	57,725912  	956,927186  	70,375085  	64,750901  	0,004624  	0,008821  	0,003962  	0,004126  	0,004326  	-0,000001  	-0,000000  	22,702576  	19,514776  	20,710322  	22,190094  	28,010081  	26,232189  	27,755732  	28,690496  	34,636672  	33,222018  	36,767538  	58,956466  	22,927313  	21,876794  	22,197992  	63,878666  	0,108627  	0,055042  	-3959,723289  	21306,794591  	-0,021699  	-0,050006  	0,284179  	0,143996  	-3,390863  	10372,859970  	14368,325101  	2,083949  	-0,047957  
190,559000  	16,791545  	33,986751  	657,272221  	357,439972  	70,375147  	64,751460  	0,004605  	0,008818  	0,003962  	0,004107  	0,004346  	0,000001  	-0,000000  	22,708072  	19,515893  	20,711384  	22,192430  	28,015937  	26,238054  	27,753196  	28,690116  	34,633770  	33,220431  	36,762009  	58,962826  	22,936686  	21,871521  	22,198603  	63,876838  	0,093172  	0,047211  	-3395,972086  	-7102,396592  	-0,021692  	-0,049991  	0,300382  	0,152206  	-3,583876  	10365,953173  	13956,359734  	2,024199  	-0,047944  
191,557000  	16,792741  	33,984163  	657,272221  	357,439972  	70,375490  	64,755503  	0,004617  	0,008847  	0,003963  	0,004123  	0,004362  	-0,000000  	-0,000000  	22,714716  	19,519468  	20,716797  	22,201269  	28,024232  	26,248344  	27,763859  	28,691196  	34,639882  	33,227375  	36,762365  	58,972176  	22,939135  	21,875277  	22,204338  	63,885507  	0,106154  	0,053789  	-3868,296144  	-7103,998258  	-0,021697  	-0,050004  	0,312931  	0,158564  	-3,731144  	10428,705768  	14219,604354  	2,062379  	-0,047954  
192,594000  	16,793599  	33,985642  	1256,818530  	-242,047242  	70,379914  	64,749906  	0,004619  	0,008816  	0,003962  	0,004132  	0,004382  	0,000000  	-0,000000  	22,707556  	19,517925  	20,708711  	22,201776  	28,019069  	26,241502  	27,763726  	28,697144  	34,637605  	33,231539  	36,765355  	58,971311  	22,927301  	21,877717  	22,207739  	63,879623  	0,113260  	0,057390  	-4127,383345  	-35507,555502  	-0,021693  	-0,049997  	0,328662  	0,166535  	-3,925690  	10362,181778  	14260,495145  	2,068310  	-0,047949  
193,557000  	16,777690  	33,990972  	957,045375  	-242,047242  	70,376393  	64,751989  	0,004603  	0,008851  	0,003963  	0,004058  	0,004401  	0,000000  	-0,000000  	22,703615  	19,514752  	20,699728  	22,199686  	28,017018  	26,240117  	27,757898  	28,694211  	34,631918  	33,227878  	36,764322  	58,966415  	22,917825  	21,873644  	22,199089  	63,875999  	0,053958  	0,027341  	-1968,734369  	-34190,200847  	-0,026848  	-0,049994  	0,344128  	0,174372  	-4,106341  	10437,471733  	13928,637882  	2,020178  	-0,047946  
194,592000  	16,766410  	33,994977  	357,499067  	357,439972  	70,370849  	64,750932  	0,004620  	0,008815  	0,003964  	0,004096  	0,004368  	-0,000000  	-0,000001  	22,700811  	19,511476  	20,700340  	22,194027  	28,016062  	26,241156  	27,750947  	28,687666  	34,631224  	33,218230  	36,762434  	58,962149  	22,920866  	21,864846  	22,192809  	63,871795  	0,084299  	0,042715  	-3078,521136  	-1,685274  	-0,026852  	-0,050001  	0,317578  	0,160919  	-3,786502  	10358,072931  	14277,632419  	2,070796  	-0,047952  
195,558000  	16,766410  	34,001540  	357,499067  	1256,670793  	70,368637  	64,756218  	0,004607  	0,008812  	0,003964  	0,004107  	0,004363  	0,000001  	-0,000000  	22,699261  	19,513353  	20,708151  	22,195759  	28,018457  	26,242228  	27,755985  	28,691292  	34,634537  	33,216969  	36,765544  	58,961779  	22,924646  	21,868638  	22,197127  	63,871776  	0,093057  	0,047153  	-3399,653173  	16228,374096  	-0,015673  	-0,049991  	0,313908  	0,159060  	-3,737759  	10353,350020  	13997,059876  	2,030102  	-0,047944  
196,557000  	16,779407  	33,997103  	957,045375  	1256,670793  	70,366830  	64,753109  	0,004614  	0,008831  	0,003963  	0,004122  	0,004385  	0,000000  	-0,000000  	22,704786  	19,516334  	20,708512  	22,199672  	28,023012  	26,241321  	27,765349  	28,697498  	34,635333  	33,225017  	36,770685  	58,968564  	22,922643  	21,868521  	22,203559  	63,876612  	0,105398  	0,053406  	-3846,608288  	4416,541262  	-0,012270  	-0,049997  	0,330897  	0,167668  	-3,940960  	10393,129717  	14150,737511  	2,052391  	-0,047949  
197,559000  	16,797216  	33,995070  	57,725912  	1256,670793  	70,363341  	64,750683  	0,004621  	0,008796  	0,003963  	0,004161  	0,004339  	-0,000000  	-0,000000  	22,713782  	19,525271  	20,711312  	22,198241  	28,026391  	26,245690  	27,766646  	28,700526  	34,637941  	33,231199  	36,772015  	58,969244  	22,922262  	21,862949  	22,204352  	63,877999  	0,136685  	0,069259  	-4982,704276  	24493,520011  	-0,018203  	-0,050006  	0,294856  	0,149406  	-3,511051  	10317,633187  	14301,096432  	2,074199  	-0,047956  
198,605000  	16,790472  	33,994454  	657,272221  	1256,670793  	70,362718  	64,744463  	0,004604  	0,008845  	0,003962  	0,004086  	0,004345  	0,000001  	-0,000000  	22,712523  	19,531611  	20,717508  	22,196401  	28,021432  	26,250241  	27,764879  	28,692922  	34,637311  	33,230897  	36,762907  	58,964213  	22,920043  	21,860598  	22,199412  	63,878554  	0,076391  	0,038708  	-2785,743008  	9721,215621  	-0,013764  	-0,049992  	0,299459  	0,151738  	-3,569407  	10424,466751  	13942,152814  	2,022138  	-0,047945  
199,557000  	16,779529  	33,992420  	-242,047242  	1256,670793  	70,367889  	64,741478  	0,004623  	0,008843  	0,003965  	0,004084  	0,004352  	0,000000  	-0,000000  	22,706292  	19,525363  	20,714463  	22,199520  	28,013025  	26,242316  	27,763949  	28,684052  	34,633262  	33,229865  	36,758518  	58,968731  	22,918175  	21,851734  	22,194491  	63,879459  	0,074743  	0,037873  	-2727,079454  	35508,427137  	-0,021696  	-0,049999  	0,304870  	0,154480  	-3,639177  	10420,406718  	14344,423300  	2,080483  	-0,047951  
200,557000  	16,762671  	33,998705  	957,045375  	1256,670793  	70,368263  	64,744712  	0,004610  	0,008797  	0,003961  	0,004084  	0,004342  	0,000001  	-0,000000  	22,710907  	19,525318  	20,714680  	22,211649  	28,021705  	26,240576  	27,766629  	28,696330  	34,643497  	33,232715  	36,770738  	58,968976  	22,924491  	21,844880  	22,195335  	63,879488  	0,074506  	0,037753  	-2722,083001  	4415,676066  	-0,012267  	-0,049986  	0,296792  	0,150387  	-3,540960  	10320,864093  	14061,555902  	2,039456  	-0,047940  
201,560000  	16,759728  	34,000492  	-242,047242  	956,927186  	70,365771  	64,750807  	0,004612  	0,008821  	0,003964  	0,004096  	0,004382  	0,000000  	-0,000000  	22,706164  	19,515509  	20,704517  	22,207170  	28,023873  	26,239386  	27,761604  	28,696805  	34,642177  	33,228346  	36,768428  	58,961205  	22,921023  	21,828372  	22,200393  	63,873041  	0,084366  	0,042749  	-3083,159144  	34191,755075  	-0,026852  	-0,049997  	0,328748  	0,166579  	-3,916228  	10372,444699  	14112,628790  	2,046864  	-0,047949  
202,561000  	16,763529  	34,003819  	-242,047242  	-242,047242  	70,368450  	64,750807  	0,004619  	0,008849  	0,003962  	0,004115  	0,004380  	0,000000  	-0,000000  	22,705159  	19,515615  	20,711302  	22,195966  	28,023990  	26,248449  	27,758175  	28,694660  	34,634284  	33,225166  	36,769897  	58,963297  	22,919127  	21,827863  	22,201493  	63,870180  	0,099968  	0,050655  	-3653,240714  	-0,000000  	-0,544376  	-0,049994  	0,327294  	0,165842  	-3,900769  	10431,713829  	14262,105074  	2,068543  	-0,047946  
203,558000  	16,758471  	34,003727  	657,272221  	657,183579  	70,363715  	64,743655  	0,004606  	0,008819  	0,003962  	0,004068  	0,004313  	-0,000000  	-0,000000  	22,704520  	19,527712  	20,725202  	22,213335  	28,024476  	26,251480  	27,763861  	28,699044  	34,643947  	33,225320  	36,767853  	58,964995  	22,923435  	21,839243  	22,203824  	63,872699  	0,061421  	0,031122  	-2245,207888  	-1,810798  	-0,018202  	-0,050004  	0,273969  	0,138822  	-3,266630  	10367,593741  	13983,686165  	2,028162  	-0,047955  
204,558000  	16,754609  	33,999106  	57,725912  	1256,670793  	70,358918  	64,741229  	0,004616  	0,008836  	0,003962  	0,004093  	0,004361  	-0,000001  	-0,000000  	22,707858  	19,522418  	20,717292  	22,207432  	28,017979  	26,246107  	27,762471  	28,694206  	34,638843  	33,229841  	36,761265  	58,961888  	22,920163  	21,826346  	22,192300  	63,869598  	0,081978  	0,041539  	-2996,523481  	24497,119512  	-0,018206  	-0,050014  	0,311918  	0,158051  	-3,717544  	10403,810739  	14204,889035  	2,060245  	-0,047963  
205,562000  	16,749275  	34,003696  	57,725912  	57,696365  	70,356706  	64,746734  	0,004616  	0,008831  	0,003960  	0,004084  	0,004348  	0,000000  	-0,000000  	22,703695  	19,523028  	20,709739  	22,202248  	28,031674  	26,238391  	27,758852  	28,694294  	34,636160  	33,222183  	36,765535  	58,950057  	22,938215  	21,815104  	22,187054  	63,884632  	0,074554  	0,037777  	-2726,749253  	-1,524926  	-0,051176  	-0,049996  	0,301708  	0,152878  	-3,590916  	10393,220977  	14202,749524  	2,059935  	-0,047948  
206,557000  	16,747069  	34,005113  	657,272221  	657,183579  	70,359073  	64,744121  	0,004608  	0,008820  	0,003961  	0,004096  	0,004381  	0,000001  	-0,000001  	22,700497  	19,516798  	20,709166  	22,193314  	28,020285  	26,245617  	27,757270  	28,689404  	34,636655  	33,225206  	36,759101  	58,952526  	22,937557  	21,813798  	22,191761  	63,869596  	0,084330  	0,042731  	-3084,941434  	-1,810440  	-0,018198  	-0,049993  	0,327896  	0,166147  	-3,906064  	10369,337595  	14028,093381  	2,034603  	-0,047945  
207,558000  	16,758011  	34,008903  	-242,047242  	657,183579  	70,360849  	64,744277  	0,004624  	0,008816  	0,003963  	0,004107  	0,004372  	0,000000  	-0,000000  	22,699045  	19,520321  	20,707213  	22,207476  	28,013082  	26,240143  	27,762451  	28,682711  	34,633538  	33,231990  	36,753675  	58,952773  	22,938126  	21,820686  	22,204650  	63,865924  	0,093376  	0,047314  	-3414,423126  	32741,590069  	-0,035223  	-0,049997  	0,321029  	0,162668  	-3,825363  	10362,261012  	14381,741178  	2,085895  	-0,047948  
208,556000  	16,771069  	34,006069  	957,045375  	57,696365  	70,364213  	64,741478  	0,004607  	0,008837  	0,003962  	0,004124  	0,004399  	0,000000  	-0,000000  	22,707822  	19,525785  	20,706081  	22,205014  	28,022778  	26,243805  	27,767654  	28,699461  	34,644270  	33,227796  	36,765216  	58,959390  	22,937171  	21,813068  	22,198145  	63,872529  	0,107128  	0,054283  	-3913,682436  	-21305,573449  	-0,021694  	-0,049997  	0,342356  	0,173474  	-4,083975  	10406,324295  	14004,290435  	2,031151  	-0,047949  
209,560000  	16,772418  	34,003481  	-242,047242  	57,696365  	70,363528  	64,736409  	0,004617  	0,008826  	0,003962  	0,004149  	0,004350  	0,000001  	-0,000000  	22,706401  	19,511844  	20,713455  	22,194111  	28,021823  	26,238010  	27,760027  	28,696898  	34,634407  	33,225243  	36,759923  	58,957548  	22,934813  	21,800762  	22,187461  	63,863743  	0,127375  	0,064542  	-4652,290468  	27690,526635  	-0,093538  	-0,049982  	0,303356  	0,153713  	-3,621563  	10382,099924  	14210,919209  	2,061120  	-0,047936  
210,559000  	16,768188  	33,994423  	357,499067  	1256,670793  	70,358980  	64,740017  	0,004619  	0,008815  	0,003963  	0,004086  	0,004380  	-0,000001  	-0,000000  	22,724373  	19,525639  	20,722600  	22,204353  	28,031348  	26,242433  	27,766211  	28,695605  	34,635535  	33,226153  	36,764126  	58,948535  	22,936630  	21,793476  	22,194163  	63,862277  	0,076561  	0,038794  	-2795,561478  	16235,591234  	-0,015680  	-0,050016  	0,326954  	0,165670  	-3,897631  	10358,427361  	14258,856971  	2,068072  	-0,047965  
211,558000  	16,751728  	33,988692  	1256,818530  	1256,670793  	70,358232  	64,745614  	0,004606  	0,008840  	0,003962  	0,004086  	0,004348  	-0,000000  	-0,000000  	22,709271  	19,525884  	20,724825  	22,200665  	28,026594  	26,241231  	27,767623  	28,709436  	34,640136  	33,231172  	36,766580  	58,957014  	22,934125  	21,808252  	22,204199  	63,870436  	0,076447  	0,038736  	-2793,133488  	-1,993685  	-0,011069  	-0,050004  	0,302218  	0,153136  	-3,598684  	10413,153272  	13988,544197  	2,028867  	-0,047954  
212,560000  	16,743145  	33,985180  	1256,818530  	57,696365  	70,360226  	64,740949  	0,004623  	0,008805  	0,003961  	0,004103  	0,004363  	-0,000001  	-0,000000  	22,719944  	19,530802  	20,715736  	22,207757  	28,027686  	26,240147  	27,767775  	28,697416  	34,639649  	33,231526  	36,766608  	58,955838  	22,951623  	21,793513  	22,196328  	63,866447  	0,090048  	0,045628  	-3291,048630  	-24500,197129  	-0,018205  	-0,050015  	0,313694  	0,158951  	-3,739758  	10337,035605  	14359,647017  	2,082691  	-0,047965  
213,558000  	16,741766  	33,983609  	1256,818530  	956,927186  	70,365958  	64,744743  	0,004609  	0,008827  	0,003962  	0,004096  	0,004361  	-0,000001  	-0,000000  	22,706203  	19,516439  	20,709234  	22,187998  	28,020371  	26,229519  	27,756913  	28,686354  	34,629746  	33,218260  	36,755507  	58,947120  	22,933695  	21,770181  	22,185075  	63,862076  	0,084265  	0,042698  	-3079,668084  	-4421,279424  	-0,012272  	-0,050008  	0,312294  	0,158242  	-3,724355  	10385,229666  	14042,731027  	2,036726  	-0,047958  
214,561000  	16,741091  	33,983301  	1256,818530  	357,439972  	70,369758  	64,736845  	0,004615  	0,008831  	0,003965  	0,004110  	0,004342  	0,000000  	-0,000000  	22,712675  	19,523744  	20,717396  	22,194300  	28,020309  	26,236523  	27,758496  	28,691294  	34,631806  	33,228269  	36,760013  	58,948790  	22,941144  	21,771383  	22,191345  	63,865714  	0,095361  	0,048320  	-3485,264137  	-16232,601388  	-0,015673  	-0,049994  	0,296792  	0,150387  	-3,546849  	10392,874329  	14183,303273  	2,057114  	-0,047947  
215,561000  	16,741183  	33,985057  	1256,818530  	1256,670793  	70,370070  	64,742504  	0,004619  	0,008820  	0,003962  	0,004102  	0,004390  	-0,000000  	-0,000000  	22,709651  	19,528648  	20,717468  	22,205721  	28,026314  	26,240420  	27,767698  	28,696533  	34,634592  	33,224339  	36,772192  	58,951266  	22,949368  	21,772111  	22,199843  	63,865218  	0,089306  	0,045252  	-3264,287152  	-1,993744  	-0,011069  	-0,050005  	0,335168  	0,169832  	-4,001665  	10370,524690  	14267,323222  	2,069300  	-0,047956  
216,559000  	16,738486  	33,983455  	1256,818530  	1256,670793  	70,371690  	64,740141  	0,004605  	0,008853  	0,003962  	0,004124  	0,004336  	0,000001  	-0,000000  	22,699909  	19,521994  	20,706817  	22,198414  	28,024346  	26,235907  	27,766614  	28,693738  	34,635049  	33,223479  	36,763297  	58,947684  	22,950507  	21,773862  	22,191991  	63,858200  	0,106837  	0,054135  	-3905,325313  	-1,992920  	-0,011065  	-0,049982  	0,292301  	0,148111  	-3,492332  	10440,268975  	13961,648493  	2,024966  	-0,047936  
217,573000  	16,743482  	33,984903  	1256,818530  	57,696365  	70,371129  	64,746765  	0,004620  	0,008813  	0,003960  	0,004100  	0,004360  	0,000000  	-0,000000  	22,701959  	19,519896  	20,712024  	22,196788  	28,025332  	26,237545  	27,756250  	28,685124  	34,635106  	33,221933  	36,755419  	58,949423  	22,954192  	21,772387  	22,183090  	63,860519  	0,087298  	0,044235  	-3190,446574  	-24492,064749  	-0,018199  	-0,049997  	0,311380  	0,157778  	-3,715536  	10355,752507  	14287,334361  	2,072203  	-0,047949  
218,558000  	16,755682  	33,985273  	1256,818530  	1256,670793  	70,366581  	64,746454  	0,004614  	0,008841  	0,003961  	0,004116  	0,004342  	-0,000001  	-0,000000  	22,706815  	19,517497  	20,712123  	22,193262  	28,019248  	26,237815  	27,756814  	28,690151  	34,633522  	33,220201  	36,760583  	58,945596  	22,954024  	21,768741  	22,182553  	63,865019  	0,100560  	0,050954  	-3672,575055  	-1,993806  	-0,011070  	-0,050007  	0,297272  	0,150630  	-3,544528  	10414,345319  	14150,130257  	2,052303  	-0,047957  
219,557000  	16,766993  	33,981575  	357,499067  	1256,670793  	70,363154  	64,743997  	0,004610  	0,008822  	0,003963  	0,004110  	0,004362  	-0,000001  	-0,000000  	22,703531  	19,522270  	20,710354  	22,200124  	28,021823  	26,239020  	27,759563  	28,698462  	34,635917  	33,222269  	36,763106  	58,952417  	22,953196  	21,775629  	22,188190  	63,868035  	0,095464  	0,048373  	-3483,451361  	16233,134412  	-0,015678  	-0,050007  	0,312639  	0,158416  	-3,727104  	10373,478278  	14078,368365  	2,041895  	-0,047958  
220,561000  	16,770058  	33,980097  	957,045375  	1256,670793  	70,365272  	64,749906  	0,004622  	0,008850  	0,003962  	0,004102  	0,004367  	0,000001  	-0,000000  	22,710343  	19,519552  	20,712230  	22,205716  	28,027091  	26,238880  	27,762387  	28,700932  	34,641389  	33,220407  	36,757624  	58,955519  	22,955002  	21,780471  	22,189626  	63,865877  	0,089050  	0,045122  	-3248,519789  	4416,133084  	-0,012269  	-0,049992  	0,317005  	0,160629  	-3,776613  	10435,222762  	14328,451107  	2,078166  	-0,047945  
221,557000  	16,771131  	33,987984  	-242,047242  	956,927186  	70,361378  	64,747698  	0,004605  	0,008808  	0,003963  	0,004093  	0,004355  	0,000001  	-0,000000  	22,716819  	19,521345  	20,716563  	22,205428  	28,024910  	26,244202  	27,763863  	28,695515  	34,638874  	33,220167  	36,751958  	58,953166  	22,954845  	21,778121  	22,187768  	63,857217  	0,081794  	0,041445  	-2985,005369  	34189,278656  	-0,026850  	-0,049993  	0,307622  	0,155874  	-3,663723  	10343,637492  	13969,168557  	2,026057  	-0,047946  
222,560000  	16,761690  	33,988477  	357,499067  	-242,047242  	70,356768  	64,739426  	0,004620  	0,008819  	0,003962  	0,004123  	0,004369  	0,000001  	-0,000000  	22,713276  	19,526358  	20,715125  	22,209209  	28,025800  	26,249074  	27,766962  	28,696956  	34,631530  	33,226107  	36,762229  	58,957133  	22,958039  	21,781541  	22,191630  	63,862682  	0,106651  	0,054041  	-3894,407499  	-30938,389582  	-0,051170  	-0,049992  	0,318506  	0,161389  	-3,795826  	10367,014342  	14285,039505  	2,071870  	-0,047944  
223,559000  	16,753506  	33,985704  	1256,818530  	657,183579  	70,356955  	64,744992  	0,004617  	0,008826  	0,003963  	0,004075  	0,004332  	0,000000  	-0,000000  	22,706222  	19,521334  	20,709234  	22,207691  	28,022570  	26,241739  	27,763484  	28,701203  	34,633833  	33,227846  	36,771248  	58,952178  	22,964458  	21,783580  	22,190302  	63,868047  	0,067466  	0,034186  	-2464,342304  	-9725,516828  	-0,013764  	-0,049996  	0,288831  	0,146353  	-3,438870  	10382,111950  	14223,841010  	2,062994  	-0,047948  
224,560000  	16,749643  	33,986567  	57,725912  	1256,670793  	70,359447  	64,747418  	0,004608  	0,008823  	0,003962  	0,004079  	0,004359  	-0,000000  	-0,000000  	22,705058  	19,519073  	20,712342  	22,204930  	28,021866  	26,240265  	27,758276  	28,696160  	34,641582  	33,224966  	36,763973  	58,949723  	22,973763  	21,788676  	22,185554  	63,863911  	0,070418  	0,035682  	-2572,874142  	24492,784686  	-0,018202  	-0,050004  	0,310758  	0,157463  	-3,699984  	10375,464079  	14017,593535  	2,033080  	-0,047955  
225,590000  	16,742195  	33,985118  	957,045375  	1256,670793  	70,360039  	64,737311  	0,004623  	0,008806  	0,003963  	0,004080  	0,004355  	-0,000000  	-0,000000  	22,713111  	19,521141  	20,717165  	22,209997  	28,028948  	26,247934  	27,764608  	28,694163  	34,640446  	33,221824  	36,761174  	58,960522  	22,978165  	21,799190  	22,192179  	63,867832  	0,071325  	0,036141  	-2606,894128  	4417,070729  	-0,012271  	-0,050004  	0,307091  	0,155605  	-3,663289  	10339,392815  	14355,904638  	2,082148  	-0,047955  
226,558000  	16,733612  	33,982038  	-242,047242  	1256,670793  	70,363839  	64,736938  	0,004607  	0,008805  	0,003960  	0,004106  	0,004361  	-0,000001  	-0,000000  	22,711327  	19,516681  	20,713123  	22,204037  	28,020665  	26,245860  	27,765703  	28,695226  	34,636969  	33,218562  	36,757432  	58,953606  	22,960547  	21,790362  	22,196008  	63,860067  	0,092722  	0,046983  	-3390,057986  	35513,401528  	-0,021699  	-0,050007  	0,312562  	0,158377  	-3,731323  	10337,124743  	14007,870410  	2,031670  	-0,047957  
227,557000  	16,737382  	33,979542  	657,272221  	357,439972  	70,369602  	64,738804  	0,004618  	0,008817  	0,003961  	0,004109  	0,004364  	-0,000000  	-0,000000  	22,704625  	19,510898  	20,709248  	22,194256  	28,024322  	26,245963  	27,765493  	28,696693  	34,638235  	33,223107  	36,752985  	58,948904  	22,947631  	21,785658  	22,191130  	63,852479  	0,094539  	0,047904  	-3455,232026  	-7104,097094  	-0,021697  	-0,050004  	0,314517  	0,159368  	-3,757268  	10363,699957  	14237,355942  	2,064954  	-0,047955  
228,560000  	16,754486  	33,982315  	57,725912  	956,927186  	70,367360  	64,731278  	0,004620  	0,008822  	0,003965  	0,004079  	0,004353  	0,000001  	-0,000000  	22,708482  	19,516601  	20,706655  	22,197105  	28,027432  	26,242121  	27,758068  	28,698422  	34,636005  	33,225378  	36,766564  	58,951384  	22,946467  	21,789212  	22,184138  	63,855116  	0,070858  	0,035904  	-2587,572036  	21299,276426  	-0,021691  	-0,049987  	0,305686  	0,154893  	-3,655190  	10373,327592  	14284,234541  	2,071753  	-0,047940  
229,558000  	16,775238  	33,981575  	1256,818530  	57,696365  	70,364836  	64,739364  	0,004604  	0,008807  	0,003962  	0,004097  	0,004348  	0,000000  	-0,000000  	22,709373  	19,522890  	20,721941  	22,210817  	28,026204  	26,247055  	27,762847  	28,700909  	34,645984  	33,229008  	36,770974  	58,953875  	22,941848  	21,796978  	22,199681  	63,865859  	0,085483  	0,043315  	-3117,733654  	-24491,280927  	-0,018198  	-0,049995  	0,302063  	0,153057  	-3,605069  	10342,414318  	13940,790023  	2,021941  	-0,047947  
230,563000  	16,781123  	33,980528  	1256,818530  	657,183579  	70,364026  	64,740234  	0,004622  	0,008829  	0,003962  	0,004121  	0,004371  	0,000000  	-0,000000  	22,714025  	19,516652  	20,713267  	22,201045  	28,022850  	26,237868  	27,762140  	28,695424  	34,641737  	33,224389  	36,765669  	58,954186  	22,923681  	21,785676  	22,187976  	63,861866  	0,104557  	0,052980  	-3811,874863  	-9726,174944  	-0,013765  	-0,050000  	0,319958  	0,162125  	-3,817503  	10389,313045  	14338,280149  	2,079592  	-0,047951  
231,600000  	16,779652  	33,978402  	1256,818530  	-242,047242  	70,359946  	64,734979  	0,004611  	0,008847  	0,003962  	0,004075  	0,004373  	-0,000001  	-0,000000  	22,721950  	19,531719  	20,709374  	22,198517  	28,022295  	26,240294  	27,761332  	28,698896  	34,636988  	33,222985  	36,763475  	58,952942  	22,929140  	21,791113  	22,189748  	63,858177  	0,067229  	0,034066  	-2450,903117  	-35516,812765  	-0,021699  	-0,050011  	0,321518  	0,162916  	-3,836922  	10427,612056  	14085,055221  	2,042865  	-0,047961  
232,557000  	16,776219  	33,981606  	1256,818530  	956,927186  	70,361690  	64,737715  	0,004612  	0,008824  	0,003962  	0,004135  	0,004344  	-0,000002  	-0,000000  	22,712132  	19,522987  	20,710252  	22,201817  	28,035605  	26,241014  	27,766100  	28,697286  	34,640872  	33,223670  	36,759969  	58,957413  	22,940415  	21,794664  	22,189487  	63,866244  	0,115682  	0,058617  	-4218,931460  	-4422,751063  	-0,012276  	-0,050027  	0,298580  	0,151293  	-3,562553  	10378,446672  	14113,793870  	2,047033  	-0,047974  
233,557000  	16,764356  	33,982130  	957,045375  	1256,670793  	70,363092  	64,736223  	0,004620  	0,008810  	0,003961  	0,004124  	0,004354  	-0,000001  	-0,000000  	22,708472  	19,523016  	20,709962  	22,196838  	28,029025  	26,248037  	27,766488  	28,700795  	34,638483  	33,225580  	36,754177  	58,948856  	22,931054  	21,796915  	22,194531  	63,867296  	0,107025  	0,054231  	-3906,030835  	4417,443006  	-0,012272  	-0,050009  	0,306999  	0,155559  	-3,664892  	10348,608009  	14282,638734  	2,071522  	-0,047959  
234,559000  	16,755529  	33,985704  	-242,047242  	1256,670793  	70,361970  	64,732056  	0,004604  	0,008804  	0,003963  	0,004112  	0,004357  	0,000001  	-0,000000  	22,703268  	19,524695  	20,708375  	22,200136  	28,018616  	26,229358  	27,756449  	28,693923  	34,641963  	33,216102  	36,765784  	58,941311  	22,920184  	21,784036  	22,177216  	63,857398  	0,097062  	0,049182  	-3544,946655  	35499,614690  	-0,021691  	-0,049985  	0,308834  	0,156488  	-3,688785  	10335,885297  	13947,999399  	2,022986  	-0,047939  
235,558000  	16,752494  	33,989124  	-242,047242  	1256,670793  	70,361908  	64,741820  	0,004623  	0,008836  	0,003961  	0,004107  	0,004363  	0,000001  	-0,000000  	22,712077  	19,513828  	20,714164  	22,217479  	28,026896  	26,255418  	27,769588  	28,703118  	34,652020  	33,236700  	36,767667  	58,955515  	22,934570  	21,784325  	22,196929  	63,871575  	0,093445  	0,047349  	-3414,126042  	35500,865438  	-0,021692  	-0,049987  	0,313722  	0,158965  	-3,740633  	10404,230254  	14351,519699  	2,081512  	-0,047940  
236,558000  	16,753536  	33,985488  	957,045375  	57,696365  	70,363839  	64,738773  	0,004615  	0,008801  	0,003961  	0,004084  	0,004353  	0,000000  	-0,000000  	22,732769  	19,531684  	20,729779  	22,211320  	28,032030  	26,257243  	27,775386  	28,715751  	34,658878  	33,235438  	36,771459  	58,967224  	22,949059  	21,798386  	22,209431  	63,885629  	0,074602  	0,037801  	-2724,924634  	-21306,130473  	-0,021694  	-0,049998  	0,305812  	0,154957  	-3,649550  	10329,671798  	14167,726501  	2,054855  	-0,047950  
237,593000  	16,774043  	33,989555  	57,725912  	57,696365  	70,363964  	64,729941  	0,004609  	0,008825  	0,003963  	0,004121  	0,004391  	0,000001  	-0,000000  	22,701056  	19,515329  	20,705976  	22,199406  	28,024458  	26,239263  	27,758232  	28,698980  	34,631028  	33,214792  	36,755927  	58,946896  	22,929305  	21,779018  	22,188091  	63,862757  	0,104790  	0,053098  	-3823,959768  	-1,524765  	-0,051171  	-0,049990  	0,336324  	0,170418  	-4,020073  	10380,333431  	14039,038076  	2,036190  	-0,047943  
238,558000  	16,792434  	33,994854  	657,272221  	1256,670793  	70,363341  	64,732180  	0,004622  	0,008796  	0,003963  	0,004096  	0,004346  	-0,000001  	-0,000000  	22,707642  	19,514312  	20,704920  	22,198036  	28,019581  	26,236943  	27,755161  	28,695909  	34,636879  	33,213455  	36,755256  	58,953080  	22,929457  	21,781651  	22,182009  	63,860807  	0,084171  	0,042650  	-3069,171287  	9724,235841  	-0,013768  	-0,050010  	0,300029  	0,152027  	-3,584419  	10318,888196  	14322,894027  	2,077360  	-0,047960  
239,558000  	16,794457  	33,995871  	-242,047242  	1256,670793  	70,362998  	64,733051  	0,004605  	0,008810  	0,003962  	0,004109  	0,004351  	-0,000001  	-0,000000  	22,705519  	19,518553  	20,699943  	22,199087  	28,018363  	26,229768  	27,754843  	28,686168  	34,637561  	33,217489  	36,761839  	58,950183  	22,928916  	21,775807  	22,191707  	63,853262  	0,095020  	0,048147  	-3464,570223  	35517,028959  	-0,021702  	-0,050013  	0,304271  	0,154177  	-3,634316  	10348,298147  	13954,467361  	2,023924  	-0,047962  
240,557000  	16,788204  	33,989771  	-242,047242  	57,696365  	70,360942  	64,739208  	0,004618  	0,008830  	0,003962  	0,004114  	0,004349  	0,000000  	-0,000000  	22,711888  	19,523604  	20,717239  	22,209035  	28,025535  	26,243710  	27,761623  	28,697712  	34,643994  	33,226786  	36,762327  	58,963597  	22,942055  	21,779003  	22,201228  	63,859335  	0,099187  	0,050259  	-3616,526247  	27698,845148  	-0,093566  	-0,049999  	0,302814  	0,153438  	-3,611633  	10392,384068  	14239,389537  	2,065249  	-0,047951  
241,557000  	16,775422  	33,984410  	957,045375  	956,927186  	70,356675  	64,729226  	0,004617  	0,008831  	0,003963  	0,004096  	0,004369  	-0,000000  	-0,000000  	22,701101  	19,517553  	20,703869  	22,194961  	28,017056  	26,236257  	27,756960  	28,692852  	34,628957  	33,219191  	36,759583  	58,956773  	22,925049  	21,762045  	22,185239  	63,854443  	0,084735  	0,042936  	-3090,923143  	-1,917210  	-0,013766  	-0,050004  	0,318439  	0,161356  	-3,801851  	10392,766797  	14218,785267  	2,062260  	-0,047955  
242,558000  	16,763100  	33,984287  	357,499067  	-242,047242  	70,359167  	64,734637  	0,004608  	0,008800  	0,003962  	0,004093  	0,004344  	0,000001  	-0,000000  	22,704954  	19,520137  	20,708956  	22,205813  	28,021337  	26,245295  	27,752458  	28,700109  	34,639081  	33,217848  	36,765370  	58,957566  	22,931134  	21,763861  	22,194102  	63,854750  	0,081887  	0,041493  	-2989,182701  	-30939,273302  	-0,051171  	-0,049993  	0,298809  	0,151409  	-3,565637  	10326,708306  	14022,373895  	2,033773  	-0,047946  
243,557000  	16,765583  	33,983547  	1256,818530  	-242,047242  	70,362874  	64,737404  	0,004622  	0,008822  	0,003963  	0,004084  	0,004385  	-0,000001  	-0,000001  	22,706713  	19,520260  	20,714351  	22,208870  	28,033292  	26,246099  	27,757098  	28,703892  	34,644553  	33,220810  	36,757946  	58,957255  	22,939863  	21,767825  	22,196224  	63,862804  	0,074861  	0,037933  	-2732,182751  	-35517,104005  	-0,021699  	-0,050012  	0,331101  	0,167771  	-3,951633  	10374,702160  	14335,526323  	2,079192  	-0,047962  
244,565000  	16,771223  	33,985642  	1256,818530  	-242,047242  	70,362936  	64,732864  	0,004606  	0,008854  	0,003963  	0,004113  	0,004357  	0,000000  	-0,000001  	22,699595  	19,522838  	20,712144  	22,207998  	28,030806  	26,243427  	27,761351  	28,695964  	34,644642  	33,218848  	36,752610  	58,950565  	22,938081  	21,765004  	22,193330  	63,857202  	0,098065  	0,049690  	-3578,295571  	-35508,124980  	-0,021694  	-0,049998  	0,308888  	0,156516  	-3,689536  	10444,118897  	13988,586564  	2,028873  	-0,047949  
245,560000  	16,770763  	33,981730  	957,045375  	1256,670793  	70,364494  	64,735818  	0,004614  	0,008830  	0,003962  	0,004096  	0,004330  	-0,000000  	-0,000000  	22,706887  	19,528787  	20,716624  	22,218271  	28,025292  	26,249922  	27,764191  	28,700273  	34,650106  	33,227231  	36,761121  	58,961692  	22,941573  	21,782684  	22,201486  	63,863709  	0,084038  	0,042583  	-3065,876207  	4416,833326  	-0,012271  	-0,050001  	0,287919  	0,145891  	-3,438225  	10390,476086  	14163,200340  	2,054199  	-0,047952  
246,560000  	16,778181  	33,980312  	357,499067  	657,183579  	70,362251  	64,739550  	0,004620  	0,008808  	0,003961  	0,004120  	0,004352  	-0,000001  	-0,000000  	22,702510  	19,523267  	20,705288  	22,216403  	28,019956  	26,245983  	27,758620  	28,701414  	34,646778  	33,225180  	36,755653  	58,954800  	22,936311  	21,781451  	22,198570  	63,856705  	0,104256  	0,052828  	-3801,514215  	7101,934001  	-0,021701  	-0,050014  	0,304879  	0,154484  	-3,636882  	10344,118555  	14294,077705  	2,073181  	-0,047963  
247,556000  	16,786825  	33,986320  	1256,818530  	657,183579  	70,361659  	64,740856  	0,004605  	0,008822  	0,003961  	0,004122  	0,004378  	-0,000000  	-0,000000  	22,698639  	19,517439  	20,701970  	22,206939  	28,023211  	26,237489  	27,758393  	28,698644  	34,637798  	33,214558  	36,747535  	58,943593  	22,930482  	21,771323  	22,194162  	63,848765  	0,105683  	0,053550  	-3852,922387  	-9727,204140  	-0,013767  	-0,050006  	0,325296  	0,164830  	-3,879135  	10373,439368  	13964,960146  	2,025446  	-0,047956  
248,603000  	16,787009  	33,991619  	1256,818530  	1256,670793  	70,363777  	64,735321  	0,004621  	0,008819  	0,003961  	0,004075  	0,004379  	0,000001  	-0,000000  	22,709452  	19,524610  	20,715968  	22,211373  	28,031706  	26,240858  	27,768604  	28,701507  	34,640316  	33,218728  	36,752994  	58,949291  	22,938785  	21,776193  	22,200029  	63,860799  	0,067151  	0,034026  	-2448,887870  	-1,992918  	-0,011065  	-0,049982  	0,326562  	0,165471  	-3,899530  	10367,399193  	14308,362297  	2,075252  	-0,047936  
249,557000  	16,790871  	33,993344  	1256,818530  	1256,670793  	70,360662  	64,733828  	0,004609  	0,008863  	0,003961  	0,004099  	0,004362  	0,000001  	-0,000000  	22,709305  	19,526817  	20,718170  	22,211417  	28,030186  	26,241172  	27,767169  	28,698297  	34,637462  	33,221198  	36,751741  	58,953303  	22,935685  	21,777114  	22,195299  	63,864884  	0,087229  	0,044200  	-3180,705237  	-1,993326  	-0,011067  	-0,049993  	0,312659  	0,158427  	-3,732433  	10462,513204  	14044,355079  	2,036961  	-0,047946  
250,560000  	16,789154  	33,992050  	1256,818530  	1256,670793  	70,357298  	64,738866  	0,004615  	0,008789  	0,003962  	0,004087  	0,004342  	0,000001  	-0,000000  	22,708800  	19,524216  	20,716015  	22,203605  	28,027126  	26,241369  	27,760759  	28,700681  	34,634603  	33,219672  	36,752135  	58,955811  	22,928357  	21,770982  	22,189927  	63,860933  	0,077225  	0,039131  	-2815,997262  	-1,993253  	-0,011067  	-0,049991  	0,296866  	0,150424  	-3,538610  	10302,019143  	14170,452083  	2,055250  	-0,047944  
251,558000  	16,781890  	33,988816  	1256,818530  	357,439972  	70,357080  	64,745521  	0,004619  	0,008826  	0,003961  	0,004124  	0,004357  	-0,000000  	-0,000000  	22,717971  	19,526320  	20,718353  	22,207105  	28,027985  	26,252335  	27,762819  	28,710532  	34,645085  	33,225636  	36,761701  	58,959299  	22,936744  	21,763943  	22,196127  	63,862047  	0,106803  	0,054118  	-3895,461897  	-16235,499746  	-0,015676  	-0,050004  	0,309199  	0,156673  	-3,681115  	10383,212029  	14273,579351  	2,070208  	-0,047955  
252,560000  	16,775085  	33,989678  	1256,818530  	956,927186  	70,363185  	64,743779  	0,004605  	0,008824  	0,003964  	0,004090  	0,004380  	0,000000  	-0,000000  	22,708503  	19,524169  	20,714801  	22,211327  	28,024089  	26,253072  	27,759801  	28,702225  	34,644211  	33,223370  	36,758007  	58,955950  	22,934407  	21,757754  	22,190903  	63,856337  	0,079661  	0,040365  	-2906,794934  	-4420,264233  	-0,012269  	-0,049995  	0,327363  	0,165877  	-3,902808  	10379,473884  	13959,254782  	2,024619  	-0,047947  
253,592000  	16,768832  	33,992389  	57,725912  	-242,047242  	70,364213  	64,733424  	0,004618  	0,008841  	0,003963  	0,004102  	0,004348  	0,000001  	-0,000000  	22,698421  	19,531710  	20,719602  	22,217259  	28,023558  	26,249612  	27,762115  	28,702641  	34,650349  	33,227263  	36,761882  	58,953054  	22,932389  	21,759630  	22,189086  	63,857724  	0,089178  	0,045187  	-3255,766541  	-27690,999276  	-0,093530  	-0,049982  	0,302065  	0,153058  	-3,608496  	10414,315606  	14252,403132  	2,067136  	-0,047936  
254,558000  	16,765092  	33,989062  	657,272221  	357,439972  	70,361908  	64,744557  	0,004615  	0,008817  	0,003963  	0,004133  	0,004360  	0,000001  	-0,000000  	22,701451  	19,529075  	20,725908  	22,216120  	28,023364  	26,248927  	27,764192  	28,710501  	34,643518  	33,225752  	36,763039  	58,955487  	22,928569  	21,758860  	22,194644  	63,859991  	0,114185  	0,057858  	-4168,834845  	-7102,476701  	-0,021692  	-0,049992  	0,311237  	0,157706  	-3,709203  	10362,611198  	14170,155517  	2,055207  	-0,047944  
255,556000  	16,762333  	33,988323  	-242,047242  	1256,670793  	70,362811  	64,738120  	0,004609  	0,008816  	0,003962  	0,004095  	0,004322  	0,000001  	-0,000000  	22,708175  	19,526927  	20,717730  	22,211144  	28,033797  	26,256966  	27,768189  	28,710060  	34,641598  	33,230567  	36,764909  	58,958280  	22,933348  	21,756916  	22,198666  	63,853624  	0,083614  	0,042368  	-3053,052889  	35504,243240  	-0,021694  	-0,049993  	0,281301  	0,142537  	-3,356816  	10361,211869  	14050,801857  	2,037897  	-0,047945  
256,560000  	16,767176  	33,992759  	957,045375  	1256,670793  	70,361503  	64,729537  	0,004625  	0,008807  	0,003964  	0,004116  	0,004350  	-0,000000  	-0,000000  	22,702337  	19,522148  	20,704327  	22,202235  	28,019010  	26,243184  	27,756451  	28,700726  	34,638972  	33,213253  	36,752312  	58,943652  	22,917185  	21,740662  	22,186748  	63,851754  	0,100722  	0,051037  	-3677,653151  	4417,180698  	-0,012272  	-0,050005  	0,303788  	0,153932  	-3,629838  	10342,358429  	14382,856831  	2,086057  	-0,047956  
257,558000  	16,782380  	33,989771  	-242,047242  	956,927186  	70,357827  	64,734761  	0,004604  	0,008855  	0,003962  	0,004099  	0,004363  	0,000000  	-0,000000  	22,687941  	19,510076  	20,705701  	22,197503  	28,019465  	26,231876  	27,758051  	28,690782  	34,630235  	33,217276  	36,747632  	58,939881  	22,900437  	21,723509  	22,178425  	63,858776  	0,086503  	0,043832  	-3155,142992  	34192,388577  	-0,026852  	-0,049999  	0,313821  	0,159015  	-3,743799  	10444,462716  	13930,297239  	2,020419  	-0,047950  
258,561000  	16,787285  	33,992297  	357,499067  	357,439972  	70,355273  	64,737249  	0,004621  	0,008826  	0,003962  	0,004101  	0,004332  	0,000000  	-0,000000  	22,710092  	19,523574  	20,715321  	22,209886  	28,029132  	26,249237  	27,764622  	28,704451  	34,649918  	33,220231  	36,762620  	58,956700  	22,916138  	21,730120  	22,191546  	63,863730  	0,088796  	0,044994  	-3238,321881  	-1,685143  	-0,026850  	-0,049997  	0,289059  	0,146469  	-3,445308  	10383,875614  	14296,888020  	2,073588  	-0,047949  
259,595000  	16,782411  	33,995162  	1256,818530  	1256,670793  	70,352781  	64,742909  	0,004618  	0,008779  	0,003963  	0,004102  	0,004370  	0,000001  	-0,000000  	22,707544  	19,533404  	20,717804  	22,202431  	28,027881  	26,246080  	27,772576  	28,698503  	34,648336  	33,230265  	36,761446  	58,956317  	22,918516  	21,709784  	22,190115  	63,850428  	0,088982  	0,045088  	-3246,565531  	-1,993052  	-0,011066  	-0,049986  	0,319006  	0,161642  	-3,796722  	10280,588477  	14250,411904  	2,066848  	-0,047939  
260,677000  	16,762855  	33,996271  	1256,818530  	1256,670793  	70,353528  	64,734139  	0,004606  	0,008855  	0,003962  	0,004107  	0,004356  	-0,000000  	-0,000000  	22,702718  	19,529011  	20,720370  	22,211653  	28,022481  	26,241712  	27,765564  	28,702154  	34,629804  	33,222695  	36,754942  	58,943663  	22,910819  	21,703411  	22,187962  	63,854366  	0,093137  	0,047193  	-3402,237825  	-1,993689  	-0,011069  	-0,050004  	0,308252  	0,156194  	-3,674962  	10446,294294  	13990,196493  	2,029106  	-0,047955  
261,560000  	16,743145  	33,994361  	-242,047242  	956,927186  	70,354338  	64,729039  	0,004624  	0,008812  	0,003960  	0,004113  	0,004377  	-0,000000  	-0,000000  	22,708406  	19,524052  	20,709801  	22,211504  	28,023483  	26,242082  	27,763173  	28,702925  	34,640857  	33,217054  	36,758864  	58,946176  	22,892144  	21,699522  	22,175288  	63,849030  	0,097934  	0,049624  	-3581,174879  	34194,043696  	-0,026854  	-0,050001  	0,324613  	0,164484  	-3,874077  	10352,827925  	14370,627018  	2,084283  	-0,047952  
262,560000  	16,734992  	33,993129  	357,499067  	357,439972  	70,355584  	64,733704  	0,004607  	0,008808  	0,003962  	0,004094  	0,004355  	0,000000  	-0,000000  	22,712200  	19,522517  	20,711191  	22,197353  	28,019123  	26,236796  	27,753919  	28,689741  	34,641571  	33,208101  	36,752100  	58,944476  	22,878414  	21,669343  	22,185525  	63,853142  	0,083160  	0,042138  	-3042,149488  	-1,685140  	-0,026850  	-0,049997  	0,307737  	0,155933  	-3,670447  	10344,995081  	14004,784712  	2,031222  	-0,047948  
263,558000  	16,728922  	33,993036  	1256,818530  	357,439972  	70,360413  	64,738928  	0,004615  	0,008832  	0,003963  	0,004116  	0,004359  	0,000000  	-0,000000  	22,718708  	19,530739  	20,719737  	22,205879  	28,038799  	26,251172  	27,772130  	28,703328  	34,645143  	33,226857  	36,765659  	58,949766  	22,895691  	21,669565  	22,191047  	63,858252  	0,100870  	0,051112  	-3691,309521  	-16233,265942  	-0,015674  	-0,049997  	0,310651  	0,157409  	-3,704944  	10396,126459  	14180,146964  	2,056656  	-0,047949  
264,557000  	16,723466  	33,994577  	57,725912  	-242,047242  	70,358918  	64,737560  	0,004619  	0,008830  	0,003962  	0,004106  	0,004360  	-0,000000  	-0,000000  	22,702733  	19,531000  	20,713682  	22,204770  	28,023455  	26,247524  	27,772481  	28,698419  	34,641159  	33,232681  	36,758955  	58,951736  	22,872962  	21,652105  	22,189578  	63,850912  	0,092552  	0,046897  	-3388,285554  	-27699,979219  	-0,093560  	-0,050000  	0,311194  	0,157684  	-3,711328  	10390,894894  	14273,148624  	2,070145  	-0,047952  
265,586000  	16,712186  	33,994546  	57,725912  	1256,670793  	70,356270  	64,731278  	0,004607  	0,008804  	0,003963  	0,004101  	0,004388  	0,000000  	-0,000000  	22,712974  	19,525166  	20,715897  	22,207843  	28,030817  	26,243438  	27,768318  	28,697998  	34,649626  	33,228856  	36,760425  	58,950112  	22,856898  	21,651515  	22,187434  	63,854428  	0,088678  	0,044934  	-3248,584082  	24490,541051  	-0,018201  	-0,049999  	0,333462  	0,168967  	-3,979466  	10335,503984  	14014,126538  	2,032577  	-0,047950  
266,593000  	16,711696  	33,993314  	657,272221  	1256,670793  	70,355086  	64,733517  	0,004620  	0,008838  	0,003965  	0,004101  	0,004350  	0,000001  	-0,000000  	22,712555  	19,530901  	20,714875  	22,210929  	28,037309  	26,247738  	27,765508  	28,710628  	34,650666  	33,228798  	36,757206  	58,961386  	22,858665  	21,655134  	22,191644  	63,850224  	0,088143  	0,044663  	-3228,843994  	9721,160087  	-0,013764  	-0,049992  	0,303696  	0,153885  	-3,622048  	10408,830776  	14292,510142  	2,072953  	-0,047944  
267,557000  	16,720156  	33,992112  	657,272221  	1256,670793  	70,354650  	64,735601  	0,004609  	0,008803  	0,003962  	0,004111  	0,004319  	0,000000  	-0,000000  	22,712989  	19,537094  	20,715439  	22,209698  	28,025973  	26,248180  	27,769971  	28,709836  	34,646413  	33,233081  	36,758595  	58,948139  	22,855385  	21,642301  	22,194606  	63,851912  	0,096201  	0,048746  	-3522,040780  	9721,941841  	-0,013765  	-0,049996  	0,278966  	0,141354  	-3,325605  	10333,073199  	14042,752211  	2,036729  	-0,047948  
268,557000  	16,729965  	33,987614  	1256,818530  	57,696365  	70,354961  	64,728013  	0,004613  	0,008829  	0,003962  	0,004140  	0,004345  	0,000001  	-0,000000  	22,710794  	19,533279  	20,711818  	22,208357  	28,013986  	26,241900  	27,762541  	28,701718  	34,640754  	33,231974  	36,756681  	58,940596  	22,838859  	21,629145  	22,192999  	63,850892  	0,119768  	0,060687  	-4381,221864  	-24486,299979  	-0,018195  	-0,049984  	0,299136  	0,151575  	-3,571075  	10388,553248  	14142,137099  	2,051144  	-0,047937  
269,560000  	16,736923  	33,983301  	957,045375  	1256,670793  	70,360911  	64,734792  	0,004620  	0,008796  	0,003963  	0,004090  	0,004346  	-0,000000  	-0,000000  	22,707584  	19,532017  	20,719699  	22,207395  	28,021300  	26,246277  	27,759181  	28,701037  	34,640571  	33,226957  	36,761153  	58,945519  	22,834922  	21,629552  	22,188763  	63,853555  	0,079289  	0,040177  	-2898,585832  	4417,113423  	-0,012271  	-0,050004  	0,300091  	0,152058  	-3,581946  	10317,482501  	14289,678644  	2,072543  	-0,047955  
270,557000  	16,737045  	33,982315  	357,499067  	1256,670793  	70,361721  	64,736036  	0,004603  	0,008814  	0,003962  	0,004066  	0,004349  	0,000000  	-0,000000  	22,705498  	19,525995  	20,721401  	22,212202  	28,025861  	26,247515  	27,761153  	28,698093  	34,640350  	33,223366  	36,760610  	58,937009  	22,836073  	21,628632  	22,184735  	63,851516  	0,060021  	0,030413  	-2194,053024  	16229,813483  	-0,015674  	-0,049996  	0,302584  	0,153322  	-3,611429  	10357,420665  	13929,548763  	2,020310  	-0,047948  
271,560000  	16,729045  	33,981298  	357,499067  	1256,670793  	70,362593  	64,736440  	0,004619  	0,008831  	0,003962  	0,004152  	0,004380  	0,000001  	-0,000000  	22,705544  	19,522758  	20,718854  	22,204774  	28,015271  	26,239598  	27,762027  	28,692419  	34,639508  	33,222248  	36,756763  	58,936159  	22,828404  	21,631088  	22,183056  	63,850103  	0,130100  	0,065922  	-4757,677079  	16227,933128  	-0,015673  	-0,049989  	0,326887  	0,165636  	-3,901816  	10392,587813  	14269,879338  	2,069671  	-0,047942  
272,560000  	16,720892  	33,981730  	-242,047242  	1256,670793  	70,368761  	64,737933  	0,004614  	0,008803  	0,003962  	0,004062  	0,004346  	0,000001  	-0,000000  	22,708639  	19,526455  	20,718839  	22,210346  	28,020850  	26,243254  	27,766230  	28,700403  	34,645070  	33,224705  	36,763395  	58,943190  	22,824861  	21,643569  	22,191110  	63,855776  	0,057010  	0,028888  	-2085,884025  	35500,852437  	-0,021692  	-0,049987  	0,300460  	0,152245  	-3,589352  	10332,544029  	14147,079864  	2,051860  	-0,047940  
273,560000  	16,720953  	33,983332  	1256,818530  	1256,670793  	70,370412  	64,740328  	0,004608  	0,008813  	0,003961  	0,004135  	0,004363  	-0,000000  	-0,000000  	22,708943  	19,527252  	20,719178  	22,214894  	28,025116  	26,244682  	27,768208  	28,702111  	34,640157  	33,221553  	36,767265  	58,948464  	22,823458  	21,649179  	22,196338  	63,850515  	0,116142  	0,058850  	-4249,748560  	-1,993594  	-0,011069  	-0,050001  	0,313903  	0,159057  	-3,749449  	10354,816556  	14029,660944  	2,034830  	-0,047952  
274,556000  	16,723099  	33,974890  	1256,818530  	657,183579  	70,370724  	64,737778  	0,004621  	0,008824  	0,003962  	0,004100  	0,004355  	-0,000000  	-0,000000  	22,706564  	19,525311  	20,713855  	22,205915  	28,024023  	26,244301  	27,760870  	28,693185  	34,632050  	33,219367  	36,760142  	58,949752  	22,820901  	21,651727  	22,190893  	63,841257  	0,088032  	0,044606  	-3219,196773  	-9726,572377  	-0,013766  	-0,050002  	0,307498  	0,155812  	-3,674815  	10379,011214  	14311,003146  	2,075636  	-0,047953  
275,559000  	16,720892  	33,967126  	357,499067  	657,183579  	70,368574  	64,734233  	0,004605  	0,008822  	0,003963  	0,004072  	0,004389  	0,000001  	-0,000000  	22,708845  	19,525549  	20,716001  	22,205579  	28,031022  	26,248012  	27,764686  	28,695564  	34,639042  	33,224684  	36,762692  	58,951391  	22,821857  	21,659653  	22,190944  	63,849788  	0,064733  	0,032801  	-2366,427713  	7099,035841  	-0,021692  	-0,049991  	0,334226  	0,169355  	-3,995214  	10373,585810  	13957,969663  	2,024432  	-0,047944  
276,558000  	16,711144  	33,968667  	957,045375  	1256,670793  	70,364151  	64,734170  	0,004618  	0,008840  	0,003962  	0,004159  	0,004359  	0,000000  	-0,000000  	22,710490  	19,530314  	20,719717  	22,206608  	28,028733  	26,242593  	27,770815  	28,703850  	34,648269  	33,225116  	36,769265  	58,951340  	22,821194  	21,665282  	22,195590  	63,857859  	0,135627  	0,068723  	-4961,326856  	4416,526060  	-0,012270  	-0,049997  	0,310571  	0,157368  	-3,709576  	10413,915899  	14242,743557  	2,065735  	-0,047949  
277,594000  	16,715497  	33,971378  	1256,818530  	-242,047242  	70,359665  	64,738897  	0,004617  	0,008806  	0,003961  	0,004114  	0,004391  	0,000001  	-0,000000  	22,714120  	19,535177  	20,713970  	22,203560  	28,028599  	26,242672  	27,762363  	28,705592  	34,653923  	33,222896  	36,765404  	58,950638  	22,825824  	21,673554  	22,195200  	63,856325  	0,099314  	0,050323  	-3632,647049  	-35498,852115  	-0,021688  	-0,049983  	0,335623  	0,170062  	-4,002250  	10339,299432  	14227,872894  	2,063578  	-0,047937  
278,692000  	16,730578  	33,974151  	1256,818530  	357,439972  	70,359852  	64,732491  	0,004607  	0,008818  	0,003962  	0,004111  	0,004353  	0,000000  	-0,000000  	22,719981  	19,532007  	20,718083  	22,209517  	28,037248  	26,251022  	27,767830  	28,703276  	34,655642  	33,227767  	36,765466  	58,956375  	22,841861  	21,683759  	22,196743  	63,860474  	0,096680  	0,048988  	-3533,748077  	-16234,055322  	-0,015675  	-0,049999  	0,305846  	0,154974  	-3,651442  	10364,947892  	14000,879927  	2,030656  	-0,047951  
279,557000  	16,748509  	33,977478  	357,499067  	1256,670793  	70,360444  	64,730532  	0,004622  	0,008839  	0,003963  	0,004092  	0,004341  	-0,000000  	-0,000000  	22,704507  	19,527532  	20,714137  	22,205678  	28,022315  	26,242030  	27,770041  	28,695304  	34,640684  	33,229002  	36,759868  	58,948620  	22,841912  	21,682375  	22,191466  	63,853979  	0,081278  	0,041184  	-2968,289915  	16232,018323  	-0,015677  	-0,050003  	0,296597  	0,150288  	-3,542623  	10411,119365  	14330,385847  	2,078447  	-0,047954  
280,558000  	16,762793  	33,977786  	957,045375  	1256,670793  	70,363559  	64,743033  	0,004608  	0,008806  	0,003963  	0,004083  	0,004341  	0,000001  	-0,000000  	22,702628  	19,519417  	20,714476  	22,198469  	28,019671  	26,238221  	27,763919  	28,691778  	34,634162  	33,223240  	36,758473  	58,947516  	22,835008  	21,683292  	22,187277  	63,853522  	0,073569  	0,037278  	-2684,556942  	4415,738166  	-0,012268  	-0,049987  	0,296209  	0,150091  	-3,532101  	10339,694187  	14025,819709  	2,034273  	-0,047940  
281,607000  	16,770487  	33,975599  	57,725912  	57,696365  	70,362874  	64,732336  	0,004614  	0,008841  	0,003963  	0,004108  	0,004327  	-0,000001  	-0,000000  	22,708387  	19,521252  	20,713550  	22,207386  	28,027299  	26,243399  	27,756712  	28,699980  	34,644329  	33,221400  	36,761142  	58,956817  	22,857661  	21,700768  	22,192952  	63,855347  	0,094288  	0,047776  	-3438,620408  	-1,525212  	-0,051186  	-0,050007  	0,285053  	0,144439  	-3,405127  	10414,284479  	14163,101485  	2,054184  	-0,047957  
282,557000  	16,756509  	33,971039  	657,272221  	657,183579  	70,364244  	64,732958  	0,004623  	0,008822  	0,003962  	0,004107  	0,004328  	0,000000  	-0,000000  	22,708964  	19,524983  	20,717607  	22,209810  	28,027759  	26,241616  	27,758060  	28,693637  	34,641057  	33,226766  	36,758100  	58,956517  	22,861050  	21,709602  	22,188018  	63,850709  	0,093292  	0,047272  	-3404,163151  	-1,810646  	-0,018200  	-0,049999  	0,286393  	0,145117  	-3,421584  	10373,281608  	14347,664342  	2,080953  	-0,047951  
283,560000  	16,733244  	33,968728  	-242,047242  	657,183579  	70,363839  	64,738648  	0,004604  	0,008848  	0,003963  	0,004110  	0,004375  	0,000000  	-0,000000  	22,715878  	19,537924  	20,724180  	22,209909  	28,025926  	26,251383  	27,769111  	28,706341  	34,645351  	33,228182  	36,773828  	58,960655  	22,868636  	21,735129  	22,202157  	63,870089  	0,095920  	0,048603  	-3504,339180  	32742,086414  	-0,035223  	-0,049997  	0,323354  	0,163846  	-3,858984  	10430,751702  	13949,291580  	2,023174  	-0,047949  
284,559000  	16,719083  	33,966818  	-242,047242  	1256,670793  	70,359104  	64,730812  	0,004619  	0,008835  	0,003963  	0,004085  	0,004339  	0,000001  	-0,000000  	22,709851  	19,526095  	20,710755  	22,210598  	28,031358  	26,243458  	27,763755  	28,711475  	34,649378  	33,223938  	36,767889  	58,954018  	22,866317  	21,746724  	22,197543  	63,860452  	0,075281  	0,038145  	-2752,276465  	35499,518478  	-0,021691  	-0,049985  	0,294559  	0,149255  	-3,517271  	10401,293645  	14259,711364  	2,068196  	-0,047939  
285,560000  	16,715190  	33,965093  	57,725912  	1256,670793  	70,354899  	64,743717  	0,004612  	0,008826  	0,003962  	0,004114  	0,004320  	0,000001  	-0,000000  	22,706581  	19,524493  	20,711426  	22,197624  	28,023735  	26,237222  	27,758430  	28,696170  	34,644572  	33,221671  	36,760650  	58,940515  	22,869244  	21,741243  	22,194700  	63,859310  	0,098724  	0,050024  	-3609,812908  	24486,979213  	-0,018198  	-0,049991  	0,280053  	0,141905  	-3,333897  	10382,459307  	14122,577871  	2,048307  	-0,047943  
286,565000  	16,715619  	33,967373  	657,272221  	1256,670793  	70,356519  	64,735881  	0,004613  	0,008822  	0,003961  	0,004070  	0,004367  	0,000000  	-0,000000  	22,697160  	19,519497  	20,709847  	22,190276  	28,006048  	26,237785  	27,745078  	28,686880  	34,627874  	33,215497  	36,744280  	58,934964  	22,864198  	21,738634  	22,178773  	63,838063  	0,063694  	0,032274  	-2329,208554  	9721,953945  	-0,013765  	-0,049996  	0,316567  	0,160407  	-3,774926  	10375,274484  	14137,194334  	2,050427  	-0,047948  
287,558000  	16,717091  	33,965432  	-242,047242  	1256,670793  	70,358357  	64,740763  	0,004621  	0,008824  	0,003963  	0,004134  	0,004349  	-0,000000  	-0,000000  	22,697772  	19,519415  	20,714560  	22,207701  	28,009580  	26,237473  	27,769613  	28,696386  	34,638698  	33,221300  	36,759793  	58,947090  	22,872517  	21,771946  	22,196810  	63,853528  	0,115087  	0,058315  	-4207,721970  	35509,508865  	-0,021697  	-0,050001  	0,302765  	0,153413  	-3,608395  	10378,376635  	14311,652766  	2,075730  	-0,047952  
288,557000  	16,712248  	33,967773  	957,045375  	57,696365  	70,358045  	64,737031  	0,004605  	0,008810  	0,003963  	0,004122  	0,004375  	-0,000000  	-0,000000  	22,700170  	19,523823  	20,699701  	22,195969  	28,011380  	26,238757  	27,756098  	28,695537  	34,644217  	33,221992  	36,762728  	58,956878  	22,885696  	21,783805  	22,198676  	63,860931  	0,105823  	0,053621  	-3870,644311  	-21307,082249  	-0,021695  	-0,050001  	0,323620  	0,163980  	-3,859284  	10347,572308  	13957,877869  	2,024419  	-0,047952  
289,574000  	16,705259  	33,977324  	57,725912  	956,927186  	70,360942  	64,733175  	0,004620  	0,008854  	0,003961  	0,004109  	0,004343  	0,000000  	-0,000000  	22,704628  	19,512597  	20,698211  	22,187590  	28,015244  	26,229802  	27,752042  	28,686601  	34,637488  	33,208105  	36,750752  	58,947650  	22,889723  	21,791398  	22,172874  	63,845435  	0,094927  	0,048100  	-3475,437624  	21303,404474  	-0,021695  	-0,049998  	0,298181  	0,151091  	-3,560190  	10442,318447  	14286,734168  	2,072116  	-0,047949  
290,556000  	16,725122  	33,978741  	1256,818530  	357,439972  	70,362749  	64,734046  	0,004613  	0,008827  	0,003962  	0,004106  	0,004386  	0,000000  	-0,000000  	22,703169  	19,518736  	20,717236  	22,197841  	28,015320  	26,237728  	27,761650  	28,692855  	34,639045  	33,225575  	36,758010  	58,953608  	22,912068  	21,810212  	22,187187  	63,867018  	0,092785  	0,047015  	-3393,365196  	-16232,526492  	-0,015673  	-0,049994  	0,331980  	0,168217  	-3,964397  	10385,129208  	14129,250604  	2,049275  	-0,047946  
291,657000  	16,755007  	33,973011  	1256,818530  	1256,670793  	70,359104  	64,736254  	0,004606  	0,008831  	0,003963  	0,004104  	0,004339  	0,000000  	-0,000000  	22,708588  	19,519164  	20,706178  	22,202779  	28,011566  	26,234117  	27,755698  	28,692027  	34,634683  	33,222306  	36,749418  	58,945717  	22,909882  	21,817211  	22,190660  	63,860971  	0,090665  	0,045941  	-3309,001678  	-1,993343  	-0,011067  	-0,049994  	0,294363  	0,149156  	-3,511540  	10394,122971  	13990,662525  	2,029174  	-0,047946  
292,558000  	16,765123  	33,969252  	1256,818530  	57,696365  	70,355366  	64,739799  	0,004624  	0,008817  	0,003963  	0,004088  	0,004391  	0,000001  	-0,000000  	22,706051  	19,515248  	20,695359  	22,182466  	28,011160  	26,223700  	27,744265  	28,680220  	34,631720  	33,211612  	36,750662  	58,939899  	22,905003  	21,831944  	22,182004  	63,847022  	0,078263  	0,039656  	-2854,049684  	-24486,224646  	-0,018195  	-0,049984  	0,336309  	0,170410  	-4,006727  	10362,423017  	14379,757011  	2,085607  	-0,047937  
293,558000  	16,767636  	33,969406  	57,725912  	57,696365  	70,353809  	64,735787  	0,004607  	0,008831  	0,003962  	0,004132  	0,004345  	0,000001  	-0,000000  	22,695979  	19,519546  	20,699440  	22,184053  	28,011386  	26,226369  	27,738574  	28,680125  	34,627528  	33,203799  	36,748591  	58,941696  	22,904838  	21,846591  	22,182524  	63,850206  	0,113626  	0,057575  	-4143,088219  	-1,524823  	-0,051173  	-0,049992  	0,299207  	0,151610  	-3,566252  	10394,341572  	13995,894795  	2,029933  	-0,047945  
294,558000  	16,770088  	33,966756  	657,272221  	657,183579  	70,356363  	64,736845  	0,004619  	0,008808  	0,003963  	0,004108  	0,004356  	0,000001  	-0,000000  	22,697063  	19,518519  	20,709919  	22,195074  	28,010811  	26,238564  	27,752132  	28,688652  	34,631675  	33,221079  	36,752770  	58,948397  	22,919886  	21,862098  	22,185372  	63,860391  	0,094342  	0,047804  	-3438,927986  	-1,810352  	-0,018197  	-0,049990  	0,307875  	0,156002  	-3,670541  	10343,079317  	14261,271865  	2,068423  	-0,047943  
295,558000  	16,761720  	33,967034  	657,272221  	-242,047242  	70,355148  	64,737311  	0,004617  	0,008831  	0,003963  	0,004107  	0,004365  	-0,000000  	-0,000000  	22,697330  	19,516033  	20,701630  	22,193215  	28,007168  	26,232793  	27,752608  	28,681821  	34,634555  	33,219321  	36,748934  	58,943255  	22,921168  	21,874548  	22,185285  	63,863974  	0,092931  	0,047089  	-3389,190546  	-32744,325015  	-0,035222  	-0,050000  	0,315574  	0,159904  	-3,761216  	10393,068876  	14224,942540  	2,063153  	-0,047952  
296,557000  	16,740693  	33,970731  	1256,818530  	-242,047242  	70,348980  	64,728604  	0,004607  	0,008834  	0,003962  	0,004122  	0,004341  	-0,000000  	-0,000000  	22,697043  	19,517007  	20,696575  	22,188610  	28,008476  	26,222702  	27,749894  	28,688203  	34,635489  	33,210589  	36,752508  	58,948569  	22,931369  	21,891124  	22,182840  	63,853570  	0,105664  	0,053540  	-3859,084122  	-35513,055253  	-0,021697  	-0,050005  	0,296388  	0,150182  	-3,534138  	10399,144424  	13996,177239  	2,029974  	-0,047956  
297,557000  	16,724784  	33,972086  	957,045375  	57,696365  	70,345117  	64,734948  	0,004621  	0,008821  	0,003962  	0,004073  	0,004373  	0,000000  	-0,000000  	22,698734  	19,524599  	20,709155  	22,187133  	28,017550  	26,232212  	27,756353  	28,688859  	34,632493  	33,222503  	36,758081  	58,952951  	22,936321  	21,916120  	22,186797  	63,857136  	0,065423  	0,033151  	-2391,817129  	-21305,660826  	-0,021694  	-0,049997  	0,321838  	0,163078  	-3,830638  	10372,673204  	14302,395673  	2,074387  	-0,047949  
298,559000  	16,713872  	33,963953  	-242,047242  	1256,670793  	70,346550  	64,737373  	0,004609  	0,008828  	0,003963  	0,004078  	0,004354  	-0,000000  	-0,000000  	22,700307  	19,522467  	20,708065  	22,185527  	28,016468  	26,231217  	27,749728  	28,681323  	34,629534  	33,226223  	36,755012  	58,947846  	22,928979  	21,922686  	22,186368  	63,859392  	0,069739  	0,035337  	-2549,988197  	35511,362886  	-0,021698  	-0,050004  	0,306605  	0,155359  	-3,648684  	10386,402611  	14039,136931  	2,036205  	-0,047955  
299,560000  	16,710746  	33,963676  	657,272221  	1256,670793  	70,355117  	64,723628  	0,004616  	0,008843  	0,003962  	0,004116  	0,004350  	0,000000  	-0,000000  	22,702914  	19,512603  	20,694733  	22,183469  	28,005754  	26,223614  	27,744649  	28,678909  	34,630736  	33,214710  	36,751629  	58,941300  	22,928538  	21,929350  	22,176714  	63,858248  	0,100904  	0,051129  	-3690,178529  	9722,097764  	-0,013765  	-0,049997  	0,303621  	0,153847  	-3,627535  	10419,227405  	14206,039993  	2,060412  	-0,047949  
300,601000  	16,718102  	33,966941  	1256,818530  	57,696365  	70,359354  	64,729537  	0,004620  	0,008828  	0,003962  	0,004126  	0,004348  	-0,000001  	-0,000000  	22,701173  	19,512748  	20,693271  	22,182453  	28,002646  	26,228956  	27,752191  	28,677237  	34,630939  	33,209420  	36,756421  	58,947095  	22,933835  	21,950972  	22,178796  	63,863171  	0,109038  	0,055250  	-3986,688866  	-24499,409720  	-0,018204  	-0,050014  	0,302097  	0,153075  	-3,608259  	10387,744637  	14274,977447  	2,070410  	-0,047963  
