06/25/2020 12:39:08
Tempo T_f_e T_f_s AR AR T_q_e T_q_s Corrente_P_f Corrente_P_q Corrente_P_RESERVA Corrente_eletromag_f Corrente_eletromag_q AR AR T_1 T_2 T_3 T_4 T_5 T_6 T_7 T_8 T_9 T_10 T_11 T_12 T_13 T_14 T_15 T_16 Velocidade_f_(m/s) Vazao_f_(L/s) q_f_(W) AR AR AR Velocidade_q_(m/s) Vazao_q_(L/s) q_q_(W) DeltaP_q_(Pa) DeltaP_f_(Pa) DeltaP_f_(Psi) AR
0,009000  	22,091799  	30,722698  	26,116023  	1256,670793  	70,263876  	64,247100  	0,006612  	0,008518  	0,003963  	0,004234  	0,004325  	-0,000000  	-0,000000  	25,866801  	23,888728  	24,817148  	24,923953  	28,412009  	26,986754  	28,238456  	28,154469  	31,659216  	30,640561  	33,490328  	58,440812  	28,032484  	27,287938  	27,554203  	63,504900  	0,196508  	0,099572  	-3593,402917  	25501,712077  	-0,018518  	-0,050006  	0,283577  	0,143691  	-3,619647  	9718,336460  	57210,548468  	8,297689  	-0,047956  
2,554000  	22,080685  	30,713095  	26,116514  	657,183579  	70,261010  	64,260532  	0,006609  	0,008633  	0,003963  	0,004211  	0,004351  	0,000001  	-0,000000  	25,858711  	23,885722  	24,797156  	24,914814  	28,398706  	26,980441  	28,237670  	28,144033  	31,648815  	30,633894  	33,483873  	58,429302  	28,015177  	27,269735  	27,546166  	63,500944  	0,177945  	0,090166  	-3254,537087  	18402,245526  	-0,027537  	-0,049989  	0,304125  	0,154103  	-3,871424  	9965,703492  	57137,677985  	8,287120  	-0,047942  
3,557000  	22,121211  	30,705339  	26,116053  	657,183579  	70,267178  	64,271695  	0,006618  	0,008638  	0,003963  	0,004275  	0,004329  	0,000000  	-0,000000  	25,880712  	23,900328  	24,828523  	24,936232  	28,413323  	26,999739  	28,245327  	28,152213  	31,674470  	30,658886  	33,503019  	58,445193  	28,032913  	27,290200  	27,568954  	63,523717  	0,229091  	0,116082  	-4166,521303  	18404,777494  	-0,027541  	-0,049997  	0,287174  	0,145513  	-3,652594  	9978,257124  	57330,572933  	8,315097  	-0,047949  
4,554000  	22,137482  	30,697829  	26,115623  	1256,670793  	70,270978  	64,265165  	0,006617  	0,008269  	0,003962  	0,004205  	0,004375  	0,000000  	-0,000000  	25,868749  	23,891539  	24,812807  	24,926514  	28,410754  	26,996058  	28,237383  	28,147050  	31,668628  	30,645090  	33,487725  	58,443783  	28,016638  	27,286913  	27,553280  	63,514993  	0,172324  	0,087318  	-3125,413999  	25497,166974  	-0,018514  	-0,049996  	0,322982  	0,163657  	-4,115118  	9182,256412  	57313,816958  	8,312666  	-0,047948  
5,556000  	22,156794  	30,683855  	26,116084  	1256,670793  	70,272474  	64,271912  	0,006606  	0,008363  	0,003962  	0,004239  	0,004368  	-0,000001  	-0,000000  	25,866013  	23,886997  	24,818290  	24,922668  	28,410673  	26,989071  	28,240586  	28,147852  	31,661423  	30,632180  	33,490215  	58,434152  	28,013234  	27,293947  	27,551834  	63,518239  	0,200063  	0,101373  	-3614,380870  	25505,011443  	-0,018520  	-0,050013  	0,317813  	0,161038  	-4,045720  	9385,018965  	57081,563477  	8,278981  	-0,047963  
6,555000  	22,180372  	30,681578  	26,116023  	657,183579  	70,269359  	64,267062  	0,006617  	0,008462  	0,003963  	0,004252  	0,004381  	0,000001  	-0,000000  	25,860160  	23,885677  	24,800632  	24,913021  	28,401021  	26,977035  	28,224518  	28,135658  	31,646336  	30,624823  	33,479953  	58,424654  	27,987463  	27,304616  	27,527709  	63,507469  	0,210896  	0,106862  	-3798,533220  	18403,653339  	-0,027540  	-0,049993  	0,328097  	0,166249  	-4,177839  	9596,838244  	57310,413511  	8,312173  	-0,047946  
7,556000  	22,181938  	30,688041  	26,116023  	-242,047242  	70,268549  	64,258604  	0,006613  	0,008626  	0,003962  	0,004198  	0,004374  	-0,000000  	-0,000000  	25,863116  	23,886727  	24,810867  	24,919260  	28,397491  	26,978349  	28,230604  	28,143323  	31,649950  	30,632167  	33,485624  	58,428297  	27,990274  	27,325924  	27,547632  	63,506712  	0,167331  	0,084788  	-3015,604481  	-27101,073022  	-0,102523  	-0,050006  	0,322181  	0,163251  	-4,107731  	9950,653283  	57229,338038  	8,300414  	-0,047957  
8,554000  	22,157561  	30,690811  	26,116084  	956,927186  	70,270791  	64,246603  	0,006610  	0,008437  	0,003964  	0,004285  	0,004357  	-0,000001  	-0,000000  	25,868306  	23,888601  	24,821104  	24,923129  	28,405597  	26,986738  	28,240639  	28,148726  	31,662597  	30,644330  	33,486301  	58,438612  	27,994488  	27,348314  	27,560463  	63,514315  	0,237578  	0,120382  	-4295,251893  	22447,189938  	-0,022149  	-0,050010  	0,308800  	0,156471  	-3,946452  	9544,717857  	57166,677896  	8,291326  	-0,047960  
9,557000  	22,133890  	30,694905  	26,115654  	1256,670793  	70,268362  	64,247504  	0,006617  	0,008453  	0,003963  	0,004237  	0,004366  	0,000001  	-0,000000  	25,867888  	23,884923  	24,811116  	24,920404  	28,397583  	26,981661  	28,239035  	28,143203  	31,656001  	30,639059  	33,479413  	58,438077  	27,980406  	27,358085  	27,552827  	63,520166  	0,198775  	0,100721  	-3605,425914  	25495,948510  	-0,018513  	-0,049993  	0,315962  	0,160100  	-4,035756  	9578,499825  	57312,094051  	8,312416  	-0,047946  
10,554000  	22,117127  	30,700753  	26,115838  	657,183579  	70,265620  	64,248562  	0,006611  	0,008374  	0,003963  	0,004219  	0,004399  	0,000000  	-0,000000  	25,868889  	23,888955  	24,808364  	24,918169  	28,395796  	26,984872  	28,236576  	28,146715  	31,653780  	30,632945  	33,479573  	58,434927  	27,974384  	27,358467  	27,549380  	63,518027  	0,184200  	0,093336  	-3349,887980  	18404,794713  	-0,027541  	-0,049997  	0,341929  	0,173258  	-4,364667  	9407,407513  	57179,769163  	8,293224  	-0,047949  
11,558000  	22,099812  	30,705462  	26,114732  	-242,047242  	70,270573  	64,245514  	0,006608  	0,008388  	0,003963  	0,004210  	0,004354  	0,000003  	-0,000000  	25,860089  	23,883990  	24,810680  	24,907059  	28,396504  	26,980694  	28,227574  	28,137626  	31,650497  	30,631283  	33,477199  	58,430575  	27,969237  	27,354367  	27,551355  	63,509164  	0,176851  	0,089612  	-3224,500853  	-27082,704742  	-0,102454  	-0,049968  	0,306594  	0,155354  	-3,918834  	9439,236223  	57112,957098  	8,283534  	-0,047924  
12,556000  	22,116452  	30,704970  	26,114916  	-242,047242  	70,277177  	64,240913  	0,006615  	0,008642  	0,003964  	0,004222  	0,004310  	-0,000000  	-0,000000  	25,858861  	23,878086  	24,807612  	24,902885  	28,391129  	26,975507  	28,226183  	28,134917  	31,641728  	30,630618  	33,474122  	58,430214  	27,974148  	27,354310  	27,554391  	63,509288  	0,186531  	0,094516  	-3394,204808  	-27100,433042  	-0,102521  	-0,050005  	0,271463  	0,137552  	-3,476239  	9985,830335  	57269,953446  	8,306304  	-0,047956  
13,555000  	22,127075  	30,697429  	26,114209  	57,696365  	70,278891  	64,235130  	0,006608  	0,008426  	0,003962  	0,004208  	0,004332  	0,000000  	-0,000000  	25,864769  	23,877614  	24,811945  	24,914931  	28,396192  	26,979153  	28,232446  	28,142576  	31,648829  	30,640792  	33,478411  	58,433616  	27,980999  	27,354785  	27,555243  	63,513355  	0,175286  	0,088819  	-3182,840486  	1707,644101  	-0,053745  	-0,049998  	0,289510  	0,146697  	-3,711940  	9519,384918  	57115,809779  	8,283948  	-0,047950  
14,555000  	22,141688  	30,688072  	26,113963  	1256,670793  	70,278517  	64,232580  	0,006611  	0,008423  	0,003963  	0,004236  	0,004357  	-0,000000  	-0,000000  	25,860283  	23,874339  	24,809485  	24,914353  	28,396831  	26,975998  	28,232275  	28,136812  	31,657388  	30,639997  	33,473316  	58,432820  	27,975989  	27,348888  	27,552219  	63,504061  	0,197641  	0,100146  	-3578,725328  	25499,114136  	-0,018516  	-0,050000  	0,308629  	0,156385  	-3,958504  	9513,193350  	57175,165330  	8,292557  	-0,047951  
15,555000  	22,161583  	30,678377  	26,113410  	357,439972  	70,275744  	64,245794  	0,006618  	0,008502  	0,003963  	0,004241  	0,004334  	0,000000  	-0,000000  	25,853950  	23,872963  	24,798375  	24,905588  	28,389878  	26,965766  	28,231668  	28,127208  	31,651135  	30,624772  	33,467760  	58,431148  	27,971829  	27,343971  	27,554289  	63,497245  	0,201858  	0,102283  	-3642,430123  	12439,096501  	-0,036418  	-0,049995  	0,290764  	0,147332  	-3,719515  	9683,409136  	57342,068392  	8,316764  	-0,047947  
16,559000  	22,147829  	30,675114  	26,113779  	956,927186  	70,276804  	64,242312  	0,006609  	0,008377  	0,003962  	0,004242  	0,004368  	-0,000000  	-0,000000  	25,853420  	23,876662  	24,803669  	24,911122  	28,391494  	26,962658  	28,231176  	28,128475  	31,647795  	30,623210  	33,478052  	58,429392  	27,975569  	27,340864  	27,556908  	63,499868  	0,202386  	0,102550  	-3656,453438  	22443,384379  	-0,022145  	-0,050000  	0,317637  	0,160949  	-4,066327  	9414,240028  	57138,151079  	8,287188  	-0,047952  
17,555000  	22,137605  	30,678408  	26,113748  	57,696365  	70,279514  	64,246758  	0,006612  	0,008695  	0,003964  	0,004214  	0,004370  	0,000000  	-0,000000  	25,851400  	23,873863  	24,809684  	24,907974  	28,388467  	26,962050  	28,224745  	28,127075  	31,645245  	30,623134  	33,476475  	58,423127  	27,977710  	27,335853  	27,549606  	63,497274  	0,180181  	0,091299  	-3260,451890  	1707,708862  	-0,053747  	-0,049999  	0,319030  	0,161655  	-4,082995  	10101,291205  	57200,825343  	8,296278  	-0,047951  
18,559000  	22,137728  	30,682778  	26,112273  	1256,670793  	70,280199  	64,254904  	0,006621  	0,008331  	0,003962  	0,004255  	0,004327  	-0,000000  	-0,000000  	25,848295  	23,867944  	24,801748  	24,898266  	28,383426  	26,963810  	28,221868  	28,122696  	31,639046  	30,614507  	33,461989  	58,425654  	27,981107  	27,344187  	27,549618  	63,503956  	0,212942  	0,107899  	-3855,191424  	25499,997945  	-0,018516  	-0,050002  	0,285092  	0,144458  	-3,644139  	9315,179882  	57409,141718  	8,326492  	-0,047953  
19,555000  	22,135425  	30,686841  	26,112918  	1256,670793  	70,280573  	64,279374  	0,006609  	0,008461  	0,003962  	0,004214  	0,004357  	-0,000001  	-0,000000  	25,845992  	23,872629  	24,798858  	24,905130  	28,386102  	26,973933  	28,217997  	28,124314  	31,640246  	30,616470  	33,463740  	58,435252  	27,989851  	27,364820  	27,557886  	63,514459  	0,180266  	0,091342  	-3266,039457  	25502,103891  	-0,018518  	-0,050007  	0,308978  	0,156561  	-3,933672  	9596,588516  	57150,896352  	8,289037  	-0,047957  
20,559000  	22,168644  	30,684933  	26,111996  	57,696365  	70,285557  	64,264512  	0,006612  	0,008549  	0,003964  	0,004232  	0,004337  	-0,000000  	-0,000000  	25,849384  	23,872647  	24,791393  	24,897278  	28,385118  	26,968094  	28,211282  	28,120349  	31,628208  	30,618242  	33,466115  	58,428689  	27,987160  	27,374555  	27,551494  	63,508017  	0,194447  	0,098528  	-3508,481230  	1707,891785  	-0,053750  	-0,050002  	0,293541  	0,148740  	-3,749499  	9785,061365  	57205,513909  	8,296958  	-0,047953  
21,555000  	22,180495  	30,689857  	26,112549  	1256,670793  	70,285837  	64,247193  	0,006623  	0,008387  	0,003962  	0,004241  	0,004338  	0,000002  	-0,000000  	25,848458  	23,872430  	24,795259  	24,905942  	28,384032  	26,967003  	28,210587  	28,131820  	31,635084  	30,619709  	33,465409  	58,426909  	27,994280  	27,380345  	27,542169  	63,505012  	0,201531  	0,102117  	-3633,350517  	25488,966367  	-0,018508  	-0,049978  	0,294327  	0,149138  	-3,770520  	9436,540853  	57438,685332  	8,330777  	-0,047932  
22,556000  	22,179267  	30,691396  	26,112672  	657,183579  	70,282473  	64,249494  	0,006610  	0,008416  	0,003963  	0,004258  	0,004372  	-0,000000  	-0,000000  	25,846051  	23,866398  	24,803469  	24,900311  	28,384783  	26,965335  	28,217789  	28,120429  	31,630332  	30,609556  	33,462317  	58,428222  	27,990251  	27,378229  	27,543219  	63,508223  	0,215333  	0,109111  	-3883,445034  	18407,880903  	-0,027546  	-0,050006  	0,321071  	0,162689  	-4,109265  	9498,985002  	57165,929420  	8,291217  	-0,047956  
23,555000  	22,172544  	30,690565  	26,113594  	657,183579  	70,280666  	64,242872  	0,006611  	0,008508  	0,003964  	0,004261  	0,004321  	0,000000  	-0,000000  	25,847555  	23,864995  	24,798142  	24,906250  	28,379915  	26,966672  	28,212198  	28,118982  	31,636839  	30,611471  	33,460450  	58,436901  	27,998146  	27,370469  	27,544159  	63,507632  	0,217795  	0,110358  	-3930,563045  	18404,543539  	-0,027541  	-0,049996  	0,280748  	0,142257  	-3,596051  	9697,326724  	57183,356198  	8,293745  	-0,047948  
24,558000  	22,167570  	30,695244  	26,113594  	1256,670793  	70,280542  	64,242125  	0,006617  	0,008594  	0,003964  	0,004230  	0,004346  	-0,000001  	-0,000000  	25,832155  	23,860854  	24,783510  	24,894793  	28,376976  	26,950312  	28,214089  	28,119721  	31,626720  	30,612154  	33,465032  	58,420124  	27,997084  	27,378354  	27,537684  	63,502203  	0,193289  	0,097941  	-3492,262544  	25502,558154  	-0,018518  	-0,050008  	0,300103  	0,152064  	-3,844359  	9882,441326  	57304,044405  	8,311249  	-0,047958  
25,555000  	22,166618  	30,696567  	26,113349  	1256,670793  	70,282473  	64,243556  	0,006609  	0,008460  	0,003962  	0,004249  	0,004364  	-0,000001  	-0,000000  	25,846057  	23,873701  	24,804807  	24,901363  	28,381261  	26,966530  	28,226102  	28,122021  	31,645350  	30,622892  	33,472427  	58,426125  	28,011703  	27,381235  	27,554868  	63,513034  	0,208015  	0,105403  	-3759,313542  	25502,332705  	-0,018518  	-0,050007  	0,314289  	0,159252  	-4,026419  	9592,647333  	57142,437162  	8,287810  	-0,047957  
26,558000  	22,177364  	30,696752  	26,114332  	1256,670793  	70,284217  	64,272348  	0,006609  	0,008506  	0,003963  	0,004226  	0,004371  	0,000000  	-0,000000  	25,852302  	23,879514  	24,803198  	24,902853  	28,389369  	26,962601  	28,228359  	28,128143  	31,643751  	30,623934  	33,472501  	58,430725  	28,016635  	27,373577  	27,550082  	63,505145  	0,189981  	0,096265  	-3429,144076  	25496,250847  	-0,018514  	-0,049994  	0,319906  	0,162099  	-4,080046  	9691,746389  	57147,697677  	8,288573  	-0,047946  
27,556000  	22,171837  	30,702107  	26,114609  	1256,670793  	70,287301  	64,276265  	0,006623  	0,008630  	0,003964  	0,004239  	0,004358  	0,000000  	-0,000000  	25,849280  	23,862171  	24,800660  	24,893165  	28,385000  	26,958431  	28,217985  	28,121474  	31,646272  	30,615674  	33,468927  	58,435753  	28,001542  	27,350650  	27,551551  	63,514421  	0,200252  	0,101469  	-3619,160288  	25496,475303  	-0,018514  	-0,049994  	0,309649  	0,156902  	-3,948685  	9959,461695  	57441,290876  	8,331155  	-0,047947  
28,556000  	22,181969  	30,707586  	26,116023  	57,696365  	70,286990  	64,282484  	0,006611  	0,008471  	0,003962  	0,004221  	0,004334  	0,000000  	-0,000000  	25,849096  	23,873513  	24,797241  	24,898826  	28,387332  	26,971288  	28,217802  	28,123585  	31,645296  	30,627031  	33,459032  	58,428843  	28,003299  	27,336500  	27,561703  	63,521943  	0,186037  	0,094267  	-3360,423631  	1707,563499  	-0,053746  	-0,049999  	0,290848  	0,147375  	-3,704902  	9617,409363  	57178,152172  	8,292990  	-0,047950  
29,556000  	22,186267  	30,713834  	26,118113  	1256,670793  	70,285588  	64,288702  	0,006617  	0,008751  	0,003963  	0,004246  	0,004367  	-0,000001  	-0,000000  	25,842363  	23,870859  	24,795060  	24,900418  	28,378628  	26,957480  	28,215949  	28,111696  	31,635848  	30,615555  	33,471239  	58,422138  	27,988547  	27,311548  	27,550682  	63,511521  	0,206061  	0,104413  	-3722,963414  	25503,175571  	-0,018519  	-0,050009  	0,317234  	0,160745  	-4,035891  	10220,612608  	57307,285447  	8,311719  	-0,047959  
30,558000  	22,177057  	30,718512  	26,118236  	657,183579  	70,287769  	64,287272  	0,006622  	0,008519  	0,003962  	0,004238  	0,004342  	0,000001  	-0,000000  	25,833609  	23,858948  	24,801353  	24,893203  	28,374600  	26,958607  	28,215327  	28,119129  	31,632181  	30,610251  	33,467381  	58,427192  	27,992196  	27,303433  	27,553412  	63,509482  	0,199187  	0,100929  	-3604,629890  	18400,939203  	-0,027536  	-0,049985  	0,297113  	0,150550  	-3,782186  	9720,808276  	57427,648843  	8,329176  	-0,047939  
31,555000  	22,168583  	30,720821  	26,118605  	657,183579  	70,289918  	64,306861  	0,006606  	0,008511  	0,003962  	0,004229  	0,004366  	-0,000000  	-0,000000  	25,835990  	23,861057  	24,795497  	24,891084  	28,376130  	26,958361  	28,212185  	28,121294  	31,639153  	30,615109  	33,460760  	58,425706  	27,991916  	27,294508  	27,550647  	63,500682  	0,192433  	0,097507  	-3486,806319  	18407,036044  	-0,027545  	-0,050004  	0,316075  	0,160157  	-4,011875  	9702,915549  	57070,018589  	8,277306  	-0,047955  
32,558000  	22,192408  	30,723837  	26,119834  	1256,670793  	70,290479  	64,308913  	0,006614  	0,008651  	0,003963  	0,004239  	0,004377  	-0,000001  	-0,000000  	25,837417  	23,858644  	24,781471  	24,888095  	28,374658  	26,955144  	28,209597  	28,115039  	31,627710  	30,610631  	33,459087  	58,423129  	27,994687  	27,289289  	27,553713  	63,504960  	0,200548  	0,101619  	-3624,991882  	25502,979791  	-0,018519  	-0,050009  	0,324971  	0,164665  	-4,123761  	10005,841864  	57257,751877  	8,304535  	-0,047959  
33,555000  	22,209447  	30,725407  	26,121094  	1256,670793  	70,290728  	64,293273  	0,006622  	0,008388  	0,003963  	0,004283  	0,004362  	-0,000001  	-0,000000  	25,842513  	23,860674  	24,790148  	24,899263  	28,380778  	26,960843  	28,218537  	28,125778  	31,632280  	30,613030  	33,462905  	58,429545  	28,005342  	27,298819  	27,554763  	63,508611  	0,235863  	0,119513  	-4255,590438  	25502,218218  	-0,018518  	-0,050007  	0,312704  	0,158449  	-3,978634  	9437,762612  	57422,536612  	8,328435  	-0,047958  
34,557000  	22,201158  	30,728485  	26,121340  	657,183579  	70,291538  	64,289169  	0,006609  	0,008446  	0,003964  	0,004235  	0,004339  	0,000000  	-0,000000  	25,848707  	23,870537  	24,789152  	24,900094  	28,382103  	26,964544  	28,222509  	28,122301  	31,639432  	30,619914  	33,466817  	58,427725  	28,006680  	27,298501  	27,562618  	63,509000  	0,197080  	0,099862  	-3560,597733  	18405,491221  	-0,027543  	-0,049999  	0,294925  	0,149441  	-3,755507  	9562,553282  	57134,825304  	8,286706  	-0,047951  
35,554000  	22,195079  	30,729131  	26,121986  	657,183579  	70,293999  	64,300766  	0,006615  	0,008546  	0,003964  	0,004245  	0,004356  	-0,000000  	-0,000000  	25,849425  	23,867442  	24,782054  	24,902805  	28,371883  	26,958622  	28,220245  	28,117948  	31,628244  	30,616121  	33,468043  	58,430932  	28,006018  	27,295094  	27,554114  	63,508462  	0,205133  	0,103943  	-3709,017974  	18406,950491  	-0,027545  	-0,050004  	0,308137  	0,156135  	-3,917770  	9778,635631  	57275,122167  	8,307054  	-0,047955  
36,557000  	22,192070  	30,732886  	26,122539  	57,696365  	70,294186  	64,288578  	0,006618  	0,008461  	0,003963  	0,004224  	0,004357  	-0,000000  	-0,000000  	25,846266  	23,869966  	24,792853  	24,906516  	28,376612  	26,961876  	28,217093  	28,126800  	31,632519  	30,615774  	33,463106  	58,434423  	28,013641  	27,284973  	27,555408  	63,508216  	0,187790  	0,095155  	-3398,127410  	1707,286364  	-0,053748  	-0,050002  	0,309116  	0,156631  	-3,938327  	9595,634878  	57341,065717  	8,316618  	-0,047953  
37,555000  	22,162719  	30,737780  	26,123184  	57,696365  	70,291849  	64,281800  	0,006601  	0,008777  	0,003964  	0,004263  	0,004405  	0,000001  	-0,000000  	25,845262  	23,865857  	24,792960  	24,895247  	28,377740  	26,963442  	28,214436  	28,125113  	31,637109  	30,614394  	33,453741  	58,429785  	28,014936  	27,260803  	27,549442  	63,509721  	0,219910  	0,111430  	-3995,312291  	1706,870869  	-0,053736  	-0,049989  	0,347223  	0,175940  	-4,427103  	10276,889241  	56972,257752  	8,263127  	-0,047942  
38,557000  	22,111325  	30,737903  	26,123984  	1256,670793  	70,284498  	64,291190  	0,006615  	0,008327  	0,003963  	0,004225  	0,004326  	0,000001  	-0,000000  	25,846332  	23,864473  	24,789454  	24,894361  	28,381383  	26,965045  	28,216313  	28,120385  	31,638687  	30,614450  	33,454082  	58,435996  	28,017285  	27,248091  	27,550631  	63,511454  	0,188563  	0,095546  	-3446,394780  	25491,654916  	-0,018510  	-0,049984  	0,284829  	0,144325  	-3,621464  	9306,615539  	57277,374656  	8,307381  	-0,047938  
39,556000  	22,098614  	30,734579  	26,123799  	1256,670793  	70,273128  	64,316469  	0,006622  	0,008418  	0,003964  	0,004224  	0,004434  	-0,000000  	-0,000000  	25,847844  	23,867761  	24,792978  	24,901235  	28,382504  	26,966243  	28,223009  	28,122187  	31,635009  	30,615496  	33,464491  	58,438002  	28,022182  	27,240811  	27,549308  	63,510667  	0,187832  	0,095176  	-3436,769950  	25501,051359  	-0,018517  	-0,050005  	0,370149  	0,187557  	-4,677505  	9502,397722  	57431,045229  	8,329669  	-0,047956  
40,558000  	22,116114  	30,735933  	26,125213  	1256,670793  	70,268393  	64,306394  	0,006606  	0,008453  	0,003962  	0,004181  	0,004328  	-0,000000  	-0,000000  	25,844796  	23,867145  	24,798743  	24,904563  	28,377433  	26,965740  	28,225929  	28,127382  	31,634575  	30,615612  	33,467964  	58,435265  	28,026335  	27,228505  	27,547720  	63,510841  	0,153290  	0,077673  	-2799,503789  	25501,442520  	-0,018518  	-0,050006  	0,285958  	0,144897  	-3,616830  	9577,984805  	57082,424930  	8,279106  	-0,047957  
41,554000  	22,144329  	30,735810  	26,124875  	956,927186  	70,263035  	64,288702  	0,006617  	0,008449  	0,003963  	0,004253  	0,004368  	-0,000000  	-0,000000  	25,839476  	23,866239  	24,794605  	24,901745  	28,371774  	26,963592  	28,216223  	28,124370  	31,636011  	30,615241  	33,460311  	58,428122  	28,028974  	27,220025  	27,545501  	63,505703  	0,211479  	0,107158  	-3849,500346  	22445,228706  	-0,022147  	-0,050006  	0,318096  	0,161182  	-4,031636  	9569,486254  	57321,082823  	8,313720  	-0,047957  
42,556000  	22,174723  	30,720728  	26,125305  	-242,047242  	70,263783  	64,260159  	0,006619  	0,008775  	0,003962  	0,004246  	0,004324  	0,000001  	-0,000000  	25,841311  	23,866840  	24,790277  	24,899945  	28,370237  	26,965297  	28,211873  	28,124140  	31,631142  	30,616223  	33,459910  	58,424027  	28,032729  	27,211445  	27,547362  	63,497652  	0,205555  	0,104156  	-3721,857142  	-27092,394343  	-0,102487  	-0,049988  	0,282588  	0,143190  	-3,599146  	10271,815437  	57349,108302  	8,317785  	-0,047941  
43,555000  	22,197197  	30,703554  	26,125029  	657,183579  	70,269701  	64,246447  	0,006604  	0,009053  	0,003962  	0,004220  	0,004321  	0,000001  	-0,000000  	25,842456  	23,866325  	24,790767  	24,902761  	28,376824  	26,965612  	28,218590  	28,130949  	31,629457  	30,617289  	33,466154  	58,431045  	28,034700  	27,190491  	27,555739  	63,497690  	0,185016  	0,093749  	-3334,413346  	18400,343669  	-0,027535  	-0,049984  	0,280250  	0,142005  	-3,581029  	10873,438955  	57031,450898  	8,271713  	-0,047938  
44,555000  	22,199223  	30,693151  	26,124906  	1256,670793  	70,274561  	64,268150  	0,006615  	0,008487  	0,003963  	0,004214  	0,004368  	-0,000001  	-0,000000  	25,840560  	23,866421  	24,781606  	24,897586  	28,383071  	26,954877  	28,215300  	28,121963  	31,631210  	30,614712  	33,463714  	58,425703  	28,025917  	27,168738  	27,540105  	63,494797  	0,179824  	0,091118  	-3236,112397  	25503,138610  	-0,018519  	-0,050010  	0,317753  	0,161008  	-4,048904  	9652,057245  	57278,793935  	8,307587  	-0,047960  
45,555000  	22,190995  	30,690811  	26,125858  	57,696365  	70,269701  	64,319391  	0,006619  	0,008375  	0,003962  	0,004193  	0,004385  	-0,000000  	-0,000000  	25,856110  	23,871239  	24,796855  	24,908267  	28,391546  	26,964618  	28,223677  	28,129042  	31,643739  	30,621875  	33,472216  	58,437706  	28,029266  	27,167660  	27,550634  	63,496007  	0,162612  	0,082397  	-2928,401737  	1707,169928  	-0,053750  	-0,050004  	0,331046  	0,167744  	-4,178913  	9409,689027  	57363,435261  	8,319863  	-0,047955  
46,555000  	22,188908  	30,708294  	26,125858  	1256,670793  	70,264156  	64,342463  	0,006608  	0,008366  	0,003964  	0,004201  	0,004365  	0,000000  	-0,000000  	25,866742  	23,876183  	24,803906  	24,915871  	28,388530  	26,974742  	28,229098  	28,138610  	31,650304  	30,631365  	33,484165  	58,440216  	28,038019  	27,154819  	27,566957  	63,508466  	0,169204  	0,085737  	-3054,129790  	25496,303461  	-0,018514  	-0,049995  	0,315091  	0,159659  	-3,958385  	9389,869216  	57120,088802  	8,284568  	-0,047947  
47,557000  	22,181263  	30,732578  	26,126227  	1256,670793  	70,264561  	64,311400  	0,006615  	0,008442  	0,003964  	0,004247  	0,004356  	0,000001  	-0,000000  	25,851741  	23,875811  	24,795432  	24,904454  	28,381859  	26,969730  	28,212714  	28,132866  	31,640573  	30,624332  	33,474748  	58,429742  	28,020320  	27,134389  	27,549075  	63,503042  	0,206584  	0,104677  	-3742,800997  	25491,696197  	-0,018510  	-0,049985  	0,308391  	0,156264  	-3,894795  	9554,537917  	57273,971209  	8,306887  	-0,047938  
48,556000  	22,126184  	30,747167  	26,126842  	57,696365  	70,267178  	64,281116  	0,006621  	0,008372  	0,003962  	0,004245  	0,004353  	0,000000  	-0,000000  	25,841235  	23,863735  	24,794667  	24,899001  	28,373702  	26,967782  	28,215992  	28,120512  	31,634679  	30,616156  	33,469901  	58,424912  	28,017729  	27,132422  	27,537279  	63,488072  	0,205131  	0,103941  	-3746,773983  	1706,877074  	-0,053743  	-0,049996  	0,305804  	0,154953  	-3,883452  	9404,299703  	57397,321448  	8,324778  	-0,047948  
49,554000  	22,063738  	30,745475  	26,127949  	57,696365  	70,261446  	64,258884  	0,006605  	0,008510  	0,003963  	0,004234  	0,004343  	0,000000  	-0,000000  	25,848221  	23,861867  	24,801798  	24,903751  	28,386355  	26,963764  	28,212283  	28,124834  	31,637143  	30,623083  	33,467662  	58,437431  	28,016251  	27,158042  	27,543587  	63,499140  	0,196172  	0,099402  	-3608,398690  	1706,813518  	-0,053743  	-0,049996  	0,298188  	0,151094  	-3,797162  	9701,901071  	57045,114113  	8,273694  	-0,047948  
50,558000  	22,034818  	30,736426  	26,127149  	1256,670793  	70,256649  	64,242716  	0,006621  	0,008351  	0,003964  	0,004273  	0,004350  	-0,000001  	-0,000000  	25,848598  	23,870427  	24,791073  	24,899690  	28,382914  	26,959002  	28,220312  	28,122533  	31,640846  	30,627211  	33,466035  	58,435528  	28,009905  	27,177932  	27,546369  	63,498891  	0,227647  	0,115350  	-4196,947541  	25505,084460  	-0,018520  	-0,050014  	0,303125  	0,153596  	-3,867337  	9358,111251  	57395,768007  	8,324552  	-0,047963  
51,555000  	22,016398  	30,721375  	26,127611  	1256,670793  	70,253752  	64,243867  	0,006615  	0,008393  	0,003961  	0,004200  	0,004366  	-0,000000  	-0,000000  	25,845133  	23,858921  	24,784777  	24,893164  	28,383178  	26,959823  	28,212228  	28,122006  	31,621588  	30,610046  	33,453877  	58,419902  	27,992238  	27,166789  	27,547968  	63,495786  	0,168627  	0,085444  	-3110,048224  	25500,866337  	-0,018517  	-0,050005  	0,316167  	0,160204  	-4,031006  	9449,605968  	57272,340096  	8,306651  	-0,047956  
52,555000  	22,008968  	30,700076  	26,129086  	1256,670793  	70,247460  	64,230994  	0,006600  	0,008503  	0,003962  	0,004267  	0,004365  	0,000000  	-0,000000  	25,844840  	23,874809  	24,795813  	24,908849  	28,393735  	26,970802  	28,222753  	28,133891  	31,644437  	30,622785  	33,463261  	58,424801  	27,997917  	27,187057  	27,564032  	63,508422  	0,222805  	0,112897  	-4102,735591  	25497,203568  	-0,018515  	-0,049997  	0,315365  	0,159798  	-4,025175  	9687,107665  	56953,800054  	8,260450  	-0,047949  
53,554000  	22,019038  	30,673145  	26,127856  	956,927186  	70,246868  	64,219614  	0,006618  	0,008536  	0,003963  	0,004223  	0,004370  	0,000001  	-0,000000  	25,848515  	23,875257  	24,793633  	24,907823  	28,393862  	26,965034  	28,223200  	28,131027  	31,650522  	30,619928  	33,467254  	58,443544  	28,003081  	27,183477  	27,558153  	63,508523  	0,187321  	0,094917  	-3434,636851  	22438,124671  	-0,022140  	-0,049989  	0,318976  	0,161627  	-4,078560  	9756,700556  	57327,049447  	8,314586  	-0,047942  
54,557000  	22,049677  	30,651784  	26,128901  	-242,047242  	70,258767  	64,216194  	0,006620  	0,008478  	0,003961  	0,004234  	0,004330  	0,000000  	-0,000000  	25,854797  	23,875788  	24,805240  	24,911234  	28,388654  	26,967773  	28,221962  	28,128468  	31,649291  	30,624202  	33,468207  	58,437580  	28,001831  	27,189518  	27,553367  	63,502355  	0,196596  	0,099617  	-3583,043573  	-27097,943503  	-0,102506  	-0,049999  	0,287695  	0,145777  	-3,687943  	9631,340393  	57368,787570  	8,320639  	-0,047951  
55,554000  	22,081361  	30,633595  	26,129731  	657,183579  	70,269857  	64,224807  	0,006610  	0,008776  	0,003962  	0,004267  	0,004364  	-0,000001  	-0,000000  	25,823572  	23,863810  	24,795757  	24,898652  	28,386543  	26,961428  	28,221172  	28,129851  	31,637862  	30,623334  	33,464214  	58,427587  	27,985028  	27,185501  	27,541915  	63,493610  	0,222989  	0,112990  	-4040,489295  	18407,538236  	-0,027546  	-0,050007  	0,314508  	0,159364  	-4,033317  	10275,548631  	57152,400365  	8,289255  	-0,047957  
56,559000  	22,098737  	30,621776  	26,129485  	57,696365  	70,268050  	64,226983  	0,006617  	0,008389  	0,003964  	0,004223  	0,004353  	0,000000  	-0,000000  	25,835257  	23,864211  	24,794035  	24,896082  	28,376218  	26,957647  	28,210607  	28,127914  	31,637636  	30,616134  	33,465508  	58,433098  	27,975914  	27,214940  	27,541376  	63,492511  	0,187244  	0,094878  	-3381,222569  	1706,830328  	-0,053746  	-0,050000  	0,305871  	0,154987  	-3,919962  	9441,130056  	57321,294656  	8,313751  	-0,047951  
57,555000  	22,118079  	30,616174  	26,129916  	956,927186  	70,268486  	64,258356  	0,006615  	0,008535  	0,003963  	0,004235  	0,004348  	-0,000000  	-0,000000  	25,837516  	23,861403  	24,795016  	24,889616  	28,368587  	26,947830  	28,209080  	28,122158  	31,631129  	30,614328  	33,457722  	58,428177  	27,975899  	27,242850  	27,539759  	63,498548  	0,197183  	0,099914  	-3550,268913  	22444,126632  	-0,022146  	-0,050004  	0,301936  	0,152993  	-3,849734  	9755,506387  	57265,843890  	8,305708  	-0,047955  
58,556000  	22,166035  	30,621406  	26,130531  	357,439972  	70,268985  	64,270855  	0,006607  	0,008406  	0,003964  	0,004252  	0,004374  	-0,000000  	-0,000000  	25,838379  	23,859793  	24,788737  	24,879351  	28,378957  	26,953113  	28,207476  	28,112991  	31,629658  	30,620014  	33,465522  	58,416463  	27,961916  	27,262665  	27,539245  	63,506512  	0,210481  	0,106652  	-3770,632741  	12440,315479  	-0,036424  	-0,050004  	0,322787  	0,163558  	-4,107370  	9476,452134  	57099,449226  	8,281575  	-0,047955  
59,555000  	22,236312  	30,637750  	26,130715  	1256,670793  	70,271913  	64,269487  	0,006617  	0,008470  	0,003962  	0,004259  	0,004366  	0,000000  	-0,000000  	25,830282  	23,860695  	24,785720  	24,892168  	28,376612  	26,951314  	28,209460  	28,120406  	31,637626  	30,618344  	33,458127  	58,431404  	27,966424  	27,287661  	27,538159  	63,505499  	0,216240  	0,109571  	-3849,074569  	25496,659745  	-0,018514  	-0,049996  	0,315947  	0,160093  	-4,023214  	9614,397058  	57321,647711  	8,313802  	-0,047948  
60,557000  	22,261733  	30,650061  	26,130961  	1256,670793  	70,276710  	64,254438  	0,006618  	0,008387  	0,003962  	0,004269  	0,004317  	0,000000  	-0,000000  	25,829423  	23,853351  	24,776789  	24,885453  	28,374609  	26,949793  	28,205678  	28,111117  	31,632879  	30,611390  	33,452637  	58,433293  	27,959250  	27,292911  	27,543021  	63,507761  	0,224893  	0,113955  	-3996,832115  	25496,935606  	-0,018514  	-0,049996  	0,277457  	0,140589  	-3,544764  	9437,232735  	57336,179441  	8,315910  	-0,047948  
61,555000  	22,239259  	30,662588  	26,131791  	1256,670793  	70,273595  	64,244986  	0,006609  	0,008407  	0,003962  	0,004227  	0,004331  	-0,000000  	-0,000000  	25,832163  	23,858063  	24,780427  	24,887928  	28,369664  	26,946995  	28,214097  	28,103410  	31,625720  	30,611759  	33,448508  	58,429959  	27,957896  	27,281319  	27,538860  	63,511338  	0,190697  	0,096627  	-3403,242324  	25499,752556  	-0,018516  	-0,050003  	0,288263  	0,146065  	-3,686689  	9479,471515  	57133,766140  	8,286552  	-0,047954  
62,556000  	22,198302  	30,680501  	26,132713  	1256,670793  	70,263938  	64,248841  	0,006619  	0,008415  	0,003963  	0,004207  	0,004388  	0,000001  	-0,000000  	25,834703  	23,856470  	24,776745  	24,890742  	28,371659  	26,950711  	28,215895  	28,110852  	31,617660  	30,609052  	33,453705  	58,429310  	27,950901  	27,279917  	27,544012  	63,521163  	0,174702  	0,088523  	-3139,595689  	25493,463701  	-0,018512  	-0,049989  	0,333185  	0,168827  	-4,251667  	9495,772489  	57352,773010  	8,318316  	-0,047942  
63,555000  	22,171315  	30,703769  	26,132621  	357,439972  	70,259266  	64,243120  	0,006616  	0,008428  	0,003960  	0,004249  	0,004344  	-0,000000  	-0,000000  	25,837225  	23,858914  	24,786449  	24,890950  	28,368859  	26,954999  	28,208257  	28,121244  	31,622021  	30,609617  	33,453713  	58,431959  	27,954001  	27,281996  	27,551530  	63,524533  	0,208280  	0,105537  	-3765,214260  	12439,706629  	-0,036422  	-0,050002  	0,298952  	0,151481  	-3,815501  	9525,213567  	57290,225845  	8,309245  	-0,047953  
64,556000  	22,164684  	30,723283  	26,132744  	-242,047242  	70,264250  	64,231181  	0,006608  	0,008420  	0,003964  	0,004241  	0,004359  	-0,000001  	-0,000000  	25,831849  	23,860936  	24,786680  	24,887583  	28,368557  	26,957918  	28,206590  	28,115918  	31,625588  	30,603844  	33,452103  	58,426714  	27,944949  	27,271392  	27,545402  	63,526274  	0,201646  	0,102175  	-3656,449534  	-27107,119313  	-0,102540  	-0,050018  	0,310547  	0,157356  	-3,974620  	9507,018760  	57127,947799  	8,285708  	-0,047967  
65,556000  	22,163364  	30,727530  	26,133082  	57,696365  	70,266181  	64,230093  	0,006619  	0,008454  	0,003963  	0,004238  	0,004323  	0,000000  	-0,000000  	25,837714  	23,863227  	24,787797  	24,891800  	28,373100  	26,958748  	28,212506  	28,114418  	31,630319  	30,607056  	33,454707  	58,430266  	27,943858  	27,268827  	27,545121  	63,531470  	0,199395  	0,101035  	-3617,992465  	1706,565489  	-0,053744  	-0,049998  	0,281778  	0,142779  	-3,608217  	9580,926366  	57346,446270  	8,317399  	-0,047950  
66,558000  	22,133399  	30,719713  	26,132283  	657,183579  	70,266929  	64,225180  	0,006617  	0,008493  	0,003962  	0,004221  	0,004332  	-0,000000  	-0,000000  	25,837561  	23,868505  	24,789041  	24,893376  	28,372795  	26,957490  	28,213789  	28,120847  	31,631445  	30,614682  	33,456269  	58,437514  	27,952826  	27,274266  	27,549674  	63,534614  	0,186013  	0,094254  	-3383,909814  	18406,025533  	-0,027544  	-0,050003  	0,289122  	0,146500  	-3,705726  	9665,375627  	57303,168829  	8,311122  	-0,047954  
67,555000  	22,129715  	30,710571  	26,132098  	-242,047242  	70,269203  	64,227294  	0,006607  	0,008387  	0,003962  	0,004221  	0,004322  	-0,000000  	-0,000000  	25,829869  	23,869757  	24,786187  	24,891741  	28,377088  	26,958499  	28,211550  	28,120974  	31,627794  	30,612927  	33,455924  	58,438316  	27,956408  	27,271341  	27,554951  	63,536042  	0,185490  	0,093989  	-3372,259225  	-27099,342987  	-0,102510  	-0,050002  	0,280966  	0,142368  	-3,601294  	9437,159161  	57088,405676  	8,279973  	-0,047953  
68,556000  	22,140767  	30,703677  	26,132160  	956,927186  	70,269888  	64,222506  	0,006620  	0,008388  	0,003963  	0,004289  	0,004340  	-0,000000  	-0,000000  	25,837586  	23,866018  	24,789309  	24,895471  	28,382609  	26,958951  	28,213584  	28,118069  	31,631373  	30,613333  	33,455082  	58,437885  	27,962094  	27,261324  	27,556865  	63,538427  	0,241101  	0,122168  	-4374,103993  	22442,925084  	-0,022145  	-0,050001  	0,295330  	0,149646  	-3,788828  	9438,786287  	57376,575955  	8,321769  	-0,047952  
69,555000  	22,150807  	30,694135  	26,132436  	956,927186  	70,269016  	64,227947  	0,006613  	0,008714  	0,003963  	0,004206  	0,004403  	-0,000000  	-0,000000  	25,843132  	23,864619  	24,785995  	24,895340  	28,378753  	26,956148  	28,212660  	28,112364  	31,632590  	30,615681  	33,456344  	58,431550  	27,965681  	27,258174  	27,552280  	63,540928  	0,173927  	0,088130  	-3148,210227  	22444,009473  	-0,022146  	-0,050004  	0,345090  	0,174859  	-4,422583  	10141,784007  	57236,102565  	8,301395  	-0,047955  
70,559000  	22,137912  	30,687549  	26,132313  	357,439972  	70,270387  	64,219801  	0,006609  	0,008943  	0,003963  	0,004242  	0,004344  	-0,000001  	-0,000000  	25,843751  	23,868047  	24,786016  	24,894107  	28,378333  	26,955956  	28,211144  	28,108117  	31,629898  	30,614821  	33,459785  	58,430688  	27,968772  	27,270106  	27,555226  	63,538274  	0,202943  	0,102832  	-3676,122265  	12442,226079  	-0,036429  	-0,050013  	0,299012  	0,151512  	-3,838096  	10634,731771  	57142,161780  	8,287770  	-0,047963  
71,556000  	22,126767  	30,684132  	26,130561  	357,439972  	70,276959  	64,236902  	0,006620  	0,008542  	0,003962  	0,004217  	0,004375  	0,000001  	-0,000000  	25,841544  	23,862317  	24,788733  	24,887541  	28,374447  	26,956459  	28,216825  	28,111699  	31,630268  	30,608226  	33,457297  	58,433105  	27,966997  	27,276929  	27,545277  	63,529039  	0,182088  	0,092266  	-3301,352600  	12437,416281  	-0,036415  	-0,049991  	0,323557  	0,163949  	-4,145943  	9769,750108  	57366,605692  	8,320323  	-0,047944  
72,556000  	22,145004  	30,682901  	26,129516  	956,927186  	70,286367  	64,280867  	0,006611  	0,008283  	0,003961  	0,004210  	0,004377  	-0,000001  	-0,000000  	25,836297  	23,851187  	24,788714  	24,890678  	28,371503  	26,956522  	28,210320  	28,107320  	31,627719  	30,599067  	33,454127  	58,425789  	27,972147  	27,288600  	27,550373  	63,530884  	0,176528  	0,089448  	-3193,250204  	22446,617998  	-0,022148  	-0,050010  	0,324708  	0,164532  	-4,136905  	9210,951842  	57190,120725  	8,294726  	-0,047960  
73,555000  	22,151820  	30,686564  	26,128072  	1256,670793  	70,292784  	64,298372  	0,006611  	0,008405  	0,003965  	0,004245  	0,004373  	-0,000000  	-0,000000  	25,837186  	23,850562  	24,786985  	24,887473  	28,370497  	26,956434  	28,211989  	28,110279  	31,632502  	30,606892  	33,454675  	58,431825  	27,980499  	27,294610  	27,550703  	63,537625  	0,205131  	0,103941  	-3709,291569  	25501,279010  	-0,018517  	-0,050006  	0,321709  	0,163012  	-4,091139  	9474,336163  	57174,649870  	8,292482  	-0,047956  
74,556000  	22,098215  	30,695305  	26,126043  	657,183579  	70,297456  	64,289977  	0,006619  	0,008433  	0,003962  	0,004214  	0,004319  	-0,000001  	-0,000000  	25,850692  	23,862468  	24,788807  	24,885419  	28,380296  	26,954123  	28,212734  	28,113052  	31,633211  	30,622507  	33,456283  	58,442280  	27,986753  	27,303961  	27,553977  	63,536152  	0,180404  	0,091412  	-3286,003963  	18407,557322  	-0,027546  	-0,050006  	0,278672  	0,141205  	-3,551565  	9534,590058  	57351,749151  	8,318168  	-0,047957  
75,555000  	22,077308  	30,704908  	26,125397  	657,183579  	70,302441  	64,280743  	0,006610  	0,008433  	0,003961  	0,004273  	0,004345  	0,000000  	-0,000000  	25,835395  	23,866122  	24,780280  	24,886858  	28,368763  	26,953207  	28,205335  	28,107311  	31,631066  	30,612980  	33,457843  	58,440254  	27,986831  	27,293267  	27,546986  	63,528857  	0,227961  	0,115510  	-4166,989819  	18405,262414  	-0,027542  	-0,049999  	0,299183  	0,151598  	-3,821990  	9534,620479  	57164,227696  	8,290970  	-0,047951  
76,556000  	22,092658  	30,710448  	26,125152  	57,696365  	70,300447  	64,267684  	0,006607  	0,008419  	0,003963  	0,004247  	0,004367  	-0,000001  	-0,000000  	25,840631  	23,866325  	24,790496  	24,892423  	28,375413  	26,955436  	28,207065  	28,122427  	31,632378  	30,614495  	33,453212  	58,441333  	27,998443  	27,282442  	27,544060  	63,535637  	0,206455  	0,104612  	-3769,571877  	1707,622010  	-0,053763  	-0,050018  	0,316919  	0,160585  	-4,055990  	9505,163129  	57096,603606  	8,281162  	-0,047967  
77,555000  	22,113167  	30,702138  	26,124168  	57,696365  	70,296117  	64,258262  	0,006619  	0,008609  	0,003963  	0,004245  	0,004387  	-0,000001  	-0,000000  	25,841808  	23,861224  	24,785573  	24,892224  	28,373725  	26,950239  	28,221402  	28,120186  	31,641166  	30,613903  	33,452816  	58,439398  	28,001439  	27,266695  	27,551669  	63,536011  	0,205224  	0,103988  	-3734,556790  	1707,380718  	-0,053754  	-0,050008  	0,332747  	0,168605  	-4,262151  	9915,082891  	57345,973177  	8,317330  	-0,047958  
78,555000  	22,123053  	30,683732  	26,123615  	1256,670793  	70,296865  	64,246385  	0,006609  	0,008667  	0,003963  	0,004222  	0,004336  	0,000000  	-0,000000  	25,830412  	23,857122  	24,786506  	24,889393  	28,365605  	26,943496  	28,206057  	28,108973  	31,626249  	30,596549  	33,446080  	58,425456  	27,999968  	27,252407  	27,538931  	63,527906  	0,186501  	0,094501  	-3382,661879  	25498,017423  	-0,018515  	-0,049998  	0,292120  	0,148020  	-3,749583  	10039,891954  	57135,764429  	8,286842  	-0,047950  
79,557000  	22,135855  	30,667943  	26,121955  	357,439972  	70,289918  	64,268274  	0,006614  	0,008666  	0,003961  	0,004227  	0,004379  	0,000000  	-0,000000  	25,837929  	23,860497  	24,781482  	24,882524  	28,362438  	26,952157  	28,200910  	28,110635  	31,619195  	30,599583  	33,447086  	58,421726  	27,995688  	27,233624  	27,536030  	63,526649  	0,190370  	0,096462  	-3441,311519  	12439,783765  	-0,036421  	-0,050000  	0,326750  	0,165567  	-4,174101  	10036,770702  	57249,059671  	8,303274  	-0,047951  
80,556000  	22,153662  	30,661910  	26,122262  	-242,047242  	70,283501  	64,279716  	0,006620  	0,008433  	0,003963  	0,004247  	0,004352  	-0,000001  	-0,000000  	25,835508  	23,856298  	24,782196  	24,885010  	28,369992  	26,948191  	28,198273  	28,103840  	31,622765  	30,606681  	33,451101  	58,426961  	28,013857  	27,219986  	27,549346  	63,526494  	0,206490  	0,104630  	-3722,272673  	-27103,846993  	-0,102531  	-0,050012  	0,305247  	0,154671  	-3,887848  	9536,220014  	57369,726695  	8,320775  	-0,047961  
81,555000  	22,170394  	30,670128  	26,121217  	1256,670793  	70,285277  	64,309721  	0,006611  	0,008429  	0,003961  	0,004240  	0,004376  	0,000000  	-0,000000  	25,821298  	23,846237  	24,770531  	24,875966  	28,364574  	26,934991  	28,196992  	28,098669  	31,615090  	30,602945  	33,435222  	58,419074  	28,005467  	27,208358  	27,526990  	63,514068  	0,201065  	0,101881  	-3620,840647  	25496,528398  	-0,018514  	-0,049995  	0,324249  	0,164300  	-4,110476  	9527,498618  	57175,963233  	8,292672  	-0,047947  
82,558000  	22,149088  	30,680593  	26,121217  	1256,670793  	70,286959  	64,315256  	0,006611  	0,008728  	0,003963  	0,004191  	0,004355  	0,000000  	-0,000000  	25,827991  	23,848028  	24,779811  	24,885061  	28,351069  	26,944199  	28,204589  	28,111747  	31,614958  	30,602740  	33,446615  	58,425585  	28,014692  	27,194940  	27,541907  	63,516244  	0,161251  	0,081707  	-2914,716411  	25498,664556  	-0,018515  	-0,050000  	0,307498  	0,155811  	-3,895604  	10171,692707  	57173,802539  	8,292359  	-0,047951  
83,556000  	22,100272  	30,691396  	26,120756  	357,439972  	70,289139  	64,306146  	0,006620  	0,008402  	0,003963  	0,004239  	0,004360  	0,000001  	-0,000000  	25,828511  	23,858884  	24,788011  	24,879835  	28,369782  	26,946212  	28,205081  	28,108772  	31,620630  	30,603158  	33,454466  	58,426526  	28,018526  	27,201706  	27,542044  	63,517398  	0,199936  	0,101309  	-3639,252493  	12437,840310  	-0,036415  	-0,049991  	0,311312  	0,157744  	-3,951375  	9469,575758  	57379,612226  	8,322209  	-0,047944  
84,559000  	22,101316  	30,700076  	26,122047  	-242,047242  	70,288142  	64,304902  	0,006610  	0,008843  	0,003962  	0,004242  	0,004376  	-0,000001  	-0,000000  	25,822496  	23,858289  	24,783501  	24,879053  	28,363116  	26,943371  	28,201287  	28,100964  	31,613545  	30,605354  	33,448899  	58,431233  	28,016832  	27,198942  	27,538913  	63,511838  	0,202529  	0,102623  	-3689,717258  	-27103,929866  	-0,102532  	-0,050012  	0,323723  	0,164033  	-4,109081  	10419,399314  	57165,322166  	8,291129  	-0,047962  
85,554000  	22,143745  	30,706570  	26,121555  	956,927186  	70,286242  	64,301357  	0,006614  	0,008970  	0,003964  	0,004230  	0,004370  	-0,000000  	-0,000000  	25,832328  	23,860021  	24,784633  	24,887889  	28,367068  	26,953929  	28,208503  	28,108983  	31,623132  	30,607755  	33,450849  	58,431709  	28,017320  	27,191881  	27,539088  	63,513291  	0,192844  	0,097716  	-3498,585319  	22445,123749  	-0,022147  	-0,050006  	0,319355  	0,161819  	-4,054745  	10692,717594  	57249,730475  	8,303371  	-0,047956  
86,556000  	22,156149  	30,704416  	26,121432  	-242,047242  	70,281694  	64,295263  	0,006619  	0,008464  	0,003965  	0,004257  	0,004401  	0,000001  	-0,000000  	25,837956  	23,850530  	24,781914  	24,892423  	28,364634  	26,954744  	28,208158  	28,104064  	31,627087  	30,607639  	33,452298  	58,429681  	28,015630  	27,192289  	27,544632  	63,511428  	0,215159  	0,109022  	-3896,777047  	-27091,671498  	-0,102485  	-0,049986  	0,343489  	0,174048  	-4,362291  	9603,214456  	57351,996290  	8,318204  	-0,047940  
87,557000  	22,147951  	30,695921  	26,121525  	657,183579  	70,280355  	64,337394  	0,006606  	0,008842  	0,003962  	0,004222  	0,004370  	-0,000000  	-0,000000  	25,828368  	23,851999  	24,779207  	24,880645  	28,363738  	26,952847  	28,202602  	28,098219  	31,614651  	30,603699  	33,453594  	58,430136  	28,013998  	27,211583  	27,538323  	63,502969  	0,186502  	0,094502  	-3377,652710  	18406,785407  	-0,027544  	-0,050003  	0,319328  	0,161806  	-4,026015  	10417,079598  	57078,082358  	8,278476  	-0,047954  
88,555000  	22,134873  	30,691181  	26,122324  	57,696365  	70,279046  	64,354247  	0,006610  	0,008374  	0,003962  	0,004235  	0,004369  	-0,000000  	-0,000000  	25,826833  	23,853785  	24,776700  	24,877622  	28,368597  	26,955217  	28,199598  	28,103448  	31,620082  	30,603335  	33,449079  	58,430735  	28,018218  	27,232674  	27,540041  	63,502132  	0,196903  	0,099772  	-3569,508016  	1707,350688  	-0,053750  	-0,050004  	0,318165  	0,161217  	-3,999107  	9408,294651  	57168,210153  	8,291548  	-0,047954  
89,555000  	22,149609  	30,705493  	26,123031  	956,927186  	70,278330  	64,349210  	0,006620  	0,008453  	0,003963  	0,004237  	0,004350  	0,000000  	-0,000000  	25,830656  	23,854042  	24,780789  	24,880908  	28,366024  	26,952904  	28,195355  	28,103412  	31,626895  	30,608530  	33,450943  	58,429331  	28,020588  	27,258634  	27,544235  	63,507832  	0,198990  	0,100830  	-3607,157037  	22442,630671  	-0,022144  	-0,049999  	0,303075  	0,153570  	-3,812209  	9579,214346  	57384,357280  	8,322897  	-0,047951  
90,557000  	22,167478  	30,717866  	26,122109  	357,439972  	70,278018  	64,350889  	0,006611  	0,008467  	0,003963  	0,004234  	0,004378  	-0,000000  	-0,000000  	25,833260  	23,855173  	24,778865  	24,888691  	28,364639  	26,951508  	28,199333  	28,110933  	31,628413  	30,607957  	33,457291  	58,435669  	28,022626  	27,286102  	27,549680  	63,508509  	0,195952  	0,099290  	-3549,794984  	12441,064201  	-0,036425  	-0,050006  	0,325657  	0,165013  	-4,094885  	9607,962835  	57182,007529  	8,293549  	-0,047956  
91,555000  	22,155780  	30,721929  	26,122662  	357,439972  	70,273626  	64,339975  	0,006613  	0,008429  	0,003963  	0,004229  	0,004348  	0,000000  	-0,000000  	25,835017  	23,856545  	24,779784  	24,889213  	28,363789  	26,946218  	28,202025  	28,115041  	31,625292  	30,606705  	33,456800  	58,434127  	28,024552  	27,307050  	27,546811  	63,513094  	0,192218  	0,097398  	-3488,580096  	12439,470681  	-0,036420  	-0,049999  	0,302024  	0,153038  	-3,801892  	9526,474236  	57235,311723  	8,301280  	-0,047950  
92,557000  	22,129623  	30,723714  	26,122600  	956,927186  	70,269826  	64,303036  	0,006620  	0,008878  	0,003962  	0,004241  	0,004333  	0,000001  	-0,000000  	25,829402  	23,854133  	24,783736  	24,881317  	28,359892  	26,944918  	28,202823  	28,106616  	31,621626  	30,601494  	33,452431  	58,425310  	28,024356  	27,323535  	27,543964  	63,513656  	0,201950  	0,102330  	-3677,170426  	22439,482759  	-0,022141  	-0,049992  	0,289856  	0,146872  	-3,669079  	10495,087562  	57369,493679  	8,320742  	-0,047944  
93,554000  	22,121886  	30,721621  	26,121432  	1256,670793  	70,261633  	64,278504  	0,006606  	0,008857  	0,003964  	0,004240  	0,004329  	0,000001  	-0,000000  	25,825651  	23,849166  	24,787363  	24,880930  	28,367406  	26,952988  	28,208924  	28,106396  	31,626183  	30,604936  	33,452770  	58,427727  	28,030870  	27,337510  	27,546634  	63,506967  	0,200965  	0,101830  	-3661,633025  	25493,546871  	-0,018512  	-0,049988  	0,286620  	0,145232  	-3,638041  	10450,382625  	57082,898024  	8,279174  	-0,047941  
94,555000  	22,116053  	30,717866  	26,121801  	1256,670793  	70,254469  	64,287521  	0,006612  	0,008391  	0,003963  	0,004262  	0,004326  	-0,000001  	-0,000000  	25,833801  	23,851143  	24,789302  	24,881946  	28,372393  	26,952638  	28,207968  	28,112359  	31,628844  	30,609104  	33,452499  	58,434811  	28,039908  	27,349685  	27,543729  	63,508639  	0,218520  	0,110726  	-3982,457290  	25506,490048  	-0,018521  	-0,050017  	0,284439  	0,144127  	-3,600602  	9443,763171  	57215,279401  	8,298375  	-0,047966  
95,556000  	22,126921  	30,708817  	26,121893  	1256,670793  	70,248207  	64,334098  	0,006621  	0,008571  	0,003963  	0,004203  	0,004368  	0,000000  	-0,000000  	25,837283  	23,856072  	24,783812  	24,878589  	28,362231  	26,948380  	28,202914  	28,110667  	31,625150  	30,597890  	33,449092  	58,437396  	28,040017  	27,363768  	27,543285  	63,506781  	0,171128  	0,086712  	-3111,526681  	25497,042414  	-0,018514  	-0,049996  	0,317724  	0,160993  	-3,986347  	9832,446815  	57400,739017  	8,325273  	-0,047948  
96,588000  	22,141842  	30,706662  	26,120971  	57,696365  	70,248457  	64,344048  	0,006604  	0,008387  	0,003963  	0,004228  	0,004342  	0,000000  	-0,000000  	25,834326  	23,855770  	24,782756  	24,884693  	28,363238  	26,954046  	28,210855  	28,113073  	31,628795  	30,603888  	33,453234  	58,437437  	28,045946  	27,377360  	27,549438  	63,497496  	0,191157  	0,096861  	-3468,782676  	1707,171631  	-0,053742  	-0,049995  	0,296973  	0,150478  	-3,719889  	9436,918629  	57024,785226  	8,270746  	-0,047947  
97,557000  	22,148811  	30,713557  	26,120264  	57,696365  	70,245373  	64,307296  	0,006618  	0,008419  	0,003965  	0,004202  	0,004386  	-0,000001  	-0,000000  	25,838810  	23,855145  	24,779695  	24,888561  	28,364758  	26,956942  	28,214400  	28,120297  	31,634390  	30,607828  	33,460074  	58,434214  	28,060567  	27,387645  	27,553021  	63,502215  	0,170640  	0,086465  	-3096,452339  	1707,660282  	-0,053756  	-0,050010  	0,331830  	0,168141  	-4,180188  	9505,214772  	57335,593370  	8,315825  	-0,047960  
98,557000  	22,152864  	30,715404  	26,120756  	657,183579  	70,241822  	64,278504  	0,006621  	0,008533  	0,003962  	0,004232  	0,004335  	-0,000000  	-0,000000  	25,836658  	23,846783  	24,779904  	24,883069  	28,364802  	26,958162  	28,200000  	28,117912  	31,633663  	30,610514  	33,460575  	58,435084  	28,065046  	27,400246  	27,549991  	63,499909  	0,194646  	0,098629  	-3531,164026  	18405,968882  	-0,027543  	-0,050001  	0,291336  	0,147622  	-3,685654  	9750,074616  	57390,436882  	8,323779  	-0,047952  
99,554000  	22,163087  	30,713095  	26,120018  	657,183579  	70,237616  	64,245297  	0,006608  	0,008460  	0,003962  	0,004226  	0,004343  	0,000001  	-0,000000  	25,831964  	23,849533  	24,782366  	24,886407  	28,368147  	26,959414  	28,205629  	28,116254  	31,624061  	30,606566  	33,450322  	58,436357  	28,071668  	27,400843  	27,547430  	63,491891  	0,189976  	0,096262  	-3441,390527  	18402,394710  	-0,027538  	-0,049990  	0,298263  	0,151132  	-3,791631  	9594,495890  	57108,812236  	8,282933  	-0,047943  
100,558000  	22,162535  	30,705524  	26,118912  	57,696365  	70,230826  	64,235409  	0,006617  	0,008668  	0,003963  	0,004213  	0,004389  	0,000000  	-0,000000  	25,834131  	23,854327  	24,779046  	24,883087  	28,375433  	26,955905  	28,200248  	28,112576  	31,623073  	30,610532  	33,454826  	58,434310  	28,079985  	27,391417  	27,544854  	63,503118  	0,179502  	0,090955  	-3248,984704  	1707,314170  	-0,053743  	-0,049996  	0,334181  	0,169332  	-4,250425  	10042,825026  	57305,477807  	8,311457  	-0,047948  
101,559000  	22,175337  	30,696105  	26,118758  	-242,047242  	70,223973  	64,237897  	0,006621  	0,008372  	0,003964  	0,004235  	0,004374  	-0,000001  	-0,000000  	25,834764  	23,851802  	24,773110  	24,877788  	28,363695  	26,948497  	28,197733  	28,106630  	31,622704  	30,601627  	33,454945  	58,426933  	28,076047  	27,362649  	27,539644  	63,493523  	0,196961  	0,099801  	-3555,707222  	-27104,201313  	-0,102534  	-0,050012  	0,322680  	0,163504  	-4,097744  	9404,849388  	57405,356972  	8,325943  	-0,047962  
102,557000  	22,196890  	30,693951  	26,119004  	357,439972  	70,218739  	64,253941  	0,006609  	0,008688  	0,003962  	0,004228  	0,004365  	0,000001  	-0,000000  	25,832658  	23,846756  	24,771048  	24,880414  	28,370874  	26,943336  	28,195283  	28,105237  	31,621627  	30,602440  	33,447882  	58,439245  	28,076253  	27,338735  	27,533112  	63,491088  	0,191590  	0,097080  	-3449,117647  	12438,214591  	-0,036416  	-0,049992  	0,315100  	0,159664  	-3,987274  	10086,124267  	57146,412558  	8,288386  	-0,047945  
103,555000  	22,228943  	30,696536  	26,117990  	1256,670793  	70,215780  	64,243898  	0,006614  	0,008371  	0,003962  	0,004248  	0,004331  	-0,000001  	-0,000000  	25,842792  	23,860769  	24,780536  	24,890150  	28,375061  	26,960321  	28,222439  	28,124310  	31,630651  	30,621394  	33,472119  	58,441707  	28,088130  	27,339582  	27,557440  	63,512805  	0,207598  	0,105192  	-3724,346875  	25507,113908  	-0,018522  	-0,050018  	0,288208  	0,146037  	-3,651310  	9401,557641  	57253,847093  	8,303968  	-0,047967  
104,556000  	22,246075  	30,700537  	26,116945  	1256,670793  	70,219269  	64,231212  	0,006620  	0,008363  	0,003962  	0,004248  	0,004353  	0,000000  	-0,000000  	25,833785  	23,857730  	24,777030  	24,887530  	28,377085  	26,953313  	28,216322  	28,112866  	31,627608  	30,613282  	33,449738  	58,433538  	28,096103  	27,311326  	27,543990  	63,511538  	0,207274  	0,105027  	-3712,751672  	25497,516317  	-0,018515  	-0,049997  	0,305805  	0,154954  	-3,884729  	9385,488002  	57382,253075  	8,322592  	-0,047949  
105,556000  	22,236987  	30,704046  	26,116822  	956,927186  	70,225374  	64,225429  	0,006606  	0,008807  	0,003961  	0,004241  	0,004380  	0,000001  	-0,000000  	25,836742  	23,848456  	24,773508  	24,887238  	28,366446  	26,951662  	28,210074  	28,104065  	31,633047  	30,613220  	33,459058  	58,436622  	28,095581  	27,309192  	27,544388  	63,502287  	0,202208  	0,102460  	-3627,412488  	22438,723497  	-0,022140  	-0,049989  	0,326875  	0,165630  	-4,160632  	10342,893966  	57070,745882  	8,277412  	-0,047942  
106,557000  	22,242943  	30,710448  	26,116391  	-242,047242  	70,229673  	64,216972  	0,006613  	0,008642  	0,003962  	0,004216  	0,004360  	0,000000  	-0,000000  	25,828989  	23,850219  	24,776583  	24,882119  	28,372160  	26,954747  	28,211610  	28,116846  	31,620480  	30,602843  	33,451382  	58,440300  	28,096919  	27,323567  	27,545505  	63,510907  	0,181570  	0,092003  	-3257,364331  	-27097,070195  	-0,102508  	-0,049998  	0,311443  	0,157810  	-3,972626  	9985,444069  	57218,845253  	8,298892  	-0,047950  
107,554000  	22,251602  	30,722083  	26,115469  	-242,047242  	70,235280  	64,241255  	0,006624  	0,008353  	0,003962  	0,004203  	0,004343  	0,000000  	-0,000000  	25,815722  	23,856656  	24,763187  	24,881754  	28,368016  	26,949359  	28,201932  	28,102415  	31,614321  	30,595715  	33,449647  	58,431006  	28,090051  	27,322955  	27,549633  	63,510499  	0,171450  	0,086875  	-3076,878032  	-27096,765416  	-0,102507  	-0,049997  	0,297897  	0,150946  	-3,788044  	9362,981311  	57461,513847  	8,334088  	-0,047949  
108,557000  	22,231891  	30,730454  	26,115408  	956,927186  	70,237024  	64,278628  	0,006607  	0,008420  	0,003962  	0,004224  	0,004367  	-0,000001  	-0,000000  	25,830799  	23,847230  	24,774466  	24,881202  	28,367705  	26,953111  	28,201467  	28,107661  	31,619348  	30,604693  	33,457301  	58,431492  	28,091801  	27,326823  	27,537559  	63,511146  	0,188125  	0,095324  	-3387,329780  	22448,181139  	-0,022150  	-0,050013  	0,316718  	0,160483  	-4,003458  	9506,858877  	57103,452866  	8,282156  	-0,047962  
109,556000  	22,194741  	30,740735  	26,114394  	956,927186  	70,239330  	64,270917  	0,006617  	0,008586  	0,003962  	0,004212  	0,004341  	0,000001  	-0,000000  	25,827697  	23,847530  	24,771891  	24,872204  	28,366545  	26,941032  	28,201821  	28,095792  	31,627406  	30,604058  	33,444289  	58,437857  	28,094978  	27,324617  	27,534083  	63,509321  	0,178400  	0,090396  	-3230,161490  	22438,643316  	-0,022140  	-0,049989  	0,296422  	0,150199  	-3,753200  	9864,431162  	57316,387196  	8,313039  	-0,047942  
110,560000  	22,147276  	30,755324  	26,113594  	-242,047242  	70,241510  	64,254500  	0,006617  	0,009001  	0,003963  	0,004253  	0,004379  	-0,000000  	-0,000000  	25,842297  	23,861640  	24,788342  	24,887769  	28,376724  	26,958454  	28,215065  	28,123085  	31,637151  	30,613702  	33,454961  	58,442618  	28,108023  	27,340654  	27,543122  	63,521677  	0,211614  	0,107226  	-3859,378943  	-27099,131793  	-0,102517  	-0,050002  	0,326330  	0,165354  	-4,144748  	10760,339541  	57310,738321  	8,312220  	-0,047953  
111,556000  	22,117987  	30,762064  	26,113594  	-242,047242  	70,238893  	64,253723  	0,006605  	0,008328  	0,003963  	0,004236  	0,004404  	-0,000001  	-0,000000  	25,838678  	23,857202  	24,782743  	24,885501  	28,379054  	26,951349  	28,217148  	28,119932  	31,634091  	30,612971  	33,463654  	58,438528  	28,105868  	27,340384  	27,537384  	63,526354  	0,197635  	0,100143  	-3619,532850  	-27105,783433  	-0,102542  	-0,050016  	0,346318  	0,175482  	-4,397271  	9309,743159  	57060,867412  	8,275979  	-0,047965  
112,559000  	22,146416  	30,757140  	26,112918  	956,927186  	70,235031  	64,264854  	0,006617  	0,008381  	0,003963  	0,004240  	0,004355  	0,000000  	-0,000000  	25,835853  	23,849274  	24,781940  	24,889570  	28,377646  	26,954881  	28,212011  	28,115930  	31,626856  	30,611621  	33,461620  	58,437825  	28,107080  	27,335577  	27,527276  	63,533346  	0,201222  	0,101961  	-3670,997166  	22441,949956  	-0,022143  	-0,049997  	0,307504  	0,155815  	-3,894667  	9422,568084  	57319,663543  	8,313514  	-0,047949  
113,556000  	22,169258  	30,745598  	26,110613  	-242,047242  	70,236215  	64,285407  	0,006619  	0,008367  	0,003962  	0,004199  	0,004317  	0,000000  	-0,000000  	25,840641  	23,856213  	24,785304  	24,893478  	28,379895  	26,956432  	28,218242  	28,113745  	31,624936  	30,612846  	33,460770  	58,435238  	28,111773  	27,333911  	27,542777  	63,534029  	0,167500  	0,084873  	-3043,577823  	-27095,540058  	-0,102504  	-0,049995  	0,277073  	0,140395  	-3,497866  	9393,772904  	57365,560650  	8,320171  	-0,047947  
114,557000  	22,163732  	30,732732  	26,110060  	357,439972  	70,237585  	64,269363  	0,006609  	0,008552  	0,003962  	0,004260  	0,004362  	-0,000000  	-0,000000  	25,838669  	23,854828  	24,783516  	24,891100  	28,383411  	26,959324  	28,211417  	28,112405  	31,628881  	30,616428  	33,458114  	58,437016  	28,109030  	27,328883  	27,538634  	63,533005  	0,217152  	0,110032  	-3942,411497  	12441,646692  	-0,036425  	-0,050006  	0,313101  	0,158651  	-3,964262  	9792,410315  	57145,642899  	8,288275  	-0,047956  
115,556000  	22,152219  	30,723683  	26,108861  	1256,670793  	70,243691  	64,237151  	0,006618  	0,008374  	0,003965  	0,004232  	0,004367  	0,000000  	-0,000000  	25,837259  	23,853915  	24,782330  	24,889692  	28,378228  	26,956230  	28,208796  	28,113596  	31,623521  	30,609191  	33,458225  	58,433648  	28,100862  	27,321013  	27,531539  	63,533706  	0,194754  	0,098683  	-3536,788907  	25498,618300  	-0,018515  	-0,049999  	0,316737  	0,160493  	-4,036031  	9408,006720  	57325,255929  	8,314325  	-0,047950  
116,558000  	22,136438  	30,716604  	26,107754  	1256,670793  	70,253410  	64,233730  	0,006618  	0,008430  	0,003963  	0,004262  	0,004406  	0,000000  	-0,000000  	25,834529  	23,855890  	24,775774  	24,893121  	28,367482  	26,951256  	28,208280  	28,111568  	31,624269  	30,608508  	33,456325  	58,430849  	28,096046  	27,316819  	27,532389  	63,533602  	0,218804  	0,110869  	-3977,582434  	25498,532748  	-0,018515  	-0,049998  	0,347543  	0,176102  	-4,438254  	9528,474186  	57338,876778  	8,316301  	-0,047950  
117,555000  	22,120443  	30,711033  	26,107847  	956,927186  	70,257926  	64,224589  	0,006606  	0,008536  	0,003962  	0,004231  	0,004337  	-0,000000  	-0,000000  	25,836569  	23,853897  	24,776483  	24,892390  	28,371481  	26,956388  	28,209625  	28,116148  	31,628302  	30,613692  	33,453042  	58,432011  	28,100345  	27,314502  	27,542177  	63,535408  	0,193946  	0,098274  	-3529,993391  	22443,723721  	-0,022145  	-0,050001  	0,293299  	0,148617  	-3,754030  	9757,809124  	57084,239631  	8,279369  	-0,047952  
118,558000  	22,132662  	30,707463  	26,106433  	-242,047242  	70,255746  	64,223408  	0,006617  	0,008373  	0,003962  	0,004240  	0,004359  	0,000001  	-0,000000  	25,840774  	23,855672  	24,782625  	24,892552  	28,380361  	26,962467  	28,217905  	28,120504  	31,632094  	30,612531  	33,459170  	58,431772  	28,107276  	27,312048  	27,546792  	63,544208  	0,200942  	0,101819  	-3650,593624  	-27090,822281  	-0,102488  	-0,049985  	0,310493  	0,157329  	-3,973443  	9406,864902  	57312,828405  	8,312523  	-0,047939  
119,557000  	22,148873  	30,701553  	26,105234  	657,183579  	70,251291  	64,218153  	0,006616  	0,008434  	0,003960  	0,004256  	0,004311  	-0,000000  	-0,000000  	25,843140  	23,861976  	24,788253  	24,898318  	28,380406  	26,963063  	28,215970  	28,119519  	31,642444  	30,616376  	33,468901  	58,431549  	28,106247  	27,312123  	27,545661  	63,553229  	0,214006  	0,108439  	-3877,911838  	18406,691047  	-0,027544  	-0,050001  	0,272782  	0,138221  	-3,491312  	9537,704236  	57289,032521  	8,309072  	-0,047952  
120,560000  	22,180987  	30,693181  	26,103882  	1256,670793  	70,247616  	64,214111  	0,006609  	0,008683  	0,003963  	0,004246  	0,004367  	0,000000  	-0,000000  	25,841965  	23,859137  	24,789763  	24,899293  	28,376669  	26,962036  	28,210824  	28,119442  	31,642551  	30,617088  	33,465669  	58,432240  	28,102502  	27,299960  	27,545743  	63,551982  	0,206040  	0,104402  	-3715,870476  	25497,001822  	-0,018514  	-0,049995  	0,316996  	0,160624  	-4,057443  	10073,968220  	57130,030821  	8,286010  	-0,047947  
121,557000  	22,207605  	30,682409  	26,102406  	956,927186  	70,243192  	64,211872  	0,006618  	0,008324  	0,003962  	0,004241  	0,004358  	0,000001  	-0,000000  	25,838899  	23,855290  	24,788330  	24,899964  	28,376427  	26,962924  	28,217340  	28,116357  	31,636616  	30,611451  	33,460658  	58,431822  	28,101660  	27,284453  	27,540097  	63,551834  	0,201581  	0,102143  	-3619,479874  	22439,735662  	-0,022141  	-0,049990  	0,309707  	0,156931  	-3,962713  	9301,269369  	57325,340662  	8,314338  	-0,047943  
122,556000  	22,191886  	30,679885  	26,100931  	357,439972  	70,244064  	64,232145  	0,006618  	0,008616  	0,003962  	0,004241  	0,004330  	-0,000000  	-0,000000  	25,847762  	23,865350  	24,795833  	24,908130  	28,383684  	26,966031  	28,218530  	28,116845  	31,644731  	30,621923  	33,468944  	58,433559  	28,097698  	27,287632  	27,539520  	63,561386  	0,202032  	0,102371  	-3633,222724  	12440,940256  	-0,036422  	-0,050000  	0,287296  	0,145575  	-3,664147  	9930,902802  	57328,708804  	8,314826  	-0,047952  
123,559000  	22,188846  	30,683486  	26,099363  	1256,670793  	70,250419  	64,240073  	0,006610  	0,008350  	0,003961  	0,004231  	0,004366  	0,000000  	-0,000000  	25,849113  	23,868330  	24,787185  	24,906450  	28,381439  	26,960677  	28,218177  	28,121030  	31,641530  	30,623730  	33,470198  	58,434574  	28,096015  	27,268786  	27,534024  	63,560202  	0,193758  	0,098179  	-3487,168706  	25498,617673  	-0,018515  	-0,049998  	0,316295  	0,160269  	-4,032949  	9356,576801  	57162,900211  	8,290778  	-0,047950  
124,555000  	22,180434  	30,695921  	26,097581  	1256,670793  	70,259203  	64,239825  	0,006617  	0,008476  	0,003962  	0,004230  	0,004389  	-0,000001  	-0,000000  	25,841147  	23,861181  	24,784283  	24,892365  	28,379429  	26,961339  	28,213430  	28,121669  	31,636446  	30,619907  	33,466902  	58,430045  	28,098001  	27,246799  	27,529329  	63,556597  	0,192574  	0,097579  	-3474,369850  	25502,501540  	-0,018518  	-0,050006  	0,334021  	0,169251  	-4,265373  	9627,579609  	57321,146373  	8,313729  	-0,047957  
125,556000  	22,157715  	30,710479  	26,097857  	1256,670793  	70,261571  	64,233824  	0,006618  	0,008501  	0,003963  	0,004202  	0,004361  	-0,000000  	-0,000000  	25,848472  	23,857990  	24,788669  	24,891925  	28,380361  	26,961860  	28,216029  	28,117754  	31,635367  	30,617102  	33,462426  	58,438176  	28,102371  	27,237316  	27,544968  	63,562255  	0,170003  	0,086142  	-3080,578911  	25500,778378  	-0,018517  	-0,050003  	0,311866  	0,158025  	-3,987989  	9683,076636  	57340,613807  	8,316553  	-0,047954  
126,555000  	22,156794  	30,715219  	26,097242  	1256,670793  	70,264188  	64,229657  	0,006610  	0,008428  	0,003964  	0,004226  	0,004356  	-0,000001  	-0,000000  	25,840475  	23,860692  	24,781044  	24,899765  	28,377471  	26,956782  	28,207976  	28,117070  	31,631605  	30,611427  	33,456511  	58,427662  	28,095101  	27,216524  	27,533570  	63,561374  	0,189866  	0,096207  	-3442,785722  	25503,539518  	-0,018519  	-0,050009  	0,308174  	0,156154  	-3,945205  	9523,657186  	57164,044108  	8,290944  	-0,047959  
127,560000  	22,140675  	30,715865  	26,096228  	357,439972  	70,267521  	64,226859  	0,006621  	0,008392  	0,003963  	0,004228  	0,004327  	0,000001  	-0,000000  	25,834540  	23,856214  	24,784163  	24,895022  	28,382455  	26,954471  	28,214610  	28,115735  	31,632860  	30,613840  	33,459299  	58,432501  	28,090727  	27,190630  	27,531431  	63,556896  	0,191095  	0,096829  	-3471,862803  	12439,384480  	-0,036417  	-0,049992  	0,284856  	0,144338  	-3,650392  	9446,678556  	57397,441486  	8,324795  	-0,047945  
128,556000  	22,108991  	30,712910  	26,096290  	-242,047242  	70,269577  	64,232207  	0,006609  	0,008433  	0,003962  	0,004247  	0,004361  	-0,000000  	-0,000000  	25,851357  	23,875944  	24,792360  	24,910120  	28,392905  	26,970203  	28,220462  	28,135553  	31,636421  	30,621644  	33,476793  	58,446420  	28,101208  	27,179482  	27,539764  	63,566986  	0,206461  	0,104615  	-3763,606757  	-27099,326295  	-0,102524  	-0,050003  	0,312232  	0,158210  	-3,999045  	9536,398291  	57142,536018  	8,287824  	-0,047954  
129,556000  	22,060607  	30,707432  	26,096105  	1256,670793  	70,275713  	64,228693  	0,006610  	0,008431  	0,003963  	0,004216  	0,004366  	0,000000  	-0,000000  	25,838946  	23,854579  	24,779647  	24,888218  	28,378782  	26,950410  	28,212604  	28,110709  	31,629135  	30,614287  	33,448922  	58,426430  	28,090849  	27,153379  	27,528654  	63,542131  	0,181346  	0,091889  	-3322,282123  	25497,908995  	-0,018515  	-0,049996  	0,316505  	0,160375  	-4,060244  	9530,552663  	57157,562024  	8,290003  	-0,047948  
130,555000  	22,044335  	30,700414  	26,095798  	1256,670793  	70,278455  	64,230932  	0,006619  	0,008442  	0,003963  	0,004236  	0,004364  	0,000001  	-0,000000  	25,840629  	23,856043  	24,777644  	24,889758  	28,382524  	26,957616  	28,211192  	28,121297  	31,628905  	30,612515  	33,463178  	58,423821  	28,087074  	27,153136  	27,542549  	63,545552  	0,197531  	0,100091  	-3622,676957  	25493,558727  	-0,018511  	-0,049987  	0,314623  	0,159422  	-4,036445  	9553,829056  	57362,919801  	8,319788  	-0,047940  
131,556000  	22,072887  	30,692012  	26,095613  	1256,670793  	70,281725  	64,222164  	0,006616  	0,008871  	0,003963  	0,004226  	0,004390  	0,000001  	-0,000000  	25,843920  	23,864420  	24,784526  	24,890411  	28,384785  	26,961135  	28,220456  	28,125628  	31,630700  	30,606970  	33,456249  	58,426228  	28,095289  	27,130742  	27,539032  	63,544593  	0,189930  	0,096239  	-3468,393101  	25493,620717  	-0,018511  	-0,049987  	0,335039  	0,169767  	-4,306923  	10480,692448  	57295,493421  	8,310009  	-0,047940  
132,556000  	22,115439  	30,677546  	26,095798  	1256,670793  	70,285588  	64,220672  	0,006611  	0,008918  	0,003963  	0,004242  	0,004364  	-0,000001  	-0,000000  	25,839127  	23,867377  	24,781883  	24,889984  	28,373543  	26,954357  	28,206401  	28,121227  	31,619712  	30,609628  	33,451345  	58,423571  	28,079099  	27,112549  	27,529241  	63,537421  	0,202853  	0,102787  	-3679,870711  	25506,226702  	-0,018521  	-0,050014  	0,314494  	0,159356  	-4,046379  	10580,432450  	57186,117086  	8,294145  	-0,047964  
133,559000  	22,168122  	30,658556  	26,094538  	57,696365  	70,292317  	64,254252  	0,006617  	0,008521  	0,003963  	0,004220  	0,004354  	0,000000  	-0,000000  	25,836009  	23,856292  	24,788176  	24,898490  	28,377975  	26,954125  	28,218560  	28,127427  	31,628569  	30,611041  	33,456756  	58,426699  	28,081953  	27,105368  	27,527282  	63,534993  	0,184667  	0,093572  	-3321,908062  	1708,804470  	-0,053749  	-0,050000  	0,306786  	0,155451  	-3,929756  	9725,123698  	57322,975196  	8,313995  	-0,047951  
134,554000  	22,178008  	30,645690  	26,094906  	1256,670793  	70,293936  	64,308353  	0,006614  	0,008534  	0,003962  	0,004290  	0,004352  	0,000001  	-0,000000  	25,832116  	23,859799  	24,789748  	24,890300  	28,371117  	26,946847  	28,213203  	28,114827  	31,623731  	30,605702  	33,452591  	58,428540  	28,075760  	27,091214  	27,534212  	63,525120  	0,241219  	0,122227  	-4327,569467  	25495,456779  	-0,018513  	-0,049991  	0,304844  	0,154467  	-3,870963  	9753,492996  	57244,935993  	8,302676  	-0,047943  
135,558000  	22,177824  	30,652523  	26,094630  	1256,670793  	70,294902  	64,332295  	0,006612  	0,008715  	0,003962  	0,004232  	0,004338  	0,000001  	-0,000000  	25,841946  	23,868233  	24,794766  	24,899580  	28,391211  	26,960617  	28,224750  	28,117511  	31,633970  	30,614823  	33,464759  	58,427357  	28,094117  	27,097019  	27,548629  	63,530691  	0,194382  	0,098495  	-3490,186063  	25496,830755  	-0,018514  	-0,049994  	0,294231  	0,149089  	-3,721869  	10144,285536  	57205,005510  	8,296885  	-0,047946  
136,555000  	22,205640  	30,675237  	26,094814  	1256,670793  	70,294092  	64,323091  	0,006620  	0,008568  	0,003961  	0,004218  	0,004405  	0,000001  	-0,000000  	25,842601  	23,864161  	24,786478  	24,895132  	28,385673  	26,957515  	28,219370  	28,111935  	31,635711  	30,615244  	33,461055  	58,423579  	28,089218  	27,090642  	27,542255  	63,522222  	0,183198  	0,092828  	-3287,378451  	25495,121777  	-0,018513  	-0,049990  	0,346990  	0,175822  	-4,395407  	9825,679385  	57379,816997  	8,322239  	-0,047943  
137,558000  	22,245829  	30,707340  	26,093646  	956,927186  	70,295556  	64,323371  	0,006612  	0,008502  	0,003964  	0,004227  	0,004357  	-0,000001  	-0,000000  	25,839374  	23,867588  	24,789540  	24,892399  	28,378497  	26,957165  	28,209297  	28,118998  	31,622488  	30,606441  	33,460661  	58,431673  	28,088748  	27,092105  	27,542392  	63,519702  	0,190645  	0,096601  	-3417,738347  	22448,644715  	-0,022150  	-0,050012  	0,308926  	0,156535  	-3,914020  	9684,492236  	57196,214449  	8,295610  	-0,047961  
138,556000  	22,239505  	30,715834  	26,093523  	357,439972  	70,296865  	64,346132  	0,006607  	0,008663  	0,003962  	0,004230  	0,004362  	-0,000001  	-0,000000  	25,828486  	23,864936  	24,787371  	24,893165  	28,374129  	26,953858  	28,210023  	28,113911  	31,627375  	30,611498  	33,457306  	58,421803  	28,094152  	27,082487  	27,544044  	63,526045  	0,192998  	0,097793  	-3465,979671  	12442,608726  	-0,036426  	-0,050006  	0,313171  	0,158686  	-3,953558  	10030,569229  	57087,374757  	8,279824  	-0,047957  
139,558000  	22,230018  	30,721744  	26,093892  	1256,670793  	70,296802  	64,343613  	0,006620  	0,008616  	0,003963  	0,004208  	0,004352  	-0,000000  	-0,000000  	25,841412  	23,865861  	24,785599  	24,899134  	28,373844  	26,956069  	28,218220  	28,116542  	31,632179  	30,615949  	33,458222  	58,428192  	28,102174  	27,097920  	27,546769  	63,529004  	0,174784  	0,088564  	-3144,582809  	25501,733983  	-0,018517  	-0,050004  	0,305279  	0,154687  	-3,855515  	9930,817201  	57376,350000  	8,321736  	-0,047955  
140,556000  	22,221175  	30,737133  	26,093523  	1256,670793  	70,295120  	64,328750  	0,006612  	0,008309  	0,003962  	0,004257  	0,004360  	-0,000000  	-0,000000  	25,840987  	23,869055  	24,785710  	24,893561  	28,378295  	26,957560  	28,218458  	28,115180  	31,630088  	30,614370  	33,459854  	58,431303  	28,106170  	27,120777  	27,542814  	63,523287  	0,214682  	0,108781  	-3873,421878  	25500,959777  	-0,018517  	-0,050003  	0,311711  	0,157946  	-3,945460  	9268,788394  	57204,991388  	8,296883  	-0,047954  
141,556000  	22,247180  	30,756709  	26,092786  	956,927186  	70,290510  	64,333383  	0,006613  	0,008448  	0,003962  	0,004221  	0,004378  	-0,000000  	-0,000000  	25,837698  	23,860080  	24,780070  	24,896198  	28,370687  	26,957728  	28,211120  	28,115988  	31,622009  	30,607494  	33,459088  	58,430093  	28,099659  	27,147271  	27,534892  	63,522939  	0,185587  	0,094039  	-3345,952838  	22445,826371  	-0,022147  	-0,050005  	0,325808  	0,165089  	-4,117508  	9567,057592  	57236,561536  	8,301461  	-0,047955  
142,555000  	22,225320  	30,760649  	26,092540  	-242,047242  	70,284155  	64,306830  	0,006618  	0,008625  	0,003963  	0,004253  	0,004347  	0,000002  	-0,000000  	25,830228  	23,853723  	24,772970  	24,887825  	28,364199  	26,958554  	28,204384  	28,108358  	31,619667  	30,601552  	33,455542  	58,426199  	28,090760  	27,160315  	27,529172  	63,514624  	0,211403  	0,107120  	-3822,949306  	-27087,934146  	-0,102483  	-0,049980  	0,300701  	0,152368  	-3,813088  	9948,460200  	57337,485743  	8,316099  	-0,047934  
143,557000  	22,175123  	30,762772  	26,092724  	657,183579  	70,269608  	64,293988  	0,006606  	0,008598  	0,003963  	0,004216  	0,004356  	-0,000000  	-0,000000  	25,830763  	23,854684  	24,778446  	24,887765  	28,368103  	26,956602  	28,206656  	28,107322  	31,624952  	30,601483  	33,452162  	58,425846  	28,088981  	27,166969  	27,538861  	63,508658  	0,181694  	0,092066  	-3305,846528  	18408,028084  	-0,027545  	-0,050003  	0,308095  	0,156114  	-3,905723  	9891,185360  	57071,670885  	8,277546  	-0,047954  
144,554000  	22,139324  	30,760495  	26,092970  	1256,670793  	70,261509  	64,288702  	0,006611  	0,008322  	0,003962  	0,004276  	0,004365  	0,000000  	-0,000000  	25,839657  	23,860270  	24,789465  	24,896457  	28,373456  	26,959519  	28,211888  	28,119632  	31,631720  	30,607596  	33,453388  	58,431470  	28,095182  	27,184887  	27,545507  	63,511474  	0,230483  	0,116788  	-4209,928638  	25498,290591  	-0,018515  	-0,049997  	0,315467  	0,159849  	-3,997291  	9296,784160  	57184,076430  	8,293849  	-0,047949  
145,558000  	22,116329  	30,760064  	26,092171  	956,927186  	70,255497  	64,288080  	0,006621  	0,008396  	0,003962  	0,004206  	0,004338  	0,000000  	-0,000001  	25,845254  	23,870790  	24,790135  	24,902581  	28,379091  	26,962854  	28,218567  	28,129040  	31,637695  	30,615999  	33,458150  	58,434608  	28,109195  	27,208837  	27,543070  	63,518470  	0,173812  	0,088072  	-3183,110818  	22443,293192  	-0,022144  	-0,049998  	0,293572  	0,148755  	-3,716508  	9456,436361  	57393,550824  	8,324231  	-0,047950  
146,555000  	22,107487  	30,755755  	26,091372  	-242,047242  	70,251572  	64,277011  	0,006609  	0,008414  	0,003962  	0,004268  	0,004340  	0,000000  	-0,000000  	25,847867  	23,871560  	24,788965  	24,908552  	28,382358  	26,962314  	28,222829  	28,129731  	31,637999  	30,616983  	33,460924  	58,431131  	28,114430  	27,231754  	27,545160  	63,521779  	0,223930  	0,113467  	-4103,095232  	-27095,347377  	-0,102511  	-0,049995  	0,295243  	0,149602  	-3,742122  	9493,730799  	57140,657767  	8,287552  	-0,047947  
147,555000  	22,110066  	30,745136  	26,090818  	-242,047242  	70,246245  	64,255993  	0,006614  	0,008444  	0,003964  	0,004249  	0,004325  	-0,000000  	-0,000000  	25,842408  	23,864346  	24,786919  	24,902880  	28,380042  	26,963796  	28,215120  	28,124325  	31,636323  	30,611314  	33,460621  	58,429163  	28,106840  	27,250038  	27,542343  	63,515107  	0,208205  	0,105499  	-3809,147633  	-27100,082512  	-0,102529  	-0,050005  	0,283781  	0,143794  	-3,606286  	9558,156504  	57244,702977  	8,302642  	-0,047956  
148,557000  	22,103435  	30,727346  	26,091864  	956,927186  	70,240389  	64,242561  	0,006620  	0,008409  	0,003963  	0,004225  	0,004334  	0,000001  	-0,000000  	25,839489  	23,869475  	24,781101  	24,901197  	28,380424  	26,960806  	28,215224  	28,120365  	31,640592  	30,611915  	33,459751  	58,434562  	28,107805  	27,268239  	27,538301  	63,515115  	0,189265  	0,095902  	-3458,156413  	22441,332194  	-0,022142  	-0,049993  	0,291003  	0,147453  	-3,702737  	9483,501128  	57373,532624  	8,321327  	-0,047946  
149,554000  	22,077124  	30,706385  	26,092294  	956,927186  	70,239236  	64,230341  	0,006612  	0,008510  	0,003961  	0,004228  	0,004340  	-0,000000  	-0,000000  	25,848087  	23,873637  	24,794740  	24,904759  	28,385888  	26,965205  	28,227004  	28,122205  	31,640656  	30,618055  	33,459947  	58,437486  	28,104663  	27,294602  	27,541186  	63,515954  	0,191726  	0,097149  	-3505,297250  	22445,316838  	-0,022146  	-0,050003  	0,295440  	0,149702  	-3,766122  	9700,614934  	57199,434308  	8,296077  	-0,047954  
150,559000  	22,053975  	30,691489  	26,092417  	357,439972  	70,236308  	64,226113  	0,006618  	0,008530  	0,003962  	0,004196  	0,004325  	0,000001  	-0,000000  	25,853358  	23,871770  	24,800748  	24,909991  	28,394525  	26,973399  	28,223323  	28,135259  	31,642830  	30,624692  	33,465546  	58,441580  	28,106592  	27,312109  	27,546982  	63,516542  	0,165663  	0,083942  	-3031,691599  	12437,561001  	-0,036412  	-0,049983  	0,283960  	0,143885  	-3,620564  	9745,190408  	57336,730206  	8,315990  	-0,047937  
151,555000  	22,051397  	30,679393  	26,092601  	357,439972  	70,240046  	64,212339  	0,006615  	0,008535  	0,003959  	0,004258  	0,004349  	-0,000001  	-0,000000  	25,852727  	23,874305  	24,804104  	24,904636  	28,390134  	26,973109  	28,221424  	28,132589  	31,648182  	30,621486  	33,469567  	58,436201  	28,112262  	27,328278  	27,544233  	63,509623  	0,215593  	0,109242  	-3941,082370  	12443,798091  	-0,036430  	-0,050011  	0,302790  	0,153426  	-3,871886  	9754,567606  	57279,182295  	8,307643  	-0,047961  
152,557000  	22,064721  	30,667635  	26,093216  	956,927186  	70,244781  	64,223283  	0,006603  	0,008630  	0,003962  	0,004274  	0,004304  	-0,000001  	-0,000000  	25,841034  	23,866064  	24,792746  	24,897967  	28,384627  	26,965776  	28,222378  	28,120603  	31,634659  	30,615035  	33,468384  	58,429398  	28,101395  	27,326979  	27,547130  	63,498888  	0,228232  	0,115647  	-4160,010279  	22448,297285  	-0,022149  	-0,050011  	0,267259  	0,135422  	-3,414030  	9960,037556  	57013,671065  	8,269134  	-0,047961  
153,557000  	22,079426  	30,655447  	26,092417  	-242,047242  	70,245092  	64,232425  	0,006607  	0,008477  	0,003962  	0,004226  	0,004376  	-0,000001  	-0,000000  	25,848256  	23,868451  	24,793397  	24,900500  	28,380916  	26,963431  	28,222547  	28,130056  	31,637561  	30,625622  	33,468174  	58,427494  	28,102509  	27,322072  	27,555976  	63,501830  	0,189440  	0,095991  	-3442,139633  	-27104,562426  	-0,102545  	-0,050014  	0,324176  	0,164262  	-4,135029  	9629,254134  	57094,005123  	8,280785  	-0,047964  
154,556000  	22,107487  	30,645352  	26,092355  	357,439972  	70,252382  	64,230932  	0,006620  	0,008446  	0,003964  	0,004219  	0,004393  	-0,000000  	-0,000000  	25,850000  	23,865654  	24,788213  	24,899690  	28,382813  	26,968783  	28,218455  	28,123048  	31,643248  	30,627110  	33,466419  	58,430802  	28,114580  	27,325351  	27,548688  	63,505741  	0,184068  	0,093269  	-3329,647645  	12441,583700  	-0,036423  	-0,050001  	0,337654  	0,171092  	-4,313236  	9564,428722  	57386,750991  	8,323245  	-0,047953  
155,556000  	22,151237  	30,641289  	26,094015  	357,439972  	70,266306  	64,236187  	0,006609  	0,008365  	0,003963  	0,004257  	0,004352  	-0,000001  	-0,000000  	25,838063  	23,866449  	24,779521  	24,896683  	28,382979  	26,956130  	28,211916  	28,116232  	31,633686  	30,620008  	33,453654  	58,428280  	28,099772  	27,309722  	27,539506  	63,498535  	0,214695  	0,108788  	-3861,906568  	12443,438783  	-0,036429  	-0,050010  	0,305302  	0,154699  	-3,905589  	9387,720702  	57134,345149  	8,286636  	-0,047960  
156,557000  	22,185500  	30,642520  	26,094568  	956,927186  	70,271352  	64,234197  	0,006615  	0,008401  	0,003964  	0,004190  	0,004372  	0,000001  	-0,000000  	25,845856  	23,864282  	24,794191  	24,905150  	28,391199  	26,956622  	28,226757  	28,124454  	31,641220  	30,620941  	33,468947  	58,440489  	28,103221  	27,319139  	27,546048  	63,502111  	0,160310  	0,081230  	-2872,400600  	22440,823688  	-0,022142  	-0,049992  	0,320553  	0,162427  	-4,105468  	9466,908686  	57279,740122  	8,307724  	-0,047945  
157,554000  	22,219548  	30,648091  	26,095091  	956,927186  	70,273907  	64,232238  	0,006617  	0,008431  	0,003962  	0,004278  	0,004335  	-0,000000  	-0,000000  	25,838711  	23,863128  	24,794883  	24,892463  	28,373724  	26,952708  	28,214799  	28,114794  	31,628613  	30,614976  	33,459807  	58,421634  	28,092654  	27,301890  	27,534326  	63,503693  	0,232229  	0,117672  	-4147,020235  	22445,860093  	-0,022147  	-0,050005  	0,291281  	0,147594  	-3,733362  	9531,857194  	57309,587363  	8,312053  	-0,047956  
158,556000  	22,215618  	30,658617  	26,095521  	357,439972  	70,274093  	64,227636  	0,006603  	0,008665  	0,003963  	0,004226  	0,004361  	0,000001  	-0,000000  	25,837508  	23,859484  	24,776538  	24,895158  	28,378176  	26,953716  	28,210287  	28,118806  	31,629750  	30,613691  	33,460784  	58,425613  	28,084143  	27,311269  	27,534204  	63,502929  	0,190007  	0,096278  	-3398,857941  	12438,966012  	-0,036416  	-0,049990  	0,312042  	0,158114  	-4,002617  	10036,626383  	57017,717071  	8,269721  	-0,047943  
159,555000  	22,211381  	30,668866  	26,096259  	357,439972  	70,277738  	64,232362  	0,006618  	0,008288  	0,003961  	0,004273  	0,004372  	-0,000001  	-0,000000  	25,830073  	23,856394  	24,781175  	24,891334  	28,369995  	26,951464  	28,203576  	28,116106  	31,626097  	30,602334  	33,450548  	58,422923  	28,079595  	27,307040  	27,537836  	63,502110  	0,227571  	0,115312  	-4077,799538  	12443,741433  	-0,036430  	-0,050012  	0,320997  	0,162651  	-4,116751  	9222,631778  	57343,466489  	8,316967  	-0,047962  
160,556000  	22,226364  	30,683886  	26,096812  	956,927186  	70,282971  	64,240198  	0,006619  	0,008567  	0,003962  	0,004258  	0,004345  	-0,000000  	-0,000000  	25,829770  	23,865825  	24,778725  	24,882185  	28,371214  	26,952414  	28,202336  	28,109910  	31,629329  	30,612177  	33,455045  	58,421839  	28,077160  	27,298491  	27,534665  	63,496473  	0,215709  	0,109301  	-3865,245958  	22446,023724  	-0,022147  	-0,050006  	0,299428  	0,151722  	-3,838481  	9825,170024  	57358,676084  	8,319173  	-0,047956  
161,556000  	22,212548  	30,702969  	26,098042  	1256,670793  	70,288049  	64,240477  	0,006604  	0,008593  	0,003962  	0,004269  	0,004347  	0,000000  	-0,000000  	25,826064  	23,853108  	24,775971  	24,883666  	28,365848  	26,946502  	28,207579  	28,104626  	31,618423  	30,598976  	33,447613  	58,422198  	28,078522  	27,290518  	27,528488  	63,495056  	0,224673  	0,113844  	-4041,543479  	25498,397168  	-0,018515  	-0,049997  	0,301314  	0,152678  	-3,865733  	9880,877870  	57026,995348  	8,271066  	-0,047949  
162,558000  	22,199530  	30,712695  	26,099333  	1256,670793  	70,284560  	64,255091  	0,006614  	0,008674  	0,003962  	0,004216  	0,004336  	-0,000001  	-0,000000  	25,822379  	23,850413  	24,785172  	24,885337  	28,372737  	26,941089  	28,203239  	28,100330  	31,621256  	30,601004  	33,453523  	58,425305  	28,066284  	27,278308  	27,521104  	63,488975  	0,181312  	0,091872  	-3270,286208  	25502,456016  	-0,018518  	-0,050006  	0,292269  	0,148095  	-3,738467  	10055,350360  	57240,889986  	8,302089  	-0,047957  
163,556000  	22,164530  	30,719436  	26,099978  	1256,670793  	70,284186  	64,265849  	0,006617  	0,008311  	0,003962  	0,004209  	0,004387  	0,000001  	-0,000000  	25,829510  	23,855489  	24,784625  	24,891609  	28,371778  	26,945616  	28,203291  	28,106132  	31,624793  	30,608161  	33,455158  	58,431122  	28,070079  	27,283570  	27,538533  	63,494072  	0,175758  	0,089058  	-3185,651675  	25491,727897  	-0,018510  	-0,049983  	0,332827  	0,168646  	-4,249396  	9272,807396  	57305,753190  	8,311497  	-0,047937  
164,555000  	22,111847  	30,727007  	26,101207  	1256,670793  	70,285744  	64,285811  	0,006611  	0,008495  	0,003962  	0,004235  	0,004354  	-0,000000  	-0,000000  	25,837132  	23,868721  	24,791191  	24,891697  	28,376998  	26,953009  	28,212661  	28,119357  	31,630987  	30,616013  	33,453629  	58,437115  	28,077761  	27,293411  	27,546218  	63,512804  	0,196846  	0,099743  	-3593,018367  	25500,378604  	-0,018516  	-0,050002  	0,306954  	0,155536  	-3,907093  	9669,845979  	57191,624738  	8,294944  	-0,047953  
165,555000  	22,095606  	30,731778  	26,102837  	1256,670793  	70,280635  	64,282608  	0,006613  	0,008402  	0,003962  	0,004228  	0,004351  	-0,000000  	-0,000000  	25,837460  	23,863250  	24,784872  	24,890859  	28,370341  	26,949459  	28,208527  	28,115412  	31,626744  	30,606029  	33,447109  	58,435117  	28,070940  	27,291834  	27,535252  	63,514818  	0,191161  	0,096863  	-3497,774476  	25500,895392  	-0,018517  	-0,050003  	0,303859  	0,153967  	-3,866458  	9469,302684  	57218,520443  	8,298845  	-0,047954  
166,557000  	22,117956  	30,735040  	26,103820  	1256,670793  	70,280199  	64,273156  	0,006617  	0,008478  	0,003963  	0,004223  	0,004363  	-0,000000  	-0,000000  	25,836165  	23,857150  	24,778386  	24,892198  	28,370425  	26,948166  	28,204586  	28,109093  	31,619566  	30,600900  	33,448279  	58,427640  	28,063358  	27,297282  	27,530833  	63,515605  	0,187407  	0,094960  	-3421,486083  	25501,881231  	-0,018518  	-0,050005  	0,313644  	0,158926  	-3,996962  	9633,085662  	57302,702797  	8,311054  	-0,047956  
167,556000  	22,118048  	30,728577  	26,104650  	1256,670793  	70,283812  	64,272005  	0,006608  	0,008531  	0,003963  	0,004269  	0,004379  	-0,000000  	-0,000000  	25,828298  	23,853619  	24,779327  	24,884613  	28,370866  	26,950778  	28,204960  	28,106830  	31,615632  	30,602854  	33,448981  	58,416040  	28,062408  	27,305087  	27,532092  	63,523261  	0,224781  	0,113898  	-4100,716323  	25500,999133  	-0,018517  	-0,050004  	0,326155  	0,165265  	-4,159697  	9746,598225  	57120,314757  	8,284601  	-0,047954  
168,560000  	22,082496  	30,710171  	26,107293  	1256,670793  	70,283875  	64,270389  	0,006616  	0,008514  	0,003962  	0,004228  	0,004337  	0,000001  	-0,000000  	25,834769  	23,861653  	24,788589  	24,892288  	28,378497  	26,958606  	28,212337  	28,121124  	31,625312  	30,611828  	33,457186  	58,423788  	28,071152  	27,327444  	27,537048  	63,533433  	0,191597  	0,097083  	-3502,295907  	25495,899837  	-0,018513  	-0,049993  	0,292787  	0,148358  	-3,735178  	9710,643690  	57284,986514  	8,308485  	-0,047945  
169,556000  	22,039730  	30,691150  	26,108461  	956,927186  	70,283096  	64,251920  	0,006620  	0,008712  	0,003962  	0,004235  	0,004372  	-0,000000  	-0,000000  	25,835536  	23,861221  	24,791532  	24,893255  	28,383775  	26,957557  	28,209082  	28,121969  	31,626979  	30,611753  	33,457271  	58,424895  	28,072240  	27,344431  	27,540566  	63,536026  	0,197089  	0,099866  	-3612,610158  	22444,365141  	-0,022146  	-0,050002  	0,320598  	0,162449  	-4,101990  	10137,530133  	57369,126502  	8,320688  	-0,047953  
170,557000  	22,062080  	30,687457  	26,108154  	357,439972  	70,281663  	64,258076  	0,006606  	0,008407  	0,003963  	0,004211  	0,004313  	0,000001  	-0,000000  	25,831148  	23,853833  	24,783966  	24,888348  	28,378000  	26,949527  	28,201282  	28,112439  	31,620232  	30,605770  	33,455923  	58,421201  	28,066359  	27,346611  	27,539211  	63,536427  	0,177913  	0,090150  	-3251,306911  	12438,861997  	-0,036417  	-0,049993  	0,274034  	0,138855  	-3,501807  	9479,498398  	57073,520892  	8,277814  	-0,047945  
171,555000  	22,099474  	30,680808  	26,109261  	357,439972  	70,279669  	64,253257  	0,006612  	0,008408  	0,003962  	0,004270  	0,004379  	-0,000001  	-0,000000  	25,835050  	23,854177  	24,776376  	24,891499  	28,372129  	26,948452  	28,200328  	28,116243  	31,624262  	30,607134  	33,456941  	58,424536  	28,068357  	27,341955  	27,536700  	63,541711  	0,225270  	0,114146  	-4095,710817  	12442,209453  	-0,036427  	-0,050008  	0,326095  	0,165235  	-4,169030  	9481,167263  	57211,508777  	8,297828  	-0,047958  
172,557000  	22,126982  	30,667512  	26,109568  	956,927186  	70,276928  	64,261962  	0,006620  	0,008710  	0,003964  	0,004246  	0,004337  	0,000000  	-0,000000  	25,839394  	23,860671  	24,779905  	24,893681  	28,375259  	26,955739  	28,207201  	28,120424  	31,634865  	30,612424  	33,457069  	58,429099  	28,071963  	27,342083  	27,542295  	63,553689  	0,205975  	0,104369  	-3727,076116  	22441,205132  	-0,022143  	-0,049995  	0,293434  	0,148685  	-3,744346  	10132,792366  	57385,550605  	8,323070  	-0,047947  
173,555000  	22,173065  	30,654124  	26,110429  	956,927186  	70,274997  	64,269891  	0,006607  	0,008517  	0,003962  	0,004268  	0,004336  	0,000001  	-0,000000  	25,842510  	23,863156  	24,786721  	24,895540  	28,377748  	26,961172  	28,215388  	28,119739  	31,641417  	30,614962  	33,460195  	58,436750  	28,067681  	27,342272  	27,547676  	63,561109  	0,223650  	0,113325  	-4018,718466  	22436,011268  	-0,022137  	-0,049982  	0,292186  	0,148053  	-3,722305  	9716,906711  	57097,288532  	8,281262  	-0,047936  
174,558000  	22,197197  	30,653016  	26,110121  	357,439972  	70,272505  	64,278286  	0,006616  	0,008641  	0,003963  	0,004219  	0,004357  	-0,000001  	-0,000000  	25,833438  	23,853402  	24,780222  	24,891257  	28,370756  	26,953436  	28,205674  	28,115100  	31,634740  	30,606296  	33,449860  	58,427037  	28,060606  	27,320462  	27,536621  	63,549766  	0,184465  	0,093470  	-3304,736011  	12444,462273  	-0,036434  	-0,050018  	0,309332  	0,156741  	-3,933602  	9983,398135  	57285,975067  	8,308628  	-0,047967  
175,555000  	22,180526  	30,660402  	26,110398  	1256,670793  	70,280760  	64,285749  	0,006620  	0,008475  	0,003964  	0,004244  	0,004359  	0,000000  	-0,000000  	25,827087  	23,856599  	24,779236  	24,891508  	28,372836  	26,946797  	28,201204  	28,106482  	31,621538  	30,598304  	33,451219  	58,418658  	28,058309  	27,315715  	27,531728  	63,545905  	0,204194  	0,103467  	-3668,602782  	25497,201684  	-0,018514  	-0,049996  	0,310606  	0,157386  	-3,950326  	9625,405627  	57378,496573  	8,322047  	-0,047948  
176,558000  	22,141719  	30,673452  	26,110398  	1256,670793  	70,286865  	64,277975  	0,006605  	0,008340  	0,003963  	0,004220  	0,004362  	0,000000  	-0,000000  	25,833600  	23,853259  	24,778187  	24,886085  	28,369970  	26,947279  	28,202072  	28,105823  	31,617801  	30,603318  	33,450654  	58,421015  	28,058515  	27,320671  	27,533314  	63,545083  	0,185169  	0,093827  	-3347,149695  	25498,224963  	-0,018515  	-0,049998  	0,312931  	0,158565  	-3,989113  	9334,304981  	57053,672158  	8,274936  	-0,047950  
177,555000  	22,106597  	30,694012  	26,110336  	1256,670793  	70,287519  	64,289946  	0,006617  	0,008432  	0,003961  	0,004272  	0,004334  	0,000001  	-0,000000  	25,830437  	23,861580  	24,780953  	24,892698  	28,373406  	26,956460  	28,213027  	28,114523  	31,621144  	30,609703  	33,448494  	58,424950  	28,073096  	27,332307  	27,541220  	63,547575  	0,226826  	0,114935  	-4126,922780  	25493,392522  	-0,018511  	-0,049987  	0,290630  	0,147264  	-3,697848  	9532,356651  	57315,313910  	8,312883  	-0,047940  
178,554000  	22,114948  	30,704970  	26,109783  	1256,670793  	70,283906  	64,283790  	0,006616  	0,008567  	0,003962  	0,004235  	0,004350  	0,000000  	-0,000000  	25,824977  	23,861061  	24,794365  	24,887581  	28,377761  	26,953512  	28,213467  	28,111040  	31,635204  	30,610010  	33,464852  	58,431195  	28,072905  	27,328728  	27,537641  	63,541327  	0,197245  	0,099945  	-3589,795969  	25496,805177  	-0,018514  	-0,049995  	0,303685  	0,153879  	-3,865593  	9825,250673  	57301,869588  	8,310934  	-0,047947  
179,556000  	22,151237  	30,711433  	26,110152  	1256,670793  	70,282348  	64,267279  	0,006606  	0,008546  	0,003962  	0,004222  	0,004349  	-0,000000  	-0,000000  	25,830367  	23,857594  	24,774685  	24,885702  	28,373294  	26,951298  	28,196906  	28,112947  	31,624177  	30,606378  	33,456263  	58,426727  	28,061456  	27,347514  	27,542092  	63,537056  	0,186540  	0,094521  	-3383,182125  	25501,993660  	-0,018518  	-0,050006  	0,302786  	0,153424  	-3,863754  	9779,073541  	57071,670885  	8,277546  	-0,047957  
180,555000  	22,184886  	30,707493  	26,110459  	57,696365  	70,280292  	64,261372  	0,006614  	0,008516  	0,003963  	0,004262  	0,004383  	0,000001  	-0,000000  	25,838786  	23,865678  	24,785294  	24,900960  	28,381384  	26,955085  	28,213015  	28,122474  	31,626282  	30,614066  	33,463730  	58,433014  	28,066055  	27,356369  	27,545128  	63,541681  	0,218512  	0,110722  	-3945,623701  	1707,689069  	-0,053741  	-0,049993  	0,329473  	0,166947  	-4,206986  	9715,321324  	57244,604121  	8,302628  	-0,047945  
181,558000  	22,215342  	30,691458  	26,109476  	57,696365  	70,276118  	64,277633  	0,006614  	0,008610  	0,003963  	0,004211  	0,004355  	-0,000000  	-0,000000  	25,838028  	23,856422  	24,781817  	24,887592  	28,374645  	26,939436  	28,196410  	28,116129  	31,618674  	30,614490  	33,455839  	58,429357  	28,066762  	27,349684  	27,539089  	63,534319  	0,177585  	0,089984  	-3189,116603  	1708,094241  	-0,053752  	-0,050004  	0,307261  	0,155691  	-3,910043  	9916,289087  	57256,085459  	8,304293  	-0,047955  
182,555000  	22,242360  	30,687641  	26,109537  	1256,670793  	70,274249  	64,287707  	0,006611  	0,008421  	0,003964  	0,004265  	0,004327  	0,000000  	-0,000000  	25,822578  	23,846041  	24,777870  	24,875452  	28,363207  	26,947873  	28,186513  	28,109104  	31,616294  	30,602415  	33,448005  	58,425548  	28,063083  	27,336281  	27,525910  	63,515669  	0,221584  	0,112278  	-3964,781013  	25498,624417  	-0,018515  	-0,049999  	0,285598  	0,144715  	-3,627142  	9508,611221  	57174,007311  	8,292389  	-0,047950  
183,555000  	22,246597  	30,695490  	26,109998  	1256,670793  	70,271726  	64,285935  	0,006615  	0,008712  	0,003962  	0,004253  	0,004373  	0,000000  	-0,000000  	25,822591  	23,858291  	24,783319  	24,878594  	28,357830  	26,943281  	28,187905  	28,101197  	31,621478  	30,597739  	33,445951  	58,429821  	28,062169  	27,336056  	27,530517  	63,524417  	0,211336  	0,107086  	-3783,030929  	25496,971871  	-0,018514  	-0,049995  	0,321485  	0,162899  	-4,082396  	10137,366006  	57272,679028  	8,306700  	-0,047947  
184,556000  	22,217491  	30,709340  	26,109752  	1256,670793  	70,272162  	64,273187  	0,006618  	0,008639  	0,003964  	0,004253  	0,004349  	0,000001  	-0,000000  	25,826467  	23,860401  	24,782901  	24,878619  	28,364477  	26,949805  	28,205902  	28,110936  	31,620843  	30,605033  	33,451830  	58,427398  	28,064766  	27,338876  	27,543940  	63,511024  	0,211370  	0,107103  	-3802,884381  	25495,775424  	-0,018513  	-0,049992  	0,303017  	0,153541  	-3,856354  	9979,137187  	57341,976598  	8,316751  	-0,047945  
185,556000  	22,157039  	30,728946  	26,111750  	956,927186  	70,272131  	64,289728  	0,006606  	0,008334  	0,003961  	0,004217  	0,004381  	-0,000001  	-0,000000  	25,834841  	23,854484  	24,784324  	24,882395  	28,363651  	26,945360  	28,208499  	28,110874  	31,624357  	30,608036  	33,455422  	58,434509  	28,069508  	27,347019  	27,543208  	63,516426  	0,182807  	0,092629  	-3319,997780  	22446,908564  	-0,022148  	-0,050009  	0,328100  	0,166251  	-4,164049  	9321,148605  	57073,520892  	8,277814  	-0,047959  
186,556000  	22,110127  	30,740334  	26,111566  	357,439972  	70,271321  	64,306394  	0,006618  	0,008498  	0,003964  	0,004203  	0,004345  	-0,000000  	-0,000000  	25,828164  	23,843917  	24,772157  	24,882814  	28,368098  	26,948711  	28,199667  	28,108698  	31,615476  	30,597054  	33,453813  	58,434852  	28,060715  	27,355324  	27,544222  	63,511531  	0,170760  	0,086525  	-3122,313507  	12441,127946  	-0,036424  	-0,050004  	0,299814  	0,151918  	-3,793943  	9674,550496  	57330,742399  	8,315121  	-0,047955  
187,575000  	22,117680  	30,749199  	26,111474  	1256,670793  	70,269732  	64,291034  	0,006613  	0,008594  	0,003963  	0,004248  	0,004384  	-0,000000  	-0,000000  	25,820146  	23,852203  	24,774260  	24,882150  	28,363600  	26,957112  	28,206512  	28,105027  	31,616054  	30,609306  	33,446017  	58,422321  	28,059999  	27,362893  	27,536409  	63,510941  	0,207436  	0,105110  	-3793,518266  	25499,855762  	-0,018516  	-0,050002  	0,330431  	0,167432  	-4,191031  	9882,490140  	57233,412289  	8,301005  	-0,047953  
188,554000  	22,144452  	30,750615  	26,111351  	1256,670793  	70,272598  	64,279468  	0,006605  	0,008402  	0,003964  	0,004256  	0,004381  	-0,000000  	-0,000000  	25,828920  	23,863986  	24,781370  	24,889885  	28,373224  	26,956005  	28,208019  	28,124183  	31,633019  	30,617735  	33,455770  	58,420682  	28,070796  	27,377048  	27,546144  	63,503998  	0,213829  	0,108349  	-3898,926817  	25500,897958  	-0,018517  	-0,050004  	0,328176  	0,166289  	-4,172472  	9468,314382  	57046,914692  	8,273955  	-0,047955  
189,559000  	22,189460  	30,731285  	26,111443  	1256,670793  	70,273938  	64,281769  	0,006615  	0,008454  	0,003962  	0,004226  	0,004347  	-0,000000  	-0,000000  	25,830887  	23,859242  	24,785782  	24,895894  	28,373088  	26,953217  	28,210423  	28,118132  	31,623595  	30,609256  	33,459263  	58,424794  	28,070673  	27,397592  	27,538290  	63,515714  	0,190001  	0,096275  	-3438,542576  	25500,013609  	-0,018516  	-0,050002  	0,301202  	0,152621  	-3,828912  	9580,595988  	57277,127517  	8,307345  	-0,047953  
190,556000  	22,227101  	30,712880  	26,111566  	1256,670793  	70,275495  	64,271073  	0,006611  	0,008736  	0,003964  	0,004301  	0,004359  	-0,000000  	-0,000000  	25,840786  	23,859572  	24,787420  	24,906223  	28,379576  	26,962443  	28,217098  	28,123186  	31,625663  	30,613473  	33,470294  	58,434705  	28,068402  	27,429343  	27,551757  	63,513124  	0,250388  	0,126873  	-4501,641577  	25501,531473  	-0,018517  	-0,050005  	0,310249  	0,157205  	-3,951975  	10189,452435  	57191,878938  	8,294981  	-0,047956  
191,556000  	22,247457  	30,705216  	26,110828  	357,439972  	70,273221  	64,262180  	0,006606  	0,008870  	0,003963  	0,004225  	0,004377  	-0,000000  	-0,000000  	25,830601  	23,862003  	24,785611  	24,892429  	28,367997  	26,950638  	28,207046  	28,118937  	31,623242  	30,612996  	33,461333  	58,430042  	28,057602  	27,451988  	27,546630  	63,505341  	0,188937  	0,095736  	-3385,625457  	12440,807610  	-0,036423  	-0,050002  	0,324911  	0,164635  	-4,143299  	10477,043441  	57080,115953  	8,278771  	-0,047953  
192,555000  	22,228298  	30,706201  	26,111320  	956,927186  	70,272474  	64,271384  	0,006620  	0,008517  	0,003962  	0,004259  	0,004370  	-0,000001  	-0,000000  	25,824892  	23,850004  	24,774240  	24,882757  	28,362035  	26,944788  	28,196862  	28,104436  	31,613558  	30,602127  	33,452407  	58,424155  	28,046789  	27,460389  	27,536917  	63,498677  	0,216076  	0,109487  	-3881,164167  	22446,270242  	-0,022148  	-0,050007  	0,319197  	0,161740  	-4,063702  	9717,075083  	57368,222682  	8,320557  	-0,047958  
193,559000  	22,209631  	30,717096  	26,111842  	57,696365  	70,270106  	64,308851  	0,006615  	0,008415  	0,003963  	0,004243  	0,004336  	0,000000  	-0,000000  	25,835963  	23,858019  	24,784242  	24,891788  	28,373879  	26,953278  	28,212654  	28,115317  	31,622257  	30,605356  	33,460382  	58,430824  	28,053674  	27,488928  	27,538448  	63,511923  	0,203219  	0,102972  	-3662,946408  	1707,732281  	-0,053744  	-0,049997  	0,292121  	0,148020  	-3,694327  	9496,269823  	57278,970463  	8,307612  	-0,047949  
194,556000  	22,194956  	30,734148  	26,111289  	1256,670793  	70,267801  	64,332046  	0,006609  	0,008414  	0,003961  	0,004241  	0,004348  	0,000001  	-0,000000  	25,840939  	23,858553  	24,786845  	24,895075  	28,376235  	26,957346  	28,220839  	28,122734  	31,632290  	30,612076  	33,462609  	58,434411  	28,058819  	27,514970  	27,541037  	63,520327  	0,201633  	0,102169  	-3647,929432  	25495,615505  	-0,018513  	-0,049992  	0,301931  	0,152991  	-3,802062  	9494,019437  	57140,234101  	8,287490  	-0,047945  
195,570000  	22,187495  	30,754831  	26,112119  	1256,670793  	70,267240  	64,313670  	0,006617  	0,008448  	0,003964  	0,004225  	0,004352  	-0,000001  	-0,000000  	25,839597  	23,856118  	24,785566  	24,890252  	28,374573  	26,958971  	28,213438  	28,119811  	31,633732  	30,607729  	33,464190  	58,431534  	28,063168  	27,534095  	27,548978  	63,518442  	0,189268  	0,095903  	-3435,497739  	25506,915637  	-0,018521  	-0,050017  	0,305063  	0,154578  	-3,853028  	9567,292464  	57312,249395  	8,312439  	-0,047966  
196,556000  	22,196583  	30,769421  	26,113840  	1256,670793  	70,263191  	64,297750  	0,006614  	0,008418  	0,003963  	0,004256  	0,004375  	0,000000  	-0,000000  	25,844779  	23,865965  	24,788108  	24,896669  	28,376224  	26,964479  	28,216732  	28,122787  	31,640659  	30,612680  	33,469019  	58,434765  	28,067691  	27,559274  	27,552840  	63,519837  	0,214294  	0,108584  	-3892,264290  	25498,455229  	-0,018515  	-0,049999  	0,323006  	0,163669  	-4,087773  	9502,099887  	57249,094977  	8,303279  	-0,047950  
197,555000  	22,218075  	30,763296  	26,115869  	-242,047242  	70,257895  	64,273591  	0,006611  	0,008503  	0,003964  	0,004207  	0,004339  	-0,000001  	-0,000000  	25,848747  	23,870383  	24,785031  	24,898695  	28,374813  	26,966141  	28,223404  	28,123262  	31,642379  	30,624102  	33,470690  	58,440978  	28,068073  	27,576472  	27,545979  	63,516166  	0,174474  	0,088407  	-3158,786757  	-27102,617669  	-0,102529  	-0,050009  	0,295078  	0,149518  	-3,746132  	9686,722814  	57179,606758  	8,293201  	-0,047959  
198,556000  	22,241040  	30,753323  	26,116853  	357,439972  	70,257646  	64,253194  	0,006621  	0,008729  	0,003962  	0,004319  	0,004333  	-0,000000  	-0,000000  	25,847348  	23,866099  	24,788715  	24,895661  	28,374198  	26,964651  	28,220242  	28,122168  	31,637933  	30,620864  	33,472622  	58,441850  	28,064826  	27,580439  	27,541736  	63,513109  	0,265323  	0,134441  	-4785,058986  	12440,714977  	-0,036423  	-0,050003  	0,290389  	0,147142  	-3,699002  	10173,490328  	57404,883879  	8,325874  	-0,047954  
199,558000  	22,251172  	30,743812  	26,118697  	357,439972  	70,258051  	64,245297  	0,006610  	0,008507  	0,003963  	0,004230  	0,004360  	0,000001  	-0,000000  	25,841939  	23,862620  	24,793182  	24,902813  	28,379147  	26,966624  	28,218598  	28,121102  	31,638329  	30,616716  	33,467841  	58,435971  	28,056323  	27,578173  	27,541512  	63,520826  	0,192643  	0,097614  	-3466,259834  	12437,964818  	-0,036416  	-0,049991  	0,311442  	0,157810  	-3,972664  	9694,902306  	57157,230153  	8,289955  	-0,047944  
200,555000  	22,233610  	30,736980  	26,121033  	-242,047242  	70,257366  	64,272783  	0,006613  	0,008910  	0,003963  	0,004213  	0,004379  	0,000000  	-0,000000  	25,833747  	23,862541  	24,788461  	24,897798  	28,382462  	26,967060  	28,220285  	28,114115  	31,630411  	30,618483  	33,462800  	58,428076  	28,052727  	27,574207  	27,541671  	63,521124  	0,179121  	0,090762  	-3227,041921  	-27097,421956  	-0,102507  	-0,049998  	0,326162  	0,165269  	-4,140950  	10563,762189  	57226,944327  	8,300067  	-0,047950  
201,555000  	22,196092  	30,735656  	26,122631  	1256,670793  	70,258674  	64,286401  	0,006618  	0,008304  	0,003964  	0,004227  	0,004345  	0,000001  	-0,000000  	25,837440  	23,860782  	24,788706  	24,895043  	28,375109  	26,967103  	28,221017  	28,117118  	31,629425  	30,614449  	33,471415  	58,430728  	28,051037  	27,577302  	27,539639  	63,516177  	0,190710  	0,096634  	-3450,465010  	25493,255989  	-0,018512  	-0,049988  	0,299675  	0,151848  	-3,796855  	9256,534720  	57327,543724  	8,314657  	-0,047941  
202,556000  	22,151145  	30,746306  	26,123799  	657,183579  	70,263970  	64,294423  	0,006612  	0,008460  	0,003961  	0,004249  	0,004405  	-0,000001  	-0,000000  	25,836231  	23,863229  	24,788579  	24,896080  	28,384420  	26,967111  	28,219977  	28,122788  	31,638762  	30,617958  	33,469575  	58,431726  	28,052334  	27,580588  	27,539280  	63,518732  	0,208474  	0,105635  	-3796,427941  	18409,189093  	-0,027548  	-0,050011  	0,346962  	0,175808  	-4,393965  	9594,278704  	57211,671182  	8,297851  	-0,047961  
203,557000  	22,115224  	30,757848  	26,124352  	657,183579  	70,264530  	64,293024  	0,006611  	0,008516  	0,003963  	0,004262  	0,004305  	0,000002  	-0,000000  	25,841789  	23,861223  	24,785868  	24,894476  	28,391503  	26,955322  	28,213684  	28,125862  	31,642990  	30,618905  	33,467042  	58,429635  	28,049788  	27,583618  	27,546158  	63,514278  	0,219031  	0,110985  	-4010,716935  	18399,085183  	-0,027533  	-0,049980  	0,267892  	0,135743  	-3,393731  	9715,422489  	57186,286552  	8,294170  	-0,047935  
204,555000  	22,078628  	30,763019  	26,125889  	1256,670793  	70,264779  	64,276483  	0,006619  	0,008429  	0,003961  	0,004230  	0,004339  	-0,000001  	-0,000000  	25,839977  	23,860479  	24,783815  	24,896741  	28,381878  	26,959995  	28,217836  	28,116898  	31,637246  	30,617010  	33,463191  	58,426394  	28,044629  	27,573598  	27,534296  	63,512012  	0,193120  	0,097856  	-3553,354858  	25505,952465  	-0,018521  	-0,050016  	0,294825  	0,149390  	-3,745422  	9527,822629  	57346,340354  	8,317383  	-0,047965  
205,557000  	22,054682  	30,756278  	26,126719  	956,927186  	70,266212  	64,266129  	0,006612  	0,008406  	0,003962  	0,004264  	0,004333  	-0,000000  	-0,000000  	25,854568  	23,874848  	24,804237  	24,915140  	28,397818  	26,978466  	28,224641  	28,132951  	31,638861  	30,626886  	33,481219  	58,440883  	28,054443  	27,586094  	27,554441  	63,525396  	0,220653  	0,111807  	-4067,999224  	22444,122341  	-0,022146  	-0,050003  	0,289804  	0,146846  	-3,688881  	9477,579096  	57195,684867  	8,295533  	-0,047954  
206,556000  	22,082742  	30,739288  	26,127641  	-242,047242  	70,267022  	64,256739  	0,006611  	0,008762  	0,003962  	0,004244  	0,004352  	-0,000000  	-0,000000  	25,842102  	23,868806  	24,794720  	24,896932  	28,380000  	26,956952  	28,202820  	28,119066  	31,629368  	30,614190  	33,469953  	58,420588  	28,031655  	27,578465  	27,539209  	63,515381  	0,204177  	0,103458  	-3744,738789  	-27100,965538  	-0,102518  	-0,050005  	0,305210  	0,154652  	-3,891572  	10244,587958  	57192,570925  	8,295081  	-0,047956  
207,557000  	22,107702  	30,717404  	26,128932  	657,183579  	70,263004  	64,246478  	0,006619  	0,008438  	0,003964  	0,004275  	0,004354  	-0,000000  	-0,000000  	25,855231  	23,878819  	24,787675  	24,910556  	28,388383  	26,962175  	28,224631  	28,131076  	31,638147  	30,621041  	33,473872  	58,429367  	28,033837  	27,578163  	27,539689  	63,525757  	0,229588  	0,116334  	-4188,015418  	18406,468297  	-0,027544  	-0,050003  	0,306924  	0,155520  	-3,917484  	9545,146570  	57355,759852  	8,318750  	-0,047954  
208,556000  	22,113719  	30,692473  	26,129854  	57,696365  	70,257459  	64,263579  	0,006605  	0,008581  	0,003963  	0,004209  	0,004370  	0,000001  	-0,000000  	25,854829  	23,874426  	24,795735  	24,900236  	28,385380  	26,980781  	28,230190  	28,133812  	31,645275  	30,627295  	33,485956  	58,435623  	28,039360  	27,585013  	27,539913  	63,521241  	0,175566  	0,088960  	-3191,052658  	1706,565828  	-0,053738  	-0,049992  	0,318929  	0,161604  	-4,055407  	9854,444145  	57058,177136  	8,275589  	-0,047944  
209,558000  	22,106290  	30,672560  	26,130100  	57,696365  	70,254344  	64,284101  	0,006611  	0,008471  	0,003963  	0,004250  	0,004346  	-0,000001  	-0,000000  	25,863395  	23,876773  	24,809271  	24,916538  	28,397491  	26,974603  	28,230919  	28,141327  	31,645430  	30,640757  	33,491080  	58,436161  	28,042671  	27,576130  	27,548057  	63,541503  	0,209373  	0,106091  	-3799,986638  	1707,181467  	-0,053758  	-0,050012  	0,300167  	0,152097  	-3,801785  	9616,931837  	57190,558513  	8,294789  	-0,047962  
210,555000  	22,121272  	30,673483  	26,129547  	1256,670793  	70,253908  	64,261278  	0,006616  	0,008627  	0,003963  	0,004213  	0,004369  	-0,000000  	-0,000000  	25,858543  	23,872355  	24,792492  	24,905519  	28,381430  	26,966220  	28,231375  	28,131223  	31,637781  	30,617021  	33,478893  	58,427432  	28,045435  	27,569838  	27,538452  	63,532792  	0,178958  	0,090680  	-3242,652182  	25500,773764  	-0,018517  	-0,050005  	0,318558  	0,161416  	-4,049838  	9954,067418  	57292,570128  	8,309585  	-0,047956  
211,557000  	22,138588  	30,680685  	26,129639  	1256,670793  	70,256649  	64,247660  	0,006604  	0,008550  	0,003963  	0,004254  	0,004379  	-0,000001  	-0,000000  	25,857035  	23,869377  	24,793598  	24,903045  	28,388906  	26,968379  	28,227342  	28,130486  	31,639256  	30,625216  	33,480152  	58,431282  	28,048807  	27,567331  	27,545968  	63,529829  	0,212084  	0,107464  	-3838,318770  	25501,702537  	-0,018518  	-0,050007  	0,326715  	0,165549  	-4,164875  	9787,822527  	57036,534885  	8,272450  	-0,047957  
212,556000  	22,143377  	30,679516  	26,130008  	1256,670793  	70,262194  	64,263020  	0,006611  	0,008446  	0,003964  	0,004256  	0,004355  	0,000000  	-0,000000  	25,846152  	23,879476  	24,797806  	24,910168  	28,382929  	26,966348  	28,225350  	28,136724  	31,643639  	30,627015  	33,478695  	58,441531  	28,037553  	27,557618  	27,547264  	63,536507  	0,213964  	0,108417  	-3869,639432  	25496,247561  	-0,018514  	-0,049995  	0,307510  	0,155818  	-3,913662  	9563,373920  	57178,251028  	8,293004  	-0,047947  
213,557000  	22,174693  	30,674653  	26,128533  	956,927186  	70,262692  	64,288174  	0,006623  	0,008479  	0,003962  	0,004212  	0,004353  	0,000001  	-0,000000  	25,847953  	23,867869  	24,798135  	24,903382  	28,383918  	26,973949  	28,225684  	28,129820  	31,642452  	30,622881  	33,472348  	58,431394  	28,045857  	27,554412  	27,535387  	63,531258  	0,178440  	0,090417  	-3213,498617  	22439,329172  	-0,022141  	-0,049992  	0,305882  	0,154993  	-3,876950  	9634,444666  	57432,062027  	8,329816  	-0,047944  
214,555000  	22,185315  	30,683086  	26,128963  	-242,047242  	70,261696  	64,278348  	0,006608  	0,008495  	0,003962  	0,004255  	0,004333  	0,000001  	-0,000000  	25,853711  	23,877370  	24,796860  	24,901222  	28,382133  	26,967508  	28,226868  	28,127299  	31,650428  	30,620476  	33,475118  	58,433609  	28,048016  	27,561137  	27,544247  	63,531246  	0,213490  	0,108177  	-3843,710893  	-27094,567318  	-0,102493  	-0,049992  	0,289791  	0,146839  	-3,678432  	9669,006948  	57117,094898  	8,284134  	-0,047945  
215,557000  	22,183658  	30,694813  	26,128502  	-242,047242  	70,261353  	64,266005  	0,006611  	0,008508  	0,003962  	0,004224  	0,004363  	0,000000  	-0,000000  	25,853858  	23,875716  	24,806059  	24,914766  	28,393518  	26,974184  	28,224779  	28,137739  	31,645054  	30,630754  	33,483291  	58,439035  	28,058282  	27,566815  	27,550763  	63,541136  	0,187990  	0,095256  	-3389,930941  	-27097,869773  	-0,102506  	-0,049999  	0,314023  	0,159118  	-3,994004  	9697,818399  	57181,266114  	8,293441  	-0,047951  
216,554000  	22,177456  	30,703923  	26,128871  	956,927186  	70,264593  	64,265756  	0,006622  	0,008683  	0,003963  	0,004211  	0,004349  	0,000000  	-0,000000  	25,853501  	23,876909  	24,792795  	24,909642  	28,396466  	26,973440  	28,224533  	28,132188  	31,644032  	30,632319  	33,478388  	58,441608  	28,053962  	27,565640  	27,540586  	63,537624  	0,177791  	0,090088  	-3211,789434  	22442,546175  	-0,022144  	-0,050000  	0,302804  	0,153433  	-3,853554  	10074,918320  	57409,953744  	8,326610  	-0,047951  
217,559000  	22,162565  	30,711402  	26,128994  	956,927186  	70,267209  	64,258200  	0,006605  	0,008338  	0,003962  	0,004202  	0,004352  	-0,000001  	-0,000000  	25,837560  	23,865428  	24,781164  	24,897366  	28,379447  	26,955849  	28,212261  	28,116232  	31,627900  	30,610114  	33,459581  	58,428951  	28,042749  	27,560018  	27,531954  	63,530515  	0,170204  	0,086244  	-3082,796329  	22447,310999  	-0,022149  	-0,050012  	0,304889  	0,154490  	-3,886665  	9330,372288  	57064,051965  	8,276441  	-0,047961  
218,556000  	22,153478  	30,714049  	26,127887  	357,439972  	70,268704  	64,250614  	0,006615  	0,008596  	0,003963  	0,004231  	0,004375  	0,000000  	-0,000000  	25,837491  	23,869053  	24,783073  	24,894772  	28,369211  	26,953423  	28,209396  	28,115339  	31,627084  	30,613188  	33,459652  	58,427511  	28,050180  	27,562814  	27,531436  	63,531947  	0,193855  	0,098228  	-3515,992525  	12439,486220  	-0,036421  	-0,050000  	0,323495  	0,163918  	-4,130079  	9886,321668  	57273,003839  	8,306747  	-0,047951  
219,557000  	22,163701  	30,714142  	26,127334  	1256,670793  	70,267645  	64,248375  	0,006618  	0,008564  	0,003960  	0,004249  	0,004360  	-0,000000  	-0,000000  	25,847936  	23,874308  	24,787975  	24,896075  	28,379117  	26,964962  	28,218299  	28,124007  	31,637703  	30,623019  	33,469110  	58,429599  	28,066449  	27,578703  	27,533879  	63,535537  	0,208230  	0,105512  	-3772,248538  	25501,065754  	-0,018517  	-0,050005  	0,311679  	0,157930  	-3,979999  	9818,948742  	57325,029974  	8,314293  	-0,047956  
220,556000  	22,188079  	30,710079  	26,126719  	1256,670793  	70,262038  	64,252790  	0,006607  	0,008570  	0,003963  	0,004241  	0,004352  	-0,000001  	-0,000000  	25,852842  	23,877302  	24,797507  	24,897210  	28,387422  	26,966400  	28,226800  	28,128468  	31,639876  	30,621450  	33,470970  	58,435449  	28,080462  	27,593809  	27,537609  	63,539171  	0,201792  	0,102249  	-3643,445856  	25502,392738  	-0,018518  	-0,050008  	0,304893  	0,154491  	-3,886857  	9829,928306  	57099,308004  	8,281554  	-0,047958  
221,555000  	22,210061  	30,706231  	26,126688  	57,696365  	70,260138  	64,260594  	0,006615  	0,008309  	0,003964  	0,004274  	0,004349  	-0,000000  	-0,000000  	25,846701  	23,870097  	24,795644  	24,891924  	28,380719  	26,960386  	28,220370  	28,125986  	31,632441  	30,609603  	33,463956  	58,430487  	28,079538  	27,594827  	27,531862  	63,531008  	0,228550  	0,115808  	-4114,070498  	1707,090909  	-0,053749  	-0,050003  	0,303028  	0,153547  	-3,856856  	9268,141081  	57272,057652  	8,306610  	-0,047954  
222,557000  	22,215403  	30,702107  	26,126074  	1256,670793  	70,257085  	64,277695  	0,006625  	0,008406  	0,003963  	0,004289  	0,004365  	-0,000000  	-0,000000  	25,835021  	23,857620  	24,784196  	24,886345  	28,373834  	26,951701  	28,212247  	28,118879  	31,627118  	30,605266  	33,463750  	58,420905  	28,072377  	27,591748  	27,530329  	63,525103  	0,240609  	0,121918  	-4326,301742  	25500,428741  	-0,018517  	-0,050004  	0,315030  	0,159628  	-3,996153  	9478,125952  	57475,741950  	8,336152  	-0,047955  
223,556000  	22,202324  	30,706078  	26,126258  	357,439972  	70,254033  	64,280774  	0,006608  	0,008443  	0,003963  	0,004265  	0,004353  	-0,000000  	-0,000000  	25,834373  	23,858402  	24,782254  	24,889311  	28,374363  	26,948899  	28,216540  	28,115755  	31,627846  	30,609657  	33,470136  	58,426554  	28,081629  	27,602782  	27,537350  	63,530912  	0,221608  	0,112290  	-3992,669007  	12440,552160  	-0,036424  	-0,050004  	0,305900  	0,155002  	-3,876353  	9557,422175  	57108,183799  	8,282842  	-0,047955  
224,559000  	22,190473  	30,718758  	26,125274  	956,927186  	70,249360  	64,269891  	0,006615  	0,008454  	0,003963  	0,004236  	0,004363  	0,000001  	-0,000000  	25,844103  	23,869591  	24,789164  	24,899063  	28,380808  	26,960626  	28,222661  	28,122846  	31,632236  	30,614840  	33,473827  	58,433734  	28,101088  	27,623298  	27,536919  	63,539889  	0,197709  	0,100181  	-3572,372850  	22438,932677  	-0,022141  	-0,049990  	0,313838  	0,159024  	-3,981074  	9581,113132  	57275,602321  	8,307124  	-0,047943  
225,555000  	22,186912  	30,730793  	26,125490  	57,696365  	70,253814  	64,241193  	0,006620  	0,008418  	0,003965  	0,004229  	0,004377  	0,000000  	-0,000000  	25,844929  	23,873411  	24,790232  	24,903203  	28,386149  	26,968055  	28,219843  	28,130451  	31,635113  	30,620611  	33,477629  	58,430755  	28,110153  	27,627784  	27,538838  	63,546815  	0,191840  	0,097207  	-3472,665281  	1706,998563  	-0,053744  	-0,049998  	0,324579  	0,164466  	-4,140137  	9502,495349  	57385,910721  	8,323123  	-0,047950  
226,557000  	22,163087  	30,730424  	26,123768  	1256,670793  	70,262163  	64,223656  	0,006604  	0,008571  	0,003964  	0,004201  	0,004390  	-0,000001  	-0,000000  	25,839687  	23,869416  	24,786391  	24,898477  	28,381732  	26,964439  	28,212185  	28,126990  	31,634671  	30,618039  	33,477140  	58,427831  	28,112532  	27,614702  	27,542690  	63,540382  	0,169629  	0,085952  	-3079,041086  	25502,656335  	-0,018518  	-0,050009  	0,335017  	0,169756  	-4,291676  	9833,117474  	57028,231039  	8,271246  	-0,047959  
227,556000  	22,144574  	30,725991  	26,125059  	1256,670793  	70,262568  	64,217220  	0,006617  	0,008347  	0,003964  	0,004204  	0,004335  	0,000000  	-0,000000  	25,843794  	23,873770  	24,795733  	24,904534  	28,383539  	26,964563  	28,215565  	28,120628  	31,642111  	30,619438  	33,475469  	58,432111  	28,116583  	27,602888  	27,541764  	63,537794  	0,171537  	0,086919  	-3118,783192  	25496,786811  	-0,018514  	-0,049996  	0,291796  	0,147855  	-3,742225  	9350,385940  	57322,565653  	8,313935  	-0,047948  
228,559000  	22,151758  	30,720082  	26,124199  	57,696365  	70,262132  	64,229284  	0,006620  	0,008401  	0,003962  	0,004248  	0,004355  	0,000001  	-0,000000  	25,847959  	23,867858  	24,795470  	24,902167  	28,383884  	26,962481  	28,220439  	28,126879  	31,641849  	30,614661  	33,473584  	58,441259  	28,110660  	27,578407  	27,556713  	63,539983  	0,207171  	0,104975  	-3760,921617  	1706,835795  	-0,053737  	-0,049990  	0,307573  	0,155849  	-3,936412  	9466,264203  	57367,502451  	8,320453  	-0,047943  
229,556000  	22,143991  	30,714511  	26,125029  	1256,670793  	70,260823  	64,230155  	0,006609  	0,008510  	0,003962  	0,004196  	0,004356  	0,000000  	-0,000000  	25,847439  	23,866745  	24,796432  	24,903332  	28,386857  	26,969070  	28,222679  	28,132806  	31,635883  	30,616792  	33,474297  	58,443090  	28,114761  	27,569606  	27,545215  	63,536538  	0,165334  	0,083776  	-3002,190674  	25496,558132  	-0,018514  	-0,049995  	0,307990  	0,156061  	-3,940334  	9701,572816  	57130,588648  	8,286091  	-0,047947  
230,558000  	22,147061  	30,707678  	26,125951  	1256,670793  	70,258269  	64,227792  	0,006617  	0,008395  	0,003962  	0,004225  	0,004324  	-0,000000  	-0,000000  	25,840177  	23,865380  	24,788870  	24,898760  	28,380792  	26,959716  	28,219553  	28,126887  	31,633357  	30,604609  	33,467684  	58,433293  	28,106938  	27,566492  	27,531865  	63,526438  	0,189087  	0,095812  	-3429,536479  	25500,496209  	-0,018517  	-0,050004  	0,282471  	0,143130  	-3,613731  	9454,062879  	57318,893884  	8,313403  	-0,047955  
231,555000  	22,167601  	30,698721  	26,126596  	1256,670793  	70,255403  	64,220361  	0,006618  	0,008442  	0,003961  	0,004226  	0,004365  	0,000000  	-0,000001  	25,851547  	23,879459  	24,794105  	24,906541  	28,390837  	26,969997  	28,230981  	28,127910  	31,645297  	30,622948  	33,476498  	58,432996  	28,099541  	27,569418  	27,549040  	63,537305  	0,189547  	0,096045  	-3426,032100  	25497,539981  	-0,018515  	-0,049997  	0,315685  	0,159960  	-4,041702  	9555,236874  	57335,840508  	8,315861  	-0,047949  
232,556000  	22,171223  	30,691581  	26,127088  	1256,670793  	70,256898  	64,215759  	0,006606  	0,008434  	0,003961  	0,004191  	0,004324  	0,000000  	-0,000000  	25,843752  	23,870671  	24,797249  	24,899794  	28,386503  	26,970609  	28,221677  	28,130438  	31,646294  	30,626535  	33,476558  	58,433001  	28,090108  	27,568337  	27,548695  	63,528684  	0,161468  	0,081817  	-2914,816821  	25497,350405  	-0,018515  	-0,049997  	0,282566  	0,143178  	-3,621337  	9537,773566  	57072,553522  	8,277674  	-0,047949  
233,555000  	22,160662  	30,689180  	26,128563  	-242,047242  	70,259577  	64,223656  	0,006618  	0,008583  	0,003962  	0,004275  	0,004342  	-0,000000  	-0,000000  	25,847602  	23,881353  	24,793659  	24,910128  	28,378529  	26,966231  	28,232748  	28,131320  	31,634668  	30,625497  	33,476264  	58,438633  	28,096877  	27,582694  	27,543549  	63,541227  	0,229215  	0,116145  	-4141,769434  	-27100,621422  	-0,102517  	-0,050005  	0,296759  	0,150370  	-3,799945  	9859,527853  	57325,743145  	8,314396  	-0,047955  
234,558000  	22,154767  	30,689426  	26,128994  	357,439972  	70,266680  	64,216630  	0,006617  	0,008976  	0,003963  	0,004207  	0,004380  	0,000001  	-0,000000  	25,846066  	23,865185  	24,795237  	24,894432  	28,381205  	26,965581  	28,211788  	28,128257  	31,640197  	30,616934  	33,474534  	58,430250  	28,092047  	27,576978  	27,537170  	63,520810  	0,174713  	0,088528  	-3159,215457  	12436,882264  	-0,036413  	-0,049989  	0,327127  	0,165758  	-4,198606  	10706,379086  	57306,988881  	8,311676  	-0,047942  
235,555000  	22,161307  	30,691181  	26,129824  	1256,670793  	70,272785  	64,224216  	0,006607  	0,008698  	0,003964  	0,004213  	0,004373  	-0,000000  	-0,000000  	25,853571  	23,867624  	24,812117  	24,899777  	28,383313  	26,969624  	28,224795  	28,137955  	31,638860  	30,625462  	33,483029  	58,435893  	28,105875  	27,608990  	27,543872  	63,538547  	0,178862  	0,090631  	-3232,430768  	25501,113984  	-0,018517  	-0,050006  	0,321527  	0,162920  	-4,125724  	10107,833667  	57089,422474  	8,280121  	-0,047956  
236,557000  	22,167017  	30,692104  	26,131914  	57,696365  	70,275277  	64,277696  	0,006613  	0,008498  	0,003963  	0,004255  	0,004342  	-0,000000  	-0,000001  	25,854776  	23,883682  	24,805856  	24,907911  	28,388110  	26,967292  	28,222908  	28,125090  	31,645402  	30,629588  	33,474644  	58,440385  	28,093253  	27,598571  	27,548473  	63,529042  	0,212864  	0,107860  	-3844,765917  	1706,785505  	-0,053749  	-0,050003  	0,296953  	0,150468  	-3,778308  	9674,614873  	57226,527723  	8,300006  	-0,047954  
237,555000  	22,155136  	30,694166  	26,131391  	1256,670793  	70,279545  	64,302041  	0,006618  	0,008534  	0,003963  	0,004207  	0,004338  	-0,000001  	-0,000000  	25,857326  	23,873898  	24,792484  	24,907236  	28,387511  	26,960372  	28,225746  	28,123967  	31,642137  	30,617987  	33,477770  	58,435098  	28,094527  	27,604595  	27,546655  	63,531638  	0,174647  	0,088495  	-3159,646318  	25504,220743  	-0,018520  	-0,050013  	0,293848  	0,148895  	-3,726295  	9752,954629  	57344,003132  	8,317044  	-0,047962  
238,557000  	22,168399  	30,704077  	26,132928  	1256,670793  	70,285277  	64,311494  	0,006603  	0,008391  	0,003962  	0,004233  	0,004411  	-0,000001  	-0,000000  	25,855900  	23,874187  	24,794606  	24,904929  	28,384421  	26,969078  	28,225979  	28,133442  	31,641440  	30,623034  	33,482447  	58,443265  	28,097867  	27,602469  	27,555133  	63,537565  	0,195574  	0,099099  	-3536,850737  	25504,477205  	-0,018520  	-0,050013  	0,351871  	0,178296  	-4,459310  	9443,932250  	57020,435592  	8,270115  	-0,047963  
239,557000  	22,175767  	30,720328  	26,133112  	1256,670793  	70,288454  	64,313546  	0,006612  	0,008477  	0,003965  	0,004196  	0,004336  	-0,000000  	-0,000000  	25,839297  	23,861045  	24,781098  	24,897070  	28,383236  	26,959205  	28,210599  	28,120638  	31,626561  	30,613262  	33,452431  	58,432696  	28,089556  	27,581176  	27,528427  	63,522094  	0,165110  	0,083662  	-2989,036149  	25499,775118  	-0,018516  	-0,050003  	0,292260  	0,148090  	-3,704545  	9629,307900  	57214,608597  	8,298277  	-0,047954  
240,557000  	22,177118  	30,729623  	26,132805  	1256,670793  	70,290323  	64,306394  	0,006619  	0,008467  	0,003963  	0,004246  	0,004338  	0,000000  	-0,000000  	25,845673  	23,870610  	24,792561  	24,906058  	28,388148  	26,968964  	28,217330  	28,136443  	31,637216  	30,620146  	33,467144  	58,433553  	28,101914  	27,572262  	27,542486  	63,530517  	0,205741  	0,104251  	-3728,062174  	25496,452040  	-0,018514  	-0,049996  	0,294228  	0,149087  	-3,735116  	9608,813893  	57346,714592  	8,317438  	-0,047948  
241,556000  	22,167294  	30,731716  	26,134680  	956,927186  	70,286491  	64,292185  	0,006602  	0,008389  	0,003962  	0,004221  	0,004320  	0,000001  	-0,000000  	25,847796  	23,875313  	24,794341  	24,902358  	28,380506  	26,963284  	28,221241  	28,122543  	31,641113  	30,624120  	33,471420  	58,424265  	28,097914  	27,558623  	27,545065  	63,526251  	0,185375  	0,093931  	-3363,694804  	22439,476657  	-0,022141  	-0,049993  	0,279679  	0,141715  	-3,556582  	9441,242540  	56981,161791  	8,264419  	-0,047945  
242,558000  	22,150899  	30,730916  	26,135356  	357,439972  	70,279327  	64,277820  	0,006619  	0,008625  	0,003963  	0,004240  	0,004357  	-0,000001  	-0,000000  	25,847707  	23,869184  	24,796758  	24,903501  	28,378003  	26,963527  	28,220545  	28,125449  	31,629706  	30,621017  	33,471819  	58,423039  	28,094231  	27,536989  	27,538397  	63,524974  	0,201232  	0,101966  	-3658,088615  	12441,803813  	-0,036429  	-0,050012  	0,309202  	0,156675  	-3,936724  	9949,766853  	57346,841692  	8,317456  	-0,047962  
243,683000  	22,099689  	30,724914  	26,136278  	357,439972  	70,274498  	64,263144  	0,006616  	0,008570  	0,003964  	0,004253  	0,004374  	-0,000000  	-0,000000  	25,843533  	23,866970  	24,793120  	24,894124  	28,376162  	26,963962  	28,214679  	28,127517  	31,630419  	30,605156  	33,467836  	58,425590  	28,083356  	27,510654  	27,536353  	63,516930  	0,211816  	0,107329  	-3870,797840  	12439,844928  	-0,036423  	-0,050003  	0,322699  	0,163514  	-4,115309  	9829,794599  	57300,979890  	8,310804  	-0,047954  
244,555000  	22,035033  	30,718266  	26,136586  	956,927186  	70,272069  	64,263393  	0,006608  	0,008588  	0,003964  	0,004244  	0,004331  	-0,000000  	-0,000000  	25,842967  	23,866181  	24,785051  	24,895430  	28,379891  	26,959271  	28,217941  	28,125066  	31,631056  	30,603004  	33,470235  	58,426435  	28,081424  	27,493847  	27,537219  	63,517988  	0,204586  	0,103665  	-3763,828120  	22443,086400  	-0,022145  	-0,050002  	0,288308  	0,146088  	-3,675093  	9868,883121  	57126,005998  	8,285427  	-0,047953  
245,556000  	22,036722  	30,714419  	26,136893  	1256,670793  	70,272131  	64,260346  	0,006620  	0,008445  	0,003963  	0,004239  	0,004349  	0,000000  	-0,000000  	25,848231  	23,863060  	24,780120  	24,896756  	28,376578  	26,957429  	28,219192  	28,123490  	31,623435  	30,608508  	33,468275  	58,423029  	28,081110  	27,475556  	27,532487  	63,522928  	0,200335  	0,101511  	-3683,278808  	25497,236515  	-0,018515  	-0,049998  	0,302870  	0,153466  	-3,862704  	9562,296479  	57368,257988  	8,320562  	-0,047949  
246,555000  	22,061528  	30,707709  	26,137200  	657,183579  	70,271010  	64,272721  	0,006615  	0,008423  	0,003962  	0,004248  	0,004370  	-0,000001  	-0,000000  	25,845017  	23,867930  	24,782444  	24,892123  	28,377588  	26,958988  	28,217328  	28,124740  	31,630401  	30,618216  	33,469722  	58,429103  	28,075463  	27,456871  	27,534126  	63,525511  	0,207185  	0,104982  	-3795,363650  	18407,737401  	-0,027547  	-0,050008  	0,319140  	0,161711  	-4,061079  	9513,266217  	57278,942218  	8,307608  	-0,047959  
247,559000  	22,068251  	30,688503  	26,137108  	657,183579  	70,270760  	64,278069  	0,006606  	0,008363  	0,003963  	0,004214  	0,004373  	0,000000  	-0,000000  	25,843879  	23,870004  	24,781222  	24,890523  	28,382486  	26,960872  	28,214785  	28,122224  	31,630911  	30,619598  	33,471938  	58,427433  	28,074636  	27,448864  	27,540211  	63,520670  	0,179699  	0,091055  	-3281,995827  	18404,090150  	-0,027541  	-0,049997  	0,321997  	0,163158  	-4,093607  	9384,634822  	57070,124506  	8,277322  	-0,047949  
248,556000  	22,072979  	30,666158  	26,137477  	1256,670793  	70,271633  	64,252821  	0,006616  	0,008418  	0,003963  	0,004245  	0,004365  	-0,000000  	-0,000000  	25,839357  	23,864254  	24,780302  	24,890709  	28,381789  	26,957792  	28,213364  	28,119872  	31,621855  	30,611524  	33,468900  	58,419060  	28,070478  	27,434872  	27,535941  	63,513067  	0,205257  	0,104005  	-3737,001628  	25500,487133  	-0,018517  	-0,050005  	0,315509  	0,159871  	-4,028603  	9503,338625  	57300,817485  	8,310781  	-0,047955  
249,557000  	22,078475  	30,655570  	26,137631  	57,696365  	70,270137  	64,238332  	0,006614  	0,008491  	0,003963  	0,004208  	0,004340  	-0,000000  	-0,000000  	25,838475  	23,861986  	24,784148  	24,891870  	28,379138  	26,953218  	28,217240  	28,119805  	31,625621  	30,612972  	33,468138  	58,422543  	28,063171  	27,423381  	27,535874  	63,513926  	0,175533  	0,088944  	-3189,845092  	1706,524722  	-0,053750  	-0,050005  	0,295331  	0,149646  	-3,779089  	9660,902445  	57246,065768  	8,302840  	-0,047956  
250,556000  	22,085413  	30,652800  	26,137877  	657,183579  	70,268767  	64,245670  	0,006605  	0,008444  	0,003964  	0,004247  	0,004328  	0,000000  	-0,000000  	25,843174  	23,864551  	24,785726  	24,895625  	28,377198  	26,954726  	28,217182  	28,117717  	31,628821  	30,615826  	33,469178  	58,427284  	28,060905  	27,420451  	27,545406  	63,518836  	0,206789  	0,104781  	-3753,579100  	18404,700433  	-0,027542  	-0,049999  	0,286194  	0,145016  	-3,656882  	9558,242105  	57051,483219  	8,274618  	-0,047951  
251,557000  	22,088637  	30,647445  	26,138246  	657,183579  	70,269795  	64,243991  	0,006613  	0,008498  	0,003962  	0,004222  	0,004340  	0,000001  	-0,000000  	25,839194  	23,866797  	24,788171  	24,900174  	28,375358  	26,958348  	28,214342  	28,120237  	31,625281  	30,611678  	33,470989  	58,430491  	28,054777  	27,405896  	27,547228  	63,517571  	0,186332  	0,094416  	-3378,861734  	18402,370629  	-0,027539  	-0,049992  	0,295692  	0,149829  	-3,779944  	9676,270297  	57236,272031  	8,301419  	-0,047945  
252,555000  	22,099935  	30,644921  	26,138000  	1256,670793  	70,269545  	64,234041  	0,006619  	0,008574  	0,003962  	0,004245  	0,004334  	0,000000  	-0,000000  	25,841792  	23,866814  	24,790343  	24,899910  	28,374065  	26,957112  	28,220540  	28,123138  	31,628466  	30,614425  	33,472100  	58,433018  	28,047797  	27,394641  	27,543338  	63,514427  	0,204962  	0,103856  	-3710,687933  	25495,779731  	-0,018514  	-0,049994  	0,290652  	0,147276  	-3,721499  	9839,349367  	57360,173036  	8,319390  	-0,047947  
253,557000  	22,134750  	30,645752  	26,137631  	57,696365  	70,270667  	64,230497  	0,006608  	0,008457  	0,003962  	0,004295  	0,004330  	0,000001  	-0,000000  	25,836689  	23,866652  	24,787347  	24,891350  	28,374914  	26,955670  	28,220378  	28,119158  	31,628918  	30,613547  	33,466149  	58,426206  	28,047335  	27,388121  	27,535457  	63,519392  	0,245404  	0,124348  	-4425,186611  	1705,999653  	-0,053733  	-0,049988  	0,287659  	0,145759  	-3,686014  	9587,272865  	57111,502513  	8,283323  	-0,047941  
254,556000  	22,152618  	30,649445  	26,136832  	657,183579  	70,269795  	64,247038  	0,006618  	0,008497  	0,003961  	0,004240  	0,004387  	0,000001  	-0,000000  	25,845626  	23,864523  	24,784341  	24,893714  	28,378319  	26,964874  	28,219638  	28,121902  	31,625492  	30,613586  	33,471038  	58,434132  	28,050097  	27,387571  	27,539380  	63,525043  	0,200752  	0,101722  	-3613,968051  	18401,124618  	-0,027537  	-0,049988  	0,333122  	0,168795  	-4,256273  	9673,624449  	57328,588765  	8,314809  	-0,047941  
255,557000  	22,151881  	30,647968  	26,137477  	657,183579  	70,269421  	64,260470  	0,006618  	0,008403  	0,003962  	0,004185  	0,004348  	0,000000  	-0,000000  	25,842803  	23,860531  	24,781002  	24,891363  	28,378468  	26,957072  	28,215616  	28,113744  	31,621927  	30,607320  	33,470102  	58,425541  	28,038880  	27,379265  	27,541826  	63,518128  	0,156124  	0,079109  	-2810,329927  	18404,136494  	-0,027541  	-0,049997  	0,302208  	0,153131  	-3,852453  	9470,195481  	57323,730733  	8,314104  	-0,047949  
256,556000  	22,145925  	30,652769  	26,137723  	57,696365  	70,270978  	64,255806  	0,006610  	0,008492  	0,003962  	0,004225  	0,004375  	0,000000  	-0,000000  	25,834256  	23,867189  	24,784421  	24,888877  	28,373893  	26,953765  	28,207566  	28,106150  	31,628441  	30,609399  	33,464894  	58,429269  	28,035706  	27,379072  	27,540933  	63,515967  	0,188539  	0,095534  	-3398,111101  	1706,229349  	-0,053741  	-0,049995  	0,323653  	0,163997  	-4,130091  	9662,793448  	57169,071606  	8,291673  	-0,047947  
257,559000  	22,174938  	30,665265  	26,136862  	956,927186  	70,276710  	64,248126  	0,006615  	0,008538  	0,003961  	0,004255  	0,004361  	0,000001  	-0,000000  	25,827173  	23,855549  	24,781763  	24,882454  	28,372264  	26,950778  	28,210268  	28,111006  	31,618015  	30,610527  	33,455329  	58,426161  	28,021427  	27,384448  	27,527752  	63,502131  	0,213169  	0,108014  	-3834,564144  	22438,242878  	-0,022140  	-0,049990  	0,311777  	0,157980  	-3,987413  	9762,706067  	57277,678283  	8,307425  	-0,047943  
258,556000  	22,177394  	30,672591  	26,136002  	-242,047242  	70,283003  	64,236249  	0,006610  	0,008558  	0,003963  	0,004199  	0,004359  	0,000001  	-0,000000  	25,845758  	23,860037  	24,785353  	24,887797  	28,365560  	26,947978  	28,205429  	28,117566  	31,621620  	30,614740  	33,466467  	58,432817  	28,033082  	27,390550  	27,544567  	63,519659  	0,168011  	0,085133  	-3023,989821  	-27092,144710  	-0,102482  	-0,049987  	0,310344  	0,157253  	-3,981035  	9804,195660  	57161,523298  	8,290578  	-0,047940  
259,555000  	22,150223  	30,677300  	26,135541  	657,183579  	70,280635  	64,236715  	0,006610  	0,008441  	0,003962  	0,004224  	0,004385  	0,000001  	-0,000001  	25,820343  	23,842730  	24,767634  	24,880469  	28,355349  	26,935427  	28,195137  	28,088228  	31,611221  	30,595245  	33,445547  	58,406523  	28,019102  	27,383355  	27,529522  	63,506769  	0,187972  	0,095247  	-3395,958689  	18399,854514  	-0,027535  	-0,049984  	0,331171  	0,167807  	-4,246212  	9552,911499  	57170,766269  	8,291919  	-0,047938  
260,556000  	22,122899  	30,681116  	26,135725  	1256,670793  	70,280199  	64,242561  	0,006613  	0,008772  	0,003962  	0,004253  	0,004354  	0,000000  	-0,000000  	25,833949  	23,858356  	24,782953  	24,885378  	28,371721  	26,947029  	28,209816  	28,117850  	31,622260  	30,611141  	33,463244  	58,429501  	28,023201  	27,408224  	27,538703  	63,513561  	0,211882  	0,107362  	-3841,904934  	25498,045496  	-0,018515  	-0,049999  	0,306362  	0,155236  	-3,924036  	10265,882087  	57220,024456  	8,299063  	-0,047951  
261,555000  	22,097755  	30,693674  	26,133727  	1256,670793  	70,279233  	64,259351  	0,006615  	0,008921  	0,003961  	0,004228  	0,004344  	-0,000000  	-0,000000  	25,839687  	23,864336  	24,788863  	24,893133  	28,369334  	26,958288  	28,218072  	28,112473  	31,627674  	30,607842  	33,463579  	58,432524  	28,027677  	27,424209  	27,551695  	63,520390  	0,191191  	0,096878  	-3482,017594  	25499,157698  	-0,018516  	-0,050002  	0,298586  	0,151296  	-3,813195  	10587,587560  	57259,114668  	8,304732  	-0,047953  
262,557000  	22,110649  	30,698968  	26,132559  	1256,670793  	70,281975  	64,289697  	0,006607  	0,008390  	0,003963  	0,004282  	0,004358  	0,000001  	-0,000000  	25,823426  	23,848932  	24,781214  	24,887257  	28,355530  	26,930771  	28,202068  	28,103964  	31,608631  	30,601335  	33,461162  	58,425840  	28,017299  	27,419349  	27,534023  	63,495857  	0,235467  	0,119313  	-4284,586236  	25491,437114  	-0,018510  	-0,049985  	0,309563  	0,156858  	-3,935266  	9443,149107  	57099,625754  	8,281601  	-0,047938  
263,557000  	22,108807  	30,697398  	26,132928  	1256,670793  	70,284685  	64,323775  	0,006614  	0,008428  	0,003962  	0,004185  	0,004351  	-0,000001  	-0,000000  	25,825579  	23,858561  	24,777039  	24,880609  	28,366976  	26,940713  	28,200629  	28,105901  	31,623829  	30,602506  	33,459496  	58,431257  	28,018255  	27,417995  	27,542720  	63,502169  	0,156484  	0,079292  	-2847,492588  	25505,050449  	-0,018520  	-0,050014  	0,304137  	0,154108  	-3,846068  	9524,073871  	57248,466540  	8,303188  	-0,047964  
264,556000  	22,085106  	30,694135  	26,132129  	1256,670793  	70,281071  	64,329372  	0,006616  	0,008705  	0,003961  	0,004247  	0,004360  	0,000001  	-0,000000  	25,832224  	23,849813  	24,772577  	24,882219  	28,364516  	26,937737  	28,204720  	28,101380  	31,623339  	30,603575  	33,457023  	58,416610  	28,018456  	27,425670  	27,535116  	63,498347  	0,206624  	0,104698  	-3768,824056  	25494,993205  	-0,018513  	-0,049992  	0,311362  	0,157769  	-3,931351  	10121,687584  	57283,447196  	8,308262  	-0,047945  
265,557000  	22,103465  	30,698352  	26,131514  	1256,670793  	70,277707  	64,311898  	0,006607  	0,008405  	0,003962  	0,004188  	0,004356  	-0,000000  	-0,000000  	25,830367  	23,848284  	24,768720  	24,878058  	28,350132  	26,936213  	28,199086  	28,098032  	31,610759  	30,590020  	33,452743  	58,412922  	28,017770  	27,419074  	27,533850  	63,489152  	0,158939  	0,080536  	-2894,284239  	25498,818552  	-0,018516  	-0,050001  	0,308322  	0,156229  	-3,902193  	9475,780061  	57104,038937  	8,282241  	-0,047952  
266,556000  	22,131956  	30,703400  	26,130100  	1256,670793  	70,277707  	64,291874  	0,006619  	0,008456  	0,003962  	0,004281  	0,004379  	-0,000000  	-0,000000  	25,831701  	23,855828  	24,774492  	24,886561  	28,368209  	26,944140  	28,205642  	28,102056  	31,616238  	30,601855  	33,459739  	58,420220  	28,025979  	27,424121  	27,542910  	63,496184  	0,234449  	0,118797  	-4257,667824  	25499,691519  	-0,018516  	-0,050002  	0,326660  	0,165521  	-4,148151  	9585,890515  	57351,325486  	8,318107  	-0,047954  
267,557000  	22,153048  	30,696382  	26,130008  	1256,670793  	70,283688  	64,292154  	0,006610  	0,008495  	0,003961  	0,004222  	0,004382  	0,000000  	-0,000000  	25,829335  	23,861206  	24,779112  	24,879296  	28,367663  	26,947716  	28,208947  	28,101657  	31,616143  	30,595565  	33,456528  	58,419629  	28,024113  	27,408152  	27,540177  	63,510514  	0,186211  	0,094354  	-3370,554284  	25497,463140  	-0,018515  	-0,049998  	0,328846  	0,166628  	-4,179879  	9668,752267  	57170,843941  	8,291930  	-0,047949  
268,556000  	22,130636  	30,682347  	26,129393  	1256,670793  	70,282878  	64,280587  	0,006613  	0,008413  	0,003963  	0,004207  	0,004357  	0,000001  	-0,000000  	25,819924  	23,847455  	24,768560  	24,872897  	28,358195  	26,941685  	28,192934  	28,097320  	31,606208  	30,591898  	33,449420  	58,423811  	28,018846  	27,404870  	27,537393  	63,498818  	0,174012  	0,088173  	-3152,844130  	25492,254737  	-0,018511  	-0,049986  	0,308934  	0,156539  	-3,933830  	9492,830220  	57236,130809  	8,301399  	-0,047939  
269,557000  	22,092720  	30,681670  	26,128963  	1256,670793  	70,275526  	64,277882  	0,006620  	0,008430  	0,003962  	0,004240  	0,004345  	-0,000000  	-0,000001  	25,813365  	23,842510  	24,766586  	24,872206  	28,358021  	26,938098  	28,190805  	28,093780  	31,609602  	30,594332  	33,451233  	58,418160  	28,027504  	27,409565  	27,532129  	63,498164  	0,200806  	0,101750  	-3654,157587  	25499,173765  	-0,018516  	-0,050001  	0,299563  	0,151791  	-3,811554  	9528,989915  	57383,841820  	8,322823  	-0,047952  
270,557000  	22,094439  	30,686533  	26,129393  	657,183579  	70,270355  	64,271601  	0,006615  	0,008482  	0,003962  	0,004223  	0,004330  	-0,000000  	-0,000000  	25,820475  	23,852293  	24,772827  	24,880365  	28,363505  	26,945201  	28,206141  	28,104637  	31,623798  	30,598556  	33,466090  	58,426059  	28,043910  	27,443875  	27,541915  	63,516448  	0,187657  	0,095087  	-3416,125139  	18405,606343  	-0,027543  	-0,050001  	0,287483  	0,145670  	-3,658520  	9641,016841  	57271,916430  	8,306589  	-0,047952  
271,559000  	22,121425  	30,691150  	26,129485  	-242,047242  	70,262723  	64,258791  	0,006609  	0,008433  	0,003963  	0,004215  	0,004333  	-0,000000  	-0,000000  	25,817007  	23,851867  	24,772515  	24,871666  	28,359110  	26,943367  	28,200777  	28,099993  	31,614686  	30,596951  	33,460215  	58,425090  	28,042834  	27,466576  	27,536670  	63,516826  	0,180595  	0,091509  	-3279,007296  	-27099,765330  	-0,102513  	-0,050003  	0,290147  	0,147020  	-3,695608  	9536,002121  	57146,334886  	8,288375  	-0,047954  
272,557000  	22,122469  	30,685548  	26,129117  	956,927186  	70,253005  	64,246292  	0,006614  	0,008604  	0,003962  	0,004257  	0,004344  	0,000002  	-0,000000  	25,815623  	23,846416  	24,770675  	24,869383  	28,354628  	26,940492  	28,198550  	28,095565  	31,606330  	30,598114  	33,453426  	58,419971  	28,034888  	27,485706  	27,534537  	63,518030  	0,214835  	0,108858  	-3897,662935  	22432,564605  	-0,022134  	-0,049975  	0,298405  	0,151204  	-3,802543  	9904,430167  	57244,568816  	8,302623  	-0,047930  
273,558000  	22,131035  	30,671513  	26,128748  	-242,047242  	70,246494  	64,242841  	0,006606  	0,008328  	0,003962  	0,004197  	0,004337  	-0,000000  	-0,000000  	25,831188  	23,857558  	24,774597  	24,879377  	28,359052  	26,946528  	28,207789  	28,108518  	31,615847  	30,602767  	33,459666  	58,428504  	28,045447  	27,507307  	27,542413  	63,527056  	0,165911  	0,084068  	-3002,116457  	-27099,406805  	-0,102512  	-0,050002  	0,293052  	0,148491  	-3,732423  	9309,999254  	57075,215554  	8,278060  	-0,047953  
274,555000  	22,153017  	30,665358  	26,128072  	357,439972  	70,246245  	64,244830  	0,006610  	0,008444  	0,003962  	0,004278  	0,004321  	0,000001  	-0,000000  	25,840506  	23,862237  	24,774617  	24,883383  	28,360948  	26,951415  	28,205495  	28,113064  	31,621038  	30,607192  	33,461900  	58,432961  	28,056745  	27,507897  	27,541014  	63,529245  	0,231810  	0,117460  	-4180,699513  	12436,720527  	-0,036413  	-0,049988  	0,280272  	0,142016  	-3,568329  	9559,659827  	57164,037047  	8,290943  	-0,047941  
275,558000  	22,161675  	30,668220  	26,127703  	1256,670793  	70,244874  	64,245079  	0,006622  	0,008597  	0,003962  	0,004194  	0,004300  	-0,000001  	-0,000000  	25,835143  	23,857086  	24,776092  	24,880770  	28,363734  	26,951897  	28,202481  	28,109079  	31,619762  	30,613587  	33,457993  	58,432432  	28,053481  	27,504667  	27,535585  	63,528224  	0,163661  	0,082928  	-2949,620524  	25502,685793  	-0,018518  	-0,050009  	0,264079  	0,133811  	-3,361256  	9888,456741  	57423,228599  	8,328535  	-0,047959  
276,555000  	22,183535  	30,669513  	26,129117  	57,696365  	70,244687  	64,237741  	0,006607  	0,008376  	0,003961  	0,004288  	0,004399  	0,000000  	-0,000000  	25,827293  	23,853027  	24,780078  	24,876415  	28,365223  	26,947702  	28,204785  	28,108637  	31,617800  	30,610852  	33,453216  	58,434571  	28,048955  	27,505239  	27,537132  	63,524764  	0,239924  	0,121571  	-4313,627256  	1706,798976  	-0,053744  	-0,049998  	0,342200  	0,173395  	-4,360785  	9413,064960  	57106,969291  	8,282666  	-0,047950  
277,557000  	22,208035  	30,672314  	26,128963  	1256,670793  	70,250014  	64,233979  	0,006611  	0,008429  	0,003962  	0,004211  	0,004320  	0,000001  	-0,000000  	25,820161  	23,845300  	24,770798  	24,876187  	28,357050  	26,940881  	28,200401  	28,106561  	31,613145  	30,597025  	33,449926  	58,430452  	28,045262  	27,495662  	27,538932  	63,518501  	0,177192  	0,089784  	-3177,613193  	25493,011832  	-0,018511  	-0,049988  	0,279848  	0,141801  	-3,571603  	9527,183805  	57189,548777  	8,294643  	-0,047941  
278,555000  	22,210921  	30,678900  	26,129393  	1256,670793  	70,258362  	64,228196  	0,006619  	0,008406  	0,003962  	0,004238  	0,004332  	-0,000001  	-0,000000  	25,817561  	23,842401  	24,763301  	24,876663  	28,356421  	26,937548  	28,194937  	28,105123  	31,612151  	30,592946  	33,448942  	58,425390  	28,036986  	27,487014  	27,533525  	63,514453  	0,199792  	0,101236  	-3584,471307  	25502,584372  	-0,018518  	-0,050009  	0,289093  	0,146486  	-3,698261  	9476,322672  	57355,110232  	8,318655  	-0,047959  
279,557000  	22,206684  	30,685918  	26,129854  	1256,670793  	70,263751  	64,218495  	0,006606  	0,008420  	0,003963  	0,004245  	0,004346  	-0,000000  	-0,000000  	25,818996  	23,830658  	24,767510  	24,867482  	28,357534  	26,933768  	28,188605  	28,095233  	31,608952  	30,593093  	33,444148  	58,418582  	28,028166  	27,473090  	27,529155  	63,508268  	0,205506  	0,104131  	-3691,881558  	25498,724775  	-0,018516  	-0,050000  	0,299909  	0,151966  	-3,846218  	9506,287261  	57070,110384  	8,277320  	-0,047952  
280,557000  	22,178254  	30,695705  	26,129240  	1256,670793  	70,265184  	64,216692  	0,006613  	0,008541  	0,003963  	0,004216  	0,004316  	0,000002  	-0,000000  	25,822794  	23,840781  	24,766985  	24,867234  	28,355742  	26,942204  	28,194933  	28,092557  	31,612116  	30,587946  	33,442977  	58,420289  	28,028589  	27,473900  	27,529634  	63,509811  	0,181681  	0,092059  	-3278,582824  	25486,829743  	-0,018507  	-0,049974  	0,276359  	0,140033  	-3,546092  	9768,076998  	57232,183658  	8,300826  	-0,047929  
281,675000  	22,164408  	30,704754  	26,129209  	1256,670793  	70,267645  	64,225988  	0,006617  	0,008350  	0,003963  	0,004232  	0,004315  	0,000000  	-0,000000  	25,821297  	23,841526  	24,769609  	24,875265  	28,349868  	26,943278  	28,196687  	28,091944  	31,613632  	30,588692  	33,443368  	58,424635  	28,022312  	27,468043  	27,531325  	63,513906  	0,194375  	0,098491  	-3517,100479  	25496,490032  	-0,018514  	-0,049995  	0,275505  	0,139600  	-3,531149  	9355,849546  	57320,362592  	8,313616  	-0,047947  
282,556000  	22,192715  	30,708386  	26,128102  	657,183579  	70,269826  	64,221635  	0,006608  	0,008713  	0,003964  	0,004295  	0,004313  	-0,000001  	-0,000000  	25,820796  	23,850259  	24,775492  	24,873434  	28,356137  	26,946535  	28,201338  	28,102630  	31,614050  	30,598105  	33,455092  	58,425074  	28,026000  	27,470186  	27,542341  	63,512336  	0,245687  	0,124492  	-4432,710704  	18408,119556  	-0,027547  	-0,050008  	0,274287  	0,138983  	-3,519341  	10139,827918  	57113,274847  	8,283580  	-0,047959  
283,557000  	22,203399  	30,711064  	26,127826  	657,183579  	70,276492  	64,223563  	0,006616  	0,008526  	0,003964  	0,004196  	0,004346  	0,000001  	-0,000000  	25,819087  	23,837713  	24,762161  	24,868132  	28,350769  	26,932699  	28,184372  	28,093232  	31,609221  	30,597732  	33,438852  	58,425360  	28,015418  	27,457114  	27,528524  	63,498929  	0,165513  	0,083866  	-2983,378557  	18402,947585  	-0,027539  	-0,049993  	0,300291  	0,152160  	-3,856015  	9735,022284  	57290,755427  	8,309322  	-0,047945  
284,557000  	22,196583  	30,709340  	26,127272  	1256,670793  	70,279171  	64,233264  	0,006621  	0,008408  	0,003964  	0,004250  	0,004381  	0,000001  	-0,000000  	25,835367  	23,846432  	24,778567  	24,885127  	28,367194  	26,949607  	28,202475  	28,101731  	31,621250  	30,607220  	33,453014  	58,436817  	28,028070  	27,469220  	27,547496  	63,528063  	0,208990  	0,105897  	-3769,328859  	25494,888992  	-0,018513  	-0,049992  	0,328206  	0,166304  	-4,209572  	9482,345868  	57402,045319  	8,325463  	-0,047944  
285,559000  	22,193666  	30,706478  	26,124629  	1256,670793  	70,278486  	64,255215  	0,006608  	0,008350  	0,003965  	0,004256  	0,004348  	0,000000  	-0,000000  	25,834254  	23,854062  	24,778497  	24,884651  	28,367446  	26,951174  	28,206681  	28,107043  	31,624948  	30,611684  	33,462229  	58,433823  	28,023928  	27,472191  	27,546104  	63,517893  	0,213721  	0,108294  	-3854,666336  	25498,352436  	-0,018515  	-0,049999  	0,301880  	0,152965  	-3,857435  	9356,319290  	57128,314976  	8,285762  	-0,047951  
286,558000  	22,195386  	30,715096  	26,123461  	1256,670793  	70,275059  	64,263673  	0,006611  	0,008451  	0,003961  	0,004217  	0,004396  	-0,000002  	-0,000000  	25,823880  	23,849654  	24,772296  	24,873800  	28,348683  	26,939043  	28,202069  	28,108146  	31,608004  	30,592741  	33,449844  	58,425331  	28,014791  	27,450899  	27,536963  	63,515228  	0,182788  	0,092620  	-3299,446243  	25508,126172  	-0,018522  	-0,050021  	0,340128  	0,172345  	-4,337591  	9573,793186  	57188,694385  	8,294519  	-0,047969  
287,556000  	22,200820  	30,722667  	26,122262  	1256,670793  	70,276804  	64,254345  	0,006619  	0,008461  	0,003963  	0,004258  	0,004380  	-0,000001  	-0,000000  	25,819055  	23,844590  	24,774849  	24,868279  	28,352148  	26,936526  	28,194036  	28,097583  	31,614209  	30,586103  	33,446385  	58,422611  	28,012005  	27,449032  	27,542920  	63,503771  	0,216027  	0,109463  	-3900,402268  	25502,852616  	-0,018519  	-0,050009  	0,327505  	0,165949  	-4,184303  	9594,761890  	57355,668058  	8,318736  	-0,047959  
288,558000  	22,204566  	30,723775  	26,120910  	1256,670793  	70,286086  	64,251360  	0,006604  	0,008466  	0,003964  	0,004232  	0,004367  	-0,000002  	-0,000000  	25,825889  	23,853432  	24,785532  	24,878297  	28,371183  	26,947552  	28,200414  	28,109558  	31,617782  	30,602015  	33,453736  	58,429826  	28,026459  	27,455761  	27,542138  	63,515061  	0,194790  	0,098701  	-3515,866708  	25507,656083  	-0,018522  	-0,050019  	0,316830  	0,160540  	-4,056158  	9605,851816  	57042,670975  	8,273340  	-0,047968  
289,556000  	22,203921  	30,722575  	26,118543  	1256,670793  	70,295089  	64,246354  	0,006614  	0,008430  	0,003963  	0,004241  	0,004392  	-0,000001  	-0,000000  	25,833846  	23,854263  	24,784552  	24,888961  	28,367805  	26,952075  	28,213200  	28,112443  	31,614616  	30,611814  	33,460287  	58,420758  	28,022335  	27,446443  	27,545845  	63,511955  	0,202107  	0,102409  	-3647,707763  	25505,406105  	-0,018520  	-0,050014  	0,336722  	0,170620  	-4,320833  	9529,929403  	57249,179710  	8,303292  	-0,047964  
290,561000  	22,184517  	30,723006  	26,116945  	657,183579  	70,298391  	64,242872  	0,006614  	0,008442  	0,003962  	0,004268  	0,004348  	0,000000  	-0,000000  	25,838783  	23,855331  	24,779498  	24,895073  	28,368802  	26,949805  	28,213895  	28,114618  	31,618507  	30,599831  	33,451583  	58,436365  	28,024774  	27,433474  	27,554083  	63,515211  	0,223522  	0,113260  	-4043,611840  	18405,268023  	-0,027542  	-0,049998  	0,301591  	0,152818  	-3,874362  	9555,085481  	57254,581446  	8,304075  	-0,047950  
291,556000  	22,142241  	30,725222  	26,115746  	657,183579  	70,302285  	64,248406  	0,006604  	0,008419  	0,003962  	0,004224  	0,004319  	-0,000000  	-0,000000  	25,827504  	23,854061  	24,779205  	24,883763  	28,362605  	26,951330  	28,202006  	28,104639  	31,616373  	30,594418  	33,446040  	58,429117  	28,015834  	27,407021  	27,540225  	63,511690  	0,187962  	0,095242  	-3418,041413  	18407,464688  	-0,027545  	-0,050005  	0,278517  	0,141127  	-3,576983  	9504,526427  	57026,472827  	8,270991  	-0,047955  
292,556000  	22,094040  	30,723929  	26,115316  	1256,670793  	70,301413  	64,253505  	0,006614  	0,008471  	0,003961  	0,004264  	0,004366  	0,000000  	-0,000000  	25,830644  	23,850889  	24,779862  	24,886671  	28,366755  	26,945293  	28,204219  	28,109157  	31,616622  	30,599991  	33,446742  	58,422152  	28,016872  	27,389095  	27,536513  	63,509724  	0,220298  	0,111627  	-4027,979680  	25497,675490  	-0,018515  	-0,049997  	0,316421  	0,160333  	-4,059772  	9616,693428  	57241,723195  	8,302210  	-0,047949  
293,556000  	22,071229  	30,724853  	26,113994  	57,696365  	70,301257  	64,267466  	0,006621  	0,008613  	0,003962  	0,004234  	0,004323  	-0,000001  	-0,000000  	25,830224  	23,856112  	24,785339  	24,885762  	28,372711  	26,942277  	28,209862  	28,107350  	31,617232  	30,603548  	33,456270  	58,427282  	28,013311  	27,373482  	27,541824  	63,521282  	0,196585  	0,099611  	-3604,291574  	1707,981934  	-0,053756  	-0,050009  	0,282073  	0,142929  	-3,610641  	9922,915735  	57406,585602  	8,326121  	-0,047959  
294,557000  	22,057782  	30,721713  	26,112580  	1256,670793  	70,298952  	64,274182  	0,006607  	0,008378  	0,003961  	0,004191  	0,004385  	-0,000000  	-0,000000  	25,831243  	23,853420  	24,783764  	24,891440  	28,374231  	26,945726  	28,202269  	28,107325  	31,614952  	30,601430  	33,454283  	58,425655  	28,002427  	27,345137  	27,540489  	63,518636  	0,161675  	0,081922  	-2967,761203  	25501,255884  	-0,018517  	-0,050005  	0,330862  	0,167650  	-4,228833  	9416,750755  	57091,314847  	8,280395  	-0,047955  
295,557000  	22,042954  	30,711187  	26,112303  	1256,670793  	70,297737  	64,271912  	0,006615  	0,008441  	0,003960  	0,004227  	0,004321  	-0,000000  	-0,000000  	25,828426  	23,853073  	24,779171  	24,889809  	28,368908  	26,943502  	28,195963  	28,107861  	31,615697  	30,601424  	33,450866  	58,417243  	28,000629  	27,314845  	27,529781  	63,520758  	0,190426  	0,096490  	-3497,266875  	25500,887648  	-0,018517  	-0,050004  	0,280436  	0,142099  	-3,584943  	9553,467551  	57278,031337  	8,307476  	-0,047955  
296,559000  	22,043813  	30,695367  	26,111812  	1256,670793  	70,293251  	64,272783  	0,006617  	0,008474  	0,003964  	0,004202  	0,004362  	0,000002  	-0,000000  	25,830698  	23,860004  	24,783200  	24,898488  	28,368435  	26,948719  	28,212506  	28,112761  	31,624395  	30,604990  	33,459997  	58,425487  	28,004508  	27,285657  	27,534030  	63,526404  	0,170179  	0,086231  	-3119,410336  	25490,119952  	-0,018509  	-0,049980  	0,312846  	0,158521  	-3,995706  	9622,792321  	57312,468289  	8,312471  	-0,047934  
297,556000  	22,023797  	30,679485  	26,110306  	1256,670793  	70,297114  	64,254531  	0,006605  	0,008445  	0,003961  	0,004262  	0,004339  	0,000001  	-0,000000  	25,838868  	23,857050  	24,779558  	24,896147  	28,368061  	26,950885  	28,211413  	28,116030  	31,623609  	30,605608  	33,459998  	58,423978  	28,005033  	27,256187  	27,530192  	63,528180  	0,219095  	0,111017  	-4017,975119  	25493,604521  	-0,018512  	-0,049988  	0,294568  	0,149260  	-3,776066  	9561,141219  	57049,830924  	8,274378  	-0,047941  
298,568000  	22,050629  	30,664342  	26,109937  	1256,670793  	70,305525  	64,239731  	0,006623  	0,008405  	0,003963  	0,004218  	0,004366  	-0,000000  	-0,000000  	25,833444  	23,848864  	24,774717  	24,886029  	28,370594  	26,946884  	28,203223  	28,114663  	31,614288  	30,603143  	33,455930  	58,415385  	28,005563  	27,232743  	27,526304  	63,528445  	0,183510  	0,092986  	-3349,049242  	25501,610361  	-0,018517  	-0,050005  	0,316436  	0,160340  	-4,071966  	9475,989465  	57440,450606  	8,331033  	-0,047956  
299,555000  	22,082220  	30,650399  	26,108646  	1256,670793  	70,312160  	64,245172  	0,006618  	0,008758  	0,003962  	0,004251  	0,004358  	0,000001  	-0,000000  	25,829085  	23,851627  	24,780694  	24,885897  	28,369663  	26,942548  	28,201229  	28,109582  	31,607904  	30,597001  	33,452662  	58,417262  	28,005746  	27,209439  	27,529865  	63,528399  	0,209979  	0,106398  	-3811,841306  	25492,509855  	-0,018511  	-0,049985  	0,309590  	0,156872  	-3,984666  	10236,945417  	57336,560740  	8,315965  	-0,047939  
300,559000  	22,067115  	30,638765  	26,108031  	1256,670793  	70,314527  	64,236280  	0,006607  	0,008483  	0,003962  	0,004238  	0,004369  	-0,000001  	-0,000000  	25,836130  	23,857799  	24,783882  	24,892517  	28,367322  	26,945939  	28,204395  	28,111435  	31,615473  	30,601713  	33,456056  	58,426416  	28,006398  	27,195506  	27,532394  	63,531186  	0,199616  	0,101147  	-3625,197790  	25505,998602  	-0,018521  	-0,050015  	0,318876  	0,161577  	-4,111786  	9643,209924  	57090,545188  	8,280284  	-0,047964  
301,556000  	22,085352  	30,625192  	26,108677  	1256,670793  	70,313935  	64,266409  	0,006617  	0,008446  	0,003964  	0,004227  	0,004377  	-0,000001  	-0,000000  	25,843121  	23,857626  	24,777328  	24,892238  	28,368579  	26,951081  	28,208069  	28,115518  	31,623025  	30,605923  	33,461174  	58,427918  	28,010043  	27,187498  	27,529432  	63,529403  	0,190623  	0,096590  	-3449,012674  	25504,954419  	-0,018520  	-0,050013  	0,324818  	0,164588  	-4,167257  	9563,160271  	57318,597318  	8,313360  	-0,047962  
