06/18/2020 16:12:24
Tempo T_f_e T_f_s AR AR T_q_e T_q_s Corrente_P_f Corrente_P_q Corrente_P_RESERVA Corrente_eletromag_f Corrente_eletromag_q AR AR T_1 T_2 T_3 T_4 T_5 T_6 T_7 T_8 T_9 T_10 T_11 T_12 T_13 T_14 T_15 T_16 Velocidade_f_(m/s) Vazao_f_(L/s) q_f_(W) AR AR AR Velocidade_q_(m/s) Vazao_q_(L/s) q_q_(W) DeltaP_q_(Pa) DeltaP_f_(Pa) DeltaP_f_(Psi) AR
0,007000  	24,209824  	30,245752  	23,197651  	57,696365  	70,209768  	65,266005  	0,009801  	0,011813  	0,003961  	0,004362  	0,004398  	-0,000000  	-0,000000  	26,416192  	25,399403  	26,340397  	26,184197  	29,114086  	27,698935  	28,873960  	28,451922  	31,296676  	30,284097  	32,666423  	59,304862  	25,555409  	24,155619  	28,353445  	64,614030  	0,299686  	0,151853  	-3831,964372  	1873,806611  	-0,054001  	-0,050004  	0,341117  	0,172846  	-3,578052  	16824,273566  	125905,340949  	18,261026  	-0,047955  
2,573000  	24,227519  	30,250307  	23,198818  	657,183579  	70,215437  	65,261402  	0,009802  	0,011747  	0,003962  	0,004418  	0,004499  	-0,000000  	-0,000000  	26,415505  	25,406906  	26,346159  	26,189517  	29,105275  	27,695377  	28,871951  	28,448623  	31,308794  	30,296668  	32,668123  	59,298554  	25,559556  	24,148248  	28,354932  	64,605583  	0,345294  	0,174963  	-4405,520252  	18531,238437  	-0,027610  	-0,050004  	0,421694  	0,213675  	-4,432431  	16681,936817  	125943,004821  	18,266489  	-0,047955  
3,571000  	24,237657  	30,257416  	23,199094  	657,183579  	70,215874  	65,264512  	0,009804  	0,011798  	0,003964  	0,004375  	0,004453  	-0,000002  	-0,000000  	26,429976  	25,411762  	26,350046  	26,189995  	29,123343  	27,708865  	28,885911  	28,448953  	31,312508  	30,295969  	32,674204  	59,301292  	25,552841  	24,167165  	28,362720  	64,620184  	0,310554  	0,157360  	-3960,279352  	18537,621923  	-0,027620  	-0,050023  	0,384830  	0,194996  	-4,042772  	16791,271911  	125989,848114  	18,273283  	-0,047971  
4,573000  	24,217504  	30,264248  	23,196761  	1256,670793  	70,216310  	65,267063  	0,009800  	0,011789  	0,003963  	0,004324  	0,004431  	-0,000000  	-0,000000  	26,420195  	25,402525  	26,337571  	26,175398  	29,110771  	27,701046  	28,872879  	28,443105  	31,300659  	30,284531  	32,662731  	59,302042  	25,543209  	24,163449  	28,355192  	64,616253  	0,269317  	0,136465  	-3449,812529  	25594,207777  	-0,018546  	-0,050001  	0,367296  	0,186112  	-3,856925  	16772,226046  	125894,692821  	18,259481  	-0,047952  
5,573000  	24,181285  	30,275511  	23,194150  	57,696365  	70,216247  	65,263579  	0,009804  	0,011765  	0,003963  	0,004419  	0,004471  	-0,000001  	-0,000001  	26,418710  	25,399489  	26,344290  	26,174128  	29,116314  	27,703511  	28,866709  	28,441479  	31,302229  	30,282164  	32,663505  	59,313146  	25,549244  	24,150019  	28,352824  	64,619027  	0,346455  	0,175552  	-4472,776801  	1874,233286  	-0,054008  	-0,050011  	0,399354  	0,202355  	-4,196455  	16720,639780  	125983,874429  	18,272416  	-0,047961  
6,593000  	24,163345  	30,275327  	23,193843  	1256,670793  	70,217244  	65,261775  	0,009794  	0,011799  	0,003965  	0,004374  	0,004514  	-0,000000  	-0,000000  	26,418888  	25,399704  	26,341100  	26,181076  	29,112766  	27,704941  	28,870491  	28,437818  	31,295496  	30,286588  	32,665651  	59,303611  	25,548270  	24,145793  	28,360166  	64,617219  	0,309796  	0,156976  	-4011,161696  	25594,776678  	-0,018546  	-0,050002  	0,433531  	0,219673  	-4,558172  	16793,394249  	125767,112987  	18,240978  	-0,047953  
7,571000  	24,171455  	30,267572  	23,193659  	1256,670793  	70,216154  	65,264357  	0,009793  	0,011792  	0,003964  	0,004336  	0,004466  	0,000000  	-0,000000  	26,422626  	25,404765  	26,339430  	26,185985  	29,111578  	27,706190  	28,874276  	28,446782  	31,305390  	30,277497  	32,659762  	59,306118  	25,542553  	24,138453  	28,359743  	64,619281  	0,279101  	0,141423  	-3604,347464  	25590,948004  	-0,018543  	-0,049994  	0,395387  	0,200346  	-4,154045  	16778,061061  	125740,852781  	18,237169  	-0,047946  
8,571000  	24,161870  	30,255939  	23,191263  	1256,670793  	70,213600  	65,264792  	0,009797  	0,011789  	0,003963  	0,004444  	0,004430  	0,000000  	-0,000000  	26,417962  	25,408286  	26,344013  	26,191399  	29,112675  	27,708489  	28,873262  	28,441700  	31,300101  	30,281622  	32,670343  	59,313528  	25,541642  	24,134992  	28,359386  	64,617427  	0,366476  	0,185696  	-4731,132654  	25593,406035  	-0,018545  	-0,049999  	0,366573  	0,185745  	-3,848986  	16772,779976  	125820,967945  	18,248789  	-0,047951  
9,698000  	24,166017  	30,249045  	23,186964  	1256,670793  	70,206778  	65,264139  	0,009797  	0,011795  	0,003965  	0,004447  	0,004489  	0,000001  	-0,000000  	26,410410  	25,396706  	26,341517  	26,182506  	29,114394  	27,703035  	28,868366  	28,438877  	31,293379  	30,283441  	32,668234  	59,303081  	25,527816  	24,121314  	28,350159  	64,609680  	0,368637  	0,186791  	-4750,397589  	25589,941464  	-0,018542  	-0,049991  	0,413647  	0,209598  	-4,337854  	16784,603523  	125834,052151  	18,250686  	-0,047944  
10,571000  	24,191208  	30,247876  	23,180515  	1256,670793  	70,202853  	65,264077  	0,009794  	0,011755  	0,003962  	0,004344  	0,004500  	-0,000001  	-0,000000  	26,412982  	25,401273  	26,341734  	26,182428  	29,118875  	27,713702  	28,871594  	28,447775  	31,295723  	30,290340  	32,668249  	59,302809  	25,528643  	24,120074  	28,349071  	64,616508  	0,285506  	0,144668  	-3663,198173  	25598,826732  	-0,018549  	-0,050010  	0,422471  	0,214069  	-4,426918  	16698,624764  	125765,135881  	18,240691  	-0,047960  
11,573000  	24,211852  	30,242521  	23,176000  	1256,670793  	70,198959  	65,267001  	0,009800  	0,011810  	0,003963  	0,004372  	0,004425  	0,000001  	-0,000000  	26,415995  	25,401051  	26,343484  	26,183598  	29,117395  	27,708954  	28,870132  	28,443231  	31,300574  	30,289055  	32,667211  	59,307880  	25,528261  	24,124374  	28,361548  	64,618073  	0,308290  	0,156213  	-3938,548340  	25590,078075  	-0,018542  	-0,049991  	0,362725  	0,183796  	-3,795625  	16817,734641  	125900,002763  	18,260252  	-0,047943  
12,573000  	24,229547  	30,242336  	23,171824  	1256,670793  	70,197526  	65,265135  	0,009801  	0,011804  	0,003963  	0,004393  	0,004486  	0,000000  	-0,000000  	26,417573  	25,399255  	26,338617  	26,179412  	29,111971  	27,700738  	28,865971  	28,439477  	31,292703  	30,280643  	32,663644  	59,308783  	25,522144  	24,123216  	28,360800  	64,612396  	0,325411  	0,164888  	-4144,941246  	25593,330572  	-0,018545  	-0,049997  	0,411138  	0,208327  	-4,302597  	16805,740599  	125919,646725  	18,263101  	-0,047949  
13,572000  	24,239654  	30,252923  	23,171363  	1256,670793  	70,197184  	65,262491  	0,009795  	0,011775  	0,003964  	0,004377  	0,004514  	-0,000000  	-0,000000  	26,417837  	25,404444  	26,338166  	26,182980  	29,112284  	27,701443  	28,869846  	28,443065  	31,294923  	30,280259  	32,670195  	59,307905  	25,518153  	24,123051  	28,353673  	64,611312  	0,312081  	0,158134  	-3975,465954  	25595,920780  	-0,018547  	-0,050003  	0,433276  	0,219544  	-4,536389  	16742,648430  	125790,944177  	18,244434  	-0,047954  
14,573000  	24,243463  	30,264433  	23,170073  	657,183579  	70,198866  	65,258945  	0,009788  	0,011779  	0,003962  	0,004381  	0,004439  	0,000001  	-0,000000  	26,418838  	25,407881  	26,343259  	26,189179  	29,114606  	27,705976  	28,870072  	28,444174  	31,303074  	30,281917  	32,671942  	59,313066  	25,521129  	24,128469  	28,358407  	64,619153  	0,315526  	0,159880  	-4024,500373  	18528,973648  	-0,027606  	-0,049993  	0,373986  	0,189502  	-3,919774  	16750,436704  	125641,637359  	18,222779  	-0,047946  
15,574000  	24,247518  	30,273480  	23,172377  	657,183579  	70,200641  	65,256892  	0,009800  	0,011795  	0,003965  	0,004383  	0,004511  	-0,000000  	-0,000000  	26,420117  	25,403729  	26,343422  	26,188954  	29,111120  	27,707402  	28,866091  	28,440042  	31,302089  	30,284274  	32,663625  	59,314566  	25,522530  	24,130713  	28,361019  	64,620318  	0,316761  	0,160505  	-4043,596833  	18532,595075  	-0,027611  	-0,050004  	0,431241  	0,218513  	-4,523363  	16786,221453  	125898,936538  	18,260097  	-0,047955  
16,572000  	24,252434  	30,282528  	23,173851  	1256,670793  	70,199084  	65,252227  	0,009802  	0,011766  	0,003962  	0,004433  	0,004511  	-0,000000  	-0,000000  	26,420428  	25,401845  	26,341275  	26,185536  	29,113262  	27,704454  	28,868166  	28,442222  	31,303420  	30,288139  	32,665263  	59,311179  	25,522796  	24,125457  	28,356833  	64,616615  	0,357665  	0,181232  	-4568,888311  	25595,088430  	-0,018546  	-0,050001  	0,430844  	0,218312  	-4,522041  	16721,889838  	125943,795664  	18,266603  	-0,047953  
17,571000  	24,258762  	30,288283  	23,175601  	-242,047242  	70,192231  	65,252476  	0,009803  	0,011783  	0,003965  	0,004376  	0,004468  	-0,000000  	-0,000000  	26,417137  	25,404915  	26,338828  	26,181789  	29,117603  	27,701416  	28,868330  	28,443918  	31,299278  	30,284654  	32,668481  	59,311694  	25,523076  	24,119588  	28,355512  	64,617586  	0,311025  	0,157599  	-3972,716618  	-27037,875990  	-0,103436  	-0,050002  	0,397071  	0,201199  	-4,161586  	16760,519934  	125960,113850  	18,268970  	-0,047953  
18,572000  	24,278116  	30,290868  	23,176154  	357,439972  	70,195657  	65,246691  	0,009798  	0,011777  	0,003961  	0,004374  	0,004436  	0,000000  	-0,000000  	26,409475  	25,398868  	26,332996  	26,182076  	29,109067  	27,695382  	28,861788  	28,431845  	31,289952  	30,280313  	32,661770  	59,304108  	25,512189  	24,116442  	28,352232  	64,608796  	0,309581  	0,156867  	-3943,270969  	12585,900897  	-0,036534  	-0,049995  	0,371604  	0,188295  	-3,901932  	16747,356484  	125847,602389  	18,252652  	-0,047947  
19,572000  	24,267057  	30,295207  	23,175878  	1256,670793  	70,200174  	65,247748  	0,009803  	0,011779  	0,003964  	0,004393  	0,004495  	0,000000  	-0,000000  	26,414299  	25,399548  	26,335105  	26,184849  	29,112935  	27,697772  	28,860434  	28,441536  	31,293537  	30,280670  	32,662921  	59,301752  	25,516197  	24,118710  	28,353240  	64,611195  	0,324680  	0,164518  	-4146,187700  	25594,274790  	-0,018545  	-0,050000  	0,418399  	0,212006  	-4,396361  	16750,867539  	125963,686763  	18,269488  	-0,047951  
20,574000  	24,246597  	30,301055  	23,177106  	1256,670793  	70,200174  	65,249677  	0,009797  	0,011789  	0,003964  	0,004350  	0,004494  	0,000000  	-0,000000  	26,420189  	25,405774  	26,345109  	26,185509  	29,117564  	27,699181  	28,874583  	28,445727  	31,294139  	30,288930  	32,666100  	59,305623  	25,518733  	24,123632  	28,359577  	64,613768  	0,290349  	0,147122  	-3723,965300  	25593,200315  	-0,018545  	-0,049998  	0,417671  	0,211637  	-4,387005  	16772,545811  	125828,537437  	18,249886  	-0,047949  
21,570000  	24,228932  	30,308256  	23,179286  	57,696365  	70,202759  	65,249086  	0,009788  	0,011783  	0,003965  	0,004310  	0,004435  	0,000001  	-0,000000  	26,423269  	25,396435  	26,339422  	26,183130  	29,114814  	27,704531  	28,872748  	28,439638  	31,296944  	30,291710  	32,666989  	59,311659  	25,510932  	24,123919  	28,366706  	64,608489  	0,257391  	0,130422  	-3314,812038  	1874,499588  	-0,053993  	-0,049994  	0,370905  	0,187940  	-3,898301  	16758,685526  	125634,533899  	18,221749  	-0,047946  
22,576000  	24,228932  	30,304932  	23,179164  	1256,670793  	70,206248  	65,249770  	0,009793  	0,011791  	0,003964  	0,004395  	0,004443  	-0,000000  	-0,000000  	26,423832  	25,401720  	26,349033  	26,188539  	29,117194  	27,711167  	28,878163  	28,440695  	31,305739  	30,290011  	32,667809  	59,316557  	25,515261  	24,109861  	28,361127  	64,618290  	0,326876  	0,165631  	-4207,375043  	25596,117329  	-0,018547  	-0,050004  	0,377465  	0,191264  	-3,969487  	16775,975510  	125749,297848  	18,238394  	-0,047955  
23,572000  	24,236858  	30,299393  	23,179809  	1256,670793  	70,206871  	65,256581  	0,009794  	0,011773  	0,003967  	0,004397  	0,004468  	-0,000000  	-0,000000  	26,426505  	25,403953  	26,339002  	26,181798  	29,124036  	27,709530  	28,877492  	28,447210  	31,302552  	30,280954  	32,669609  	59,303989  	25,506257  	24,104224  	28,351954  	64,618842  	0,328236  	0,166320  	-4215,515291  	25595,172382  	-0,018546  	-0,050002  	0,396914  	0,201119  	-4,168816  	16737,447993  	125760,842736  	18,240068  	-0,047953  
24,571000  	24,250990  	30,294346  	23,180484  	1256,670793  	70,201950  	65,257577  	0,009793  	0,011823  	0,003959  	0,004355  	0,004480  	-0,000000  	-0,000000  	26,427267  	25,411706  	26,352012  	26,188634  	29,126773  	27,713862  	28,878620  	28,443530  	31,303467  	30,288627  	32,680048  	59,320745  	25,501828  	24,107952  	28,359364  	64,612977  	0,294460  	0,149205  	-3769,767237  	25595,540290  	-0,018546  	-0,050003  	0,406578  	0,206016  	-4,265210  	16845,806104  	125735,387495  	18,236376  	-0,047954  
25,572000  	24,259161  	30,291514  	23,182020  	1256,670793  	70,201046  	65,262366  	0,009801  	0,011766  	0,003962  	0,004370  	0,004459  	-0,000002  	-0,000000  	26,421170  	25,408582  	26,350148  	26,181729  	29,116781  	27,704496  	28,865826  	28,452761  	31,305290  	30,277948  	32,669757  	59,305867  	25,496935  	24,107900  	28,360021  	64,614980  	0,306677  	0,155396  	-3919,021785  	25602,831867  	-0,018552  	-0,050019  	0,389774  	0,197501  	-4,084224  	16722,886629  	125912,176088  	18,262017  	-0,047968  
26,569000  	24,264323  	30,295823  	23,182388  	657,183579  	70,202541  	65,258572  	0,009802  	0,011795  	0,003968  	0,004431  	0,004475  	0,000000  	-0,000000  	26,423672  	25,401127  	26,345853  	26,193801  	29,120217  	27,704565  	28,884870  	28,455758  	31,313342  	30,295041  	32,673702  	59,303916  	25,499800  	24,104786  	28,358685  	64,611742  	0,356115  	0,180446  	-4550,135889  	18529,071575  	-0,027606  	-0,049995  	0,402154  	0,203774  	-4,218452  	16784,862448  	125944,544140  	18,266712  	-0,047947  
27,571000  	24,237872  	30,302101  	23,181098  	-242,047242  	70,204753  	65,257732  	0,009794  	0,011750  	0,003965  	0,004384  	0,004475  	0,000000  	-0,000000  	26,420071  	25,406745  	26,344701  	26,190345  	29,121826  	27,721675  	28,863581  	28,445412  	31,300502  	30,287926  	32,673184  	59,297795  	25,493745  	24,101032  	28,359084  	64,611459  	0,318053  	0,161160  	-4085,868079  	-27034,789735  	-0,103422  	-0,049995  	0,402182  	0,203789  	-4,221353  	16688,076742  	125773,849270  	18,241955  	-0,047947  
28,570000  	24,207213  	30,306163  	23,180361  	956,927186  	70,200517  	65,261589  	0,009799  	0,011784  	0,003960  	0,004328  	0,004443  	0,000000  	-0,000000  	26,429557  	25,404730  	26,350987  	26,195083  	29,123463  	27,709725  	28,875031  	28,450140  	31,305877  	30,290663  	32,674630  	59,299860  	25,496087  	24,097614  	28,361419  	64,607926  	0,272096  	0,137873  	-3515,511497  	22550,223482  	-0,022186  	-0,049998  	0,377010  	0,191034  	-3,950677  	16760,967040  	125870,099033  	18,255914  	-0,047950  
29,571000  	24,196614  	30,306594  	23,182665  	1256,670793  	70,195283  	65,264637  	0,009797  	0,011814  	0,003964  	0,004379  	0,004463  	-0,000001  	-0,000000  	26,419546  	25,391260  	26,340005  	26,190182  	29,111471  	27,707300  	28,864702  	28,440808  	31,297863  	30,283798  	32,663392  	59,303740  	25,487354  	24,103072  	28,351441  	64,596516  	0,313672  	0,158940  	-4059,997742  	25597,675483  	-0,018548  	-0,050008  	0,393132  	0,199203  	-4,112710  	16827,147212  	125832,039740  	18,250394  	-0,047958  
30,571000  	24,184081  	30,296869  	23,184507  	1256,670793  	70,191172  	65,258790  	0,009797  	0,011780  	0,003962  	0,004424  	0,004504  	0,000000  	-0,000000  	26,439167  	25,410845  	26,351927  	26,197369  	29,130769  	27,712045  	28,877973  	28,452853  	31,305951  	30,296245  	32,675592  	59,307314  	25,493570  	24,128834  	28,356315  	64,610804  	0,350313  	0,177506  	-4536,350375  	25592,935665  	-0,018545  	-0,049998  	0,425055  	0,215378  	-4,448229  	16753,802026  	125839,453888  	18,251470  	-0,047949  
31,573000  	24,163160  	30,282559  	23,185336  	1256,670793  	70,193632  	65,244794  	0,009805  	0,011792  	0,003959  	0,004367  	0,004461  	-0,000000  	-0,000000  	26,430948  	25,414266  	26,348227  	26,204561  	29,129257  	27,709246  	28,886291  	28,450126  	31,310000  	30,296635  	32,684112  	59,305295  	25,498385  	24,139251  	28,364622  	64,616076  	0,303812  	0,153944  	-3938,457445  	25595,525186  	-0,018546  	-0,050003  	0,391345  	0,198297  	-4,109112  	16779,770251  	125997,509400  	18,274394  	-0,047954  
32,572000  	24,170349  	30,273265  	23,185889  	1256,670793  	70,193695  	65,241435  	0,009799  	0,011791  	0,003963  	0,004342  	0,004514  	-0,000001  	-0,000000  	26,433077  	25,422115  	26,358060  	26,207208  	29,132852  	27,711521  	28,892829  	28,455526  	31,315495  	30,300777  	32,678210  	59,313051  	25,502771  	24,165469  	28,359394  	64,625072  	0,283531  	0,143667  	-3665,633156  	25597,780691  	-0,018548  	-0,050008  	0,433374  	0,219594  	-4,553558  	16777,827604  	125870,303804  	18,255944  	-0,047958  
33,571000  	24,206906  	30,261571  	23,186196  	1256,670793  	70,190206  	65,246256  	0,009800  	0,011785  	0,003964  	0,004410  	0,004530  	-0,000000  	-0,000000  	26,427805  	25,412106  	26,351168  	26,192886  	29,123496  	27,707681  	28,882953  	28,455011  	31,310826  	30,289687  	32,674564  	59,299130  	25,501996  	24,165441  	28,351502  	64,614969  	0,339194  	0,171872  	-4350,602973  	25596,574954  	-0,018547  	-0,050006  	0,446116  	0,226050  	-4,679578  	16764,627367  	125898,216306  	18,259992  	-0,047956  
34,572000  	24,230253  	30,251846  	23,186933  	1256,670793  	70,193134  	65,249552  	0,009794  	0,011799  	0,003963  	0,004340  	0,004490  	0,000000  	-0,000000  	26,427194  	25,409392  	26,358922  	26,195389  	29,123511  	27,710936  	28,882123  	28,458501  	31,308970  	30,294604  	32,680574  	59,306209  	25,492333  	24,175932  	28,353012  	64,610149  	0,282268  	0,143027  	-3600,669594  	25593,910222  	-0,018545  	-0,050000  	0,414692  	0,210128  	-4,349635  	16793,015765  	125758,590247  	18,239741  	-0,047951  
35,572000  	24,219286  	30,251753  	23,187855  	1256,670793  	70,200112  	65,249086  	0,009799  	0,011767  	0,003963  	0,004307  	0,004440  	-0,000001  	-0,000000  	26,443982  	25,419639  	26,365625  	26,211953  	29,131831  	27,719449  	28,883760  	28,467618  	31,319731  	30,300198  	32,683893  	59,317312  	25,504435  	24,194096  	28,363252  	64,613558  	0,255244  	0,129334  	-3261,828752  	25598,676477  	-0,018549  	-0,050010  	0,375133  	0,190083  	-3,940631  	16725,253744  	125878,247534  	18,257096  	-0,047960  
36,573000  	24,192436  	30,261663  	23,188100  	1256,670793  	70,205033  	65,247344  	0,009797  	0,011774  	0,003962  	0,004382  	0,004449  	-0,000000  	-0,000000  	26,435513  	25,421270  	26,362187  	26,208663  	29,129947  	27,718868  	28,879871  	28,456831  	31,319025  	30,301914  	32,683639  	59,309375  	25,503072  	24,202851  	28,356374  	64,614169  	0,315843  	0,160040  	-4060,843386  	25595,324865  	-0,018546  	-0,050003  	0,381585  	0,193352  	-4,013801  	16740,893963  	125839,884614  	18,251532  	-0,047954  
37,572000  	24,194157  	30,270064  	23,187701  	1256,670793  	70,206965  	65,248433  	0,009796  	0,011802  	0,003966  	0,004392  	0,004512  	0,000000  	-0,000000  	26,437512  	25,428998  	26,360230  	26,202282  	29,136487  	27,721472  	28,888842  	28,453415  	31,317792  	30,305280  	32,684699  	59,316180  	25,502479  	24,228654  	28,357218  	64,617842  	0,324312  	0,164331  	-4174,313554  	25592,623934  	-0,018544  	-0,049997  	0,431377  	0,218582  	-4,538322  	16800,738955  	125817,832820  	18,248334  	-0,047949  
38,574000  	24,233540  	30,268218  	23,188684  	1256,670793  	70,203912  	65,253160  	0,009798  	0,011819  	0,003967  	0,004377  	0,004469  	0,000001  	-0,000000  	26,440869  	25,427507  	26,355762  	26,200283  	29,132765  	27,719303  	28,885811  	28,457545  	31,319141  	30,301489  	32,681132  	59,315503  	25,499793  	24,243617  	28,360369  	64,616198  	0,312403  	0,158297  	-3993,737244  	25590,112419  	-0,018543  	-0,049992  	0,397900  	0,201619  	-4,179555  	16836,595862  	125853,929129  	18,253569  	-0,047944  
39,571000  	24,264046  	30,262032  	23,190618  	1256,670793  	70,203414  	65,259070  	0,009791  	0,011778  	0,003963  	0,004401  	0,004455  	-0,000000  	-0,000000  	26,430430  	25,414236  	26,348435  	26,193176  	29,117830  	27,710855  	28,874422  	28,452854  	31,310556  	30,290380  	32,674455  	59,300317  	25,484706  	24,251668  	28,350611  	64,605720  	0,331501  	0,167974  	-4212,106730  	25595,125024  	-0,018546  	-0,050003  	0,386899  	0,196044  	-4,058742  	16748,216031  	125693,910632  	18,230360  	-0,047954  
40,576000  	24,275966  	30,265294  	23,191540  	1256,670793  	70,200984  	65,257888  	0,009792  	0,011776  	0,003966  	0,004422  	0,004479  	-0,000001  	-0,000000  	26,427927  	25,412063  	26,348284  	26,196122  	29,116025  	27,713546  	28,877441  	28,450275  	31,310955  	30,292542  	32,677579  	59,302410  	25,482318  	24,269441  	28,350437  	64,603937  	0,348406  	0,176540  	-4420,512660  	25597,488498  	-0,018548  	-0,050008  	0,405948  	0,205697  	-4,257500  	16744,837976  	125711,062028  	18,232848  	-0,047958  
41,572000  	24,279376  	30,281913  	23,190711  	1256,670793  	70,196934  	65,255368  	0,009800  	0,011769  	0,003965  	0,004310  	0,004489  	0,000000  	-0,000000  	26,434434  	25,420947  	26,354006  	26,204167  	29,128882  	27,718324  	28,888253  	28,457411  	31,316623  	30,301732  	32,685970  	59,312792  	25,489281  	24,290232  	28,359644  	64,607890  	0,257392  	0,130423  	-3272,950374  	25592,068915  	-0,018544  	-0,049996  	0,413530  	0,209538  	-4,335672  	16729,185730  	125886,678480  	18,258319  	-0,047948  
42,570000  	24,267640  	30,299331  	23,191202  	1256,670793  	70,192573  	65,257235  	0,009799  	0,011785  	0,003961  	0,004346  	0,004451  	-0,000000  	-0,000000  	26,440051  	25,427620  	26,355124  	26,202704  	29,132405  	27,714437  	28,891375  	28,459630  	31,316928  	30,304185  	32,686061  	59,313115  	25,484485  	24,304301  	28,358080  	64,604071  	0,286915  	0,145382  	-3666,070197  	25594,879298  	-0,018546  	-0,050002  	0,383805  	0,194477  	-4,018948  	16763,803899  	125861,992898  	18,254739  	-0,047953  
43,573000  	24,225154  	30,309856  	23,191110  	1256,670793  	70,194785  	65,259287  	0,009784  	0,011784  	0,003964  	0,004442  	0,004444  	0,000000  	-0,000000  	26,438996  	25,424406  	26,352416  	26,198337  	29,122756  	27,713411  	28,883676  	28,453562  	31,317150  	30,303664  	32,678802  	59,310739  	25,481797  	24,308507  	28,353385  	64,596806  	0,364676  	0,184784  	-4700,635077  	25593,583449  	-0,018545  	-0,049999  	0,377967  	0,191519  	-3,957950  	16762,002034  	125549,221769  	18,209375  	-0,047951  
44,571000  	24,194188  	30,314719  	23,190434  	57,696365  	70,196280  	65,253316  	0,009796  	0,011784  	0,003966  	0,004406  	0,004503  	0,000000  	-0,000000  	26,431532  	25,419591  	26,353068  	26,197810  	29,124436  	27,713171  	28,879686  	28,452888  	31,308260  	30,300494  	32,676468  	59,306943  	25,489112  	24,314796  	28,353470  	64,594810  	0,335885  	0,170195  	-4355,020355  	1874,053085  	-0,053997  	-0,049999  	0,424268  	0,214980  	-4,449521  	16761,564832  	125809,698441  	18,247154  	-0,047951  
45,572000  	24,212128  	30,308902  	23,189451  	1256,670793  	70,197402  	65,254653  	0,009795  	0,011777  	0,003962  	0,004328  	0,004451  	0,000000  	-0,000000  	26,435287  	25,427287  	26,352470  	26,210068  	29,130429  	27,712688  	28,885068  	28,455657  	31,314755  	30,304782  	32,680321  	59,306032  	25,497297  	24,317617  	28,355250  	64,604800  	0,272679  	0,138168  	-3521,781011  	25592,100421  	-0,018544  	-0,049996  	0,383165  	0,194153  	-4,018274  	16746,892399  	125792,335212  	18,244636  	-0,047948  
46,572000  	24,200577  	30,290622  	23,190618  	657,183579  	70,195720  	65,251294  	0,009798  	0,011774  	0,003965  	0,004385  	0,004442  	0,000000  	-0,000000  	26,431263  	25,423702  	26,352967  	26,202271  	29,135281  	27,715018  	28,885190  	28,457423  	31,316516  	30,296355  	32,669034  	59,301917  	25,501427  	24,324022  	28,353133  	64,605211  	0,318593  	0,161434  	-4110,249385  	18529,355801  	-0,027607  	-0,049997  	0,376606  	0,190829  	-3,950824  	16740,463836  	125856,485245  	18,253940  	-0,047949  
47,573000  	24,180210  	30,279912  	23,190526  	657,183579  	70,192885  	65,245198  	0,009804  	0,011793  	0,003962  	0,004426  	0,004481  	0,000001  	-0,000000  	26,434033  	25,429712  	26,362760  	26,201310  	29,130463  	27,715144  	28,887071  	28,456169  	31,316871  	30,292423  	32,676819  	59,302841  	25,502615  	24,326606  	28,354043  	64,598388  	0,351719  	0,178219  	-4544,810988  	18525,826181  	-0,027602  	-0,049986  	0,406875  	0,206166  	-4,271176  	16781,482271  	125978,063149  	18,271573  	-0,047940  
48,573000  	24,198949  	30,278004  	23,190772  	1256,670793  	70,189396  	65,245509  	0,009795  	0,011792  	0,003962  	0,004355  	0,004509  	-0,000000  	-0,000000  	26,426064  	25,413952  	26,358769  	26,198498  	29,116888  	27,713185  	28,871546  	28,450642  	31,307836  	30,292450  	32,670174  	59,298661  	25,499430  	24,326962  	28,350939  	64,598304  	0,294397  	0,149173  	-3791,233284  	25595,120039  	-0,018546  	-0,050003  	0,429503  	0,217632  	-4,505252  	16779,499299  	125784,758659  	18,243537  	-0,047954  
49,572000  	24,235138  	30,268649  	23,187885  	57,696365  	70,188804  	65,249615  	0,009799  	0,011782  	0,003966  	0,004361  	0,004427  	0,000001  	-0,000001  	26,438832  	25,425708  	26,368037  	26,208155  	29,133465  	27,728063  	28,886904  	28,459974  	31,320418  	30,303363  	32,688981  	59,299992  	25,514159  	24,329604  	28,353930  	64,600762  	0,298777  	0,151392  	-3818,796867  	1873,809540  	-0,053986  	-0,049988  	0,364344  	0,184616  	-3,818143  	16757,885405  	125881,022544  	18,257499  	-0,047941  
50,571000  	24,220392  	30,263602  	23,183524  	1256,670793  	70,189739  	65,251916  	0,009796  	0,011790  	0,003964  	0,004397  	0,004506  	0,000000  	-0,000000  	26,432133  	25,426823  	26,360536  	26,201832  	29,132123  	27,718575  	28,893054  	28,456497  	31,320527  	30,302462  	32,684512  	59,308435  	25,508240  	24,339779  	28,351319  	64,605263  	0,328314  	0,166359  	-4203,075204  	25593,537341  	-0,018545  	-0,049999  	0,426986  	0,216357  	-4,473360  	16774,895240  	125801,267495  	18,245931  	-0,047950  
51,571000  	24,202052  	30,271357  	23,183248  	1256,670793  	70,186780  	65,246722  	0,009800  	0,011790  	0,003965  	0,004390  	0,004514  	0,000001  	-0,000000  	26,439776  	25,430545  	26,358396  	26,212769  	29,135172  	27,726467  	28,892250  	28,460882  	31,316985  	30,299514  	32,681189  	59,305033  	25,516523  	24,343880  	28,357814  	64,604171  	0,322212  	0,163267  	-4142,776201  	25591,096675  	-0,018543  	-0,049993  	0,433082  	0,219446  	-4,539283  	16774,070358  	125894,961142  	18,259520  	-0,047946  
52,572000  	24,212927  	30,280220  	23,183371  	57,696365  	70,184350  	65,241870  	0,009798  	0,011781  	0,003963  	0,004348  	0,004463  	-0,000000  	-0,000000  	26,446282  	25,424220  	26,357384  	26,200034  	29,126663  	27,728989  	28,894329  	28,458989  	31,307393  	30,304234  	32,681536  	59,306882  	25,515987  	24,339577  	28,355514  	64,601929  	0,288655  	0,146264  	-3710,091397  	1874,665460  	-0,054004  	-0,050005  	0,392634  	0,198951  	-4,117346  	16755,250875  	125860,947856  	18,254587  	-0,047956  
53,574000  	24,240698  	30,274342  	23,185797  	1256,670793  	70,181982  	65,242803  	0,009798  	0,011774  	0,003964  	0,004421  	0,004439  	-0,000000  	-0,000000  	26,443276  	25,421671  	26,353637  	26,188914  	29,122697  	27,720465  	28,880068  	28,454560  	31,318109  	30,298206  	32,677511  	59,303609  	25,519542  	24,331135  	28,350553  	64,603144  	0,347983  	0,176325  	-4447,816529  	25595,208477  	-0,018546  	-0,050003  	0,373556  	0,189284  	-3,914671  	16740,439783  	125847,729489  	18,252670  	-0,047954  
54,575000  	24,227796  	30,272188  	23,186411  	657,183579  	70,183914  	65,239133  	0,009802  	0,011781  	0,003964  	0,004387  	0,004500  	0,000000  	-0,000000  	26,444696  	25,423535  	26,356605  	26,207144  	29,130068  	27,721883  	28,883911  	28,463040  	31,322384  	30,307773  	32,689451  	59,301737  	25,519834  	24,337408  	28,362321  	64,613538  	0,320077  	0,162185  	-4098,424098  	18529,748198  	-0,027608  	-0,049998  	0,422044  	0,213853  	-4,427815  	16756,298603  	125947,615715  	18,267157  	-0,047949  
55,571000  	24,238579  	30,276065  	23,187056  	657,183579  	70,189303  	65,247002  	0,009800  	0,011780  	0,003964  	0,004338  	0,004432  	0,000000  	-0,000000  	26,445067  	25,426259  	26,363767  	26,204981  	29,133802  	27,720560  	28,886920  	28,461746  	31,313957  	30,305049  	32,686534  	59,311118  	25,521710  	24,334652  	28,372921  	64,611041  	0,280683  	0,142224  	-3589,899603  	18528,645978  	-0,027606  	-0,049994  	0,368784  	0,186866  	-3,867110  	16752,986340  	125888,542608  	18,258589  	-0,047947  
56,574000  	24,260145  	30,279328  	23,186135  	57,696365  	70,193352  	65,243705  	0,009794  	0,011816  	0,003963  	0,004381  	0,004478  	0,000000  	-0,000000  	26,442769  	25,432074  	26,358277  	26,201056  	29,134483  	27,722774  	28,890510  	28,457940  	31,320452  	30,302131  	32,685134  	59,305326  	25,529485  	24,331653  	28,356100  	64,598664  	0,315339  	0,159785  	-4020,914019  	1874,207419  	-0,053995  	-0,049996  	0,405172  	0,205304  	-4,254992  	16831,720851  	125772,620640  	18,241776  	-0,047948  
57,571000  	24,250805  	30,280959  	23,185490  	1256,670793  	70,197807  	65,241839  	0,009797  	0,011773  	0,003965  	0,004375  	0,004468  	-0,000000  	-0,000000  	26,428479  	25,417882  	26,349205  	26,186122  	29,122844  	27,716674  	28,873744  	28,457328  	31,313624  	30,300116  	32,676904  	59,305556  	25,518710  	24,302587  	28,350597  	64,603034  	0,310512  	0,157339  	-3966,581551  	25595,557685  	-0,018546  	-0,050003  	0,396544  	0,200932  	-4,169695  	16737,271132  	125821,003251  	18,248794  	-0,047954  
58,574000  	24,246382  	30,289822  	23,184753  	657,183579  	70,194131  	65,255524  	0,009795  	0,011794  	0,003962  	0,004377  	0,004476  	-0,000000  	-0,000000  	26,427273  	25,417965  	26,351399  	26,190086  	29,124554  	27,713223  	28,884418  	28,457200  	31,313680  	30,307039  	32,673119  	59,295486  	25,517887  	24,301690  	28,355662  	64,595888  	0,312044  	0,158115  	-3994,934716  	18532,549150  	-0,027612  	-0,050006  	0,403567  	0,204490  	-4,228684  	16783,814013  	125785,076408  	18,243583  	-0,047957  
59,576000  	24,229055  	30,296931  	23,184753  	-242,047242  	70,190299  	65,253160  	0,009796  	0,011778  	0,003963  	0,004346  	0,004442  	0,000001  	-0,000000  	26,444618  	25,424831  	26,353455  	26,204436  	29,135207  	27,716863  	28,884587  	28,463529  	31,315176  	30,299668  	32,686050  	59,301537  	25,526571  	24,302047  	28,359614  	64,605996  	0,287177  	0,145515  	-3691,442463  	-27033,375474  	-0,103415  	-0,049992  	0,376179  	0,190613  	-3,940538  	16748,544286  	125808,010839  	18,246909  	-0,047945  
60,574000  	24,233110  	30,298100  	23,185367  	956,927186  	70,184942  	65,254902  	0,009803  	0,011796  	0,003965  	0,004401  	0,004400  	-0,000000  	-0,000000  	26,438859  	25,422775  	26,349285  	26,201261  	29,123493  	27,717682  	28,889488  	28,452746  	31,308219  	30,299369  	32,680696  	59,300813  	25,525497  	24,280143  	28,348112  	64,594787  	0,331925  	0,168189  	-4264,612682  	22550,970515  	-0,022187  	-0,050000  	0,343419  	0,174013  	-3,592197  	16786,811463  	125951,901799  	18,267779  	-0,047952  
61,571000  	24,241712  	30,294930  	23,185306  	1256,670793  	70,180518  	65,251636  	0,009795  	0,011824  	0,003964  	0,004352  	0,004491  	-0,000000  	-0,000000  	26,443422  	25,421965  	26,346207  	26,201067  	29,133934  	27,719165  	28,890197  	28,453647  	31,312172  	30,306089  	32,680374  	59,301297  	25,531259  	24,266691  	28,355203  	64,592429  	0,292164  	0,148042  	-3746,479435  	25594,926426  	-0,018546  	-0,050002  	0,415188  	0,210379  	-4,341886  	16846,959241  	125786,022595  	18,243720  	-0,047953  
62,572000  	24,225184  	30,289637  	23,186473  	1256,670793  	70,177528  	65,244483  	0,009803  	0,011812  	0,003959  	0,004346  	0,004445  	-0,000001  	-0,000000  	26,445811  	25,427013  	26,356885  	26,204152  	29,137819  	27,720374  	28,890301  	28,464450  	31,322946  	30,303434  	32,681890  	59,308244  	25,539425  	24,257878  	28,361139  	64,600294  	0,287156  	0,145504  	-3689,091329  	25599,654725  	-0,018549  	-0,050012  	0,378361  	0,191718  	-3,960101  	16822,637950  	125950,715535  	18,267607  	-0,047962  
63,572000  	24,207674  	30,291022  	23,188684  	1256,670793  	70,173790  	65,243239  	0,009795  	0,011782  	0,003966  	0,004353  	0,004423  	0,000001  	-0,000000  	26,437129  	25,424465  	26,354161  	26,197917  	29,129423  	27,724264  	28,885059  	28,459359  	31,315558  	30,297581  	32,682836  	59,311165  	25,536338  	24,240717  	28,351852  	64,597509  	0,292754  	0,148341  	-3772,735989  	25590,562235  	-0,018543  	-0,049993  	0,361040  	0,182942  	-3,776900  	16757,731889  	125777,859971  	18,242536  	-0,047945  
64,572000  	24,224816  	30,292561  	23,188499  	57,696365  	70,171983  	65,245167  	0,009797  	0,011813  	0,003963  	0,004386  	0,004486  	-0,000001  	-0,000000  	26,430513  	25,413950  	26,340246  	26,199261  	29,123815  	27,717729  	28,882061  	28,445619  	31,306128  	30,291447  	32,676664  	59,301486  	25,528188  	24,221959  	28,345103  	64,592276  	0,319549  	0,161918  	-4107,470226  	1874,508159  	-0,054007  	-0,050010  	0,410850  	0,208181  	-4,294712  	16824,883384  	125833,190698  	18,250561  	-0,047960  
65,572000  	24,238087  	30,284467  	23,189329  	1256,670793  	70,172606  	65,245136  	0,009801  	0,011804  	0,003965  	0,004344  	0,004455  	0,000001  	-0,000000  	26,430708  	25,413860  	26,347712  	26,202203  	29,124727  	27,711814  	28,884554  	28,450844  	31,306717  	30,292881  	32,676281  	59,299852  	25,532948  	24,213337  	28,350614  	64,594590  	0,284938  	0,144380  	-3649,693237  	25589,651040  	-0,018542  	-0,049991  	0,386801  	0,195995  	-4,043857  	16805,128658  	125918,467522  	18,262930  	-0,047943  
66,571000  	24,225123  	30,279728  	23,191171  	657,183579  	70,177902  	65,245882  	0,009804  	0,011819  	0,003962  	0,004354  	0,004441  	-0,000001  	-0,000000  	26,437837  	25,416236  	26,357536  	26,204287  	29,128570  	27,715952  	28,885158  	28,462194  	31,308241  	30,298262  	32,681991  	59,305127  	25,543455  	24,214439  	28,354471  	64,595660  	0,293349  	0,148642  	-3762,532338  	18535,722194  	-0,027617  	-0,050016  	0,375380  	0,190208  	-3,928087  	16836,966564  	125988,132269  	18,273034  	-0,047965  
67,571000  	24,215999  	30,281205  	23,191540  	657,183579  	70,186437  	65,240097  	0,009796  	0,011804  	0,003965  	0,004392  	0,004464  	0,000000  	-0,000000  	26,440168  	25,417860  	26,353729  	26,206350  	29,131832  	27,719643  	28,887236  	28,461586  	31,307194  	30,301557  	32,681968  	59,302357  	25,548208  	24,217915  	28,351680  	64,593182  	0,323918  	0,164132  	-4161,896871  	18528,785954  	-0,027606  	-0,049995  	0,393460  	0,199369  	-4,129230  	16805,614674  	125798,605463  	18,245545  	-0,047948  
68,573000  	24,212804  	30,280897  	23,190926  	57,696365  	70,193103  	65,238916  	0,009804  	0,011795  	0,003961  	0,004388  	0,004478  	0,000001  	-0,000000  	26,439828  	25,422924  	26,356210  	26,202178  	29,135372  	27,722082  	28,893680  	28,461542  	31,312048  	30,304763  	32,685391  	59,301636  	25,549238  	24,220812  	28,352487  	64,597948  	0,321073  	0,162690  	-4127,305268  	1873,754508  	-0,053989  	-0,049991  	0,404444  	0,204935  	-4,251240  	16784,846885  	125969,702815  	18,270361  	-0,047944  
69,574000  	24,203834  	30,279204  	23,192000  	57,696365  	70,200018  	65,234312  	0,009799  	0,011780  	0,003966  	0,004325  	0,004438  	-0,000000  	-0,000000  	26,450032  	25,427880  	26,364263  	26,203929  	29,139848  	27,724489  	28,899228  	28,466269  	31,317615  	30,307691  	32,696233  	59,303268  	25,552878  	24,221991  	28,358490  	64,604605  	0,270132  	0,136878  	-3476,641645  	1874,190957  	-0,054004  	-0,050006  	0,373516  	0,189263  	-3,935266  	16752,578851  	125879,151354  	18,257227  	-0,047957  
70,571000  	24,178090  	30,277112  	23,193167  	657,183579  	70,197028  	65,239289  	0,009790  	0,011794  	0,003964  	0,004385  	0,004447  	-0,000000  	-0,000000  	26,450206  	25,430711  	26,365268  	26,205745  	29,132027  	27,720098  	28,895872  	28,463814  	31,309370  	30,309427  	32,692114  	59,295493  	25,555002  	24,214220  	28,360535  	64,598638  	0,318250  	0,161260  	-4111,882100  	18530,714018  	-0,027609  	-0,050001  	0,380080  	0,192589  	-3,998001  	16783,347806  	125674,662092  	18,227569  	-0,047953  
71,572000  	24,179104  	30,274988  	23,195286  	657,183579  	70,196062  	65,250921  	0,009798  	0,011834  	0,003967  	0,004412  	0,004512  	0,000000  	-0,000000  	26,443027  	25,420002  	26,359261  	26,198428  	29,119988  	27,717639  	28,885289  	28,454793  	31,309141  	30,306563  	32,677761  	59,294388  	25,544950  	24,198006  	28,354988  	64,594004  	0,340807  	0,172689  	-4401,047180  	18529,688740  	-0,027608  	-0,049999  	0,431984  	0,218890  	-4,532434  	16869,623693  	125845,187496  	18,252301  	-0,047950  
72,575000  	24,198642  	30,270495  	23,196761  	57,696365  	70,192200  	65,255089  	0,009800  	0,011791  	0,003961  	0,004345  	0,004490  	0,000001  	-0,000000  	26,453615  	25,434916  	26,364973  	26,205689  	29,142118  	27,730092  	28,895577  	28,458010  	31,320880  	30,310546  	32,695969  	59,305829  	25,553378  	24,190047  	28,355613  	64,599775  	0,286310  	0,145076  	-3682,725043  	1873,400329  	-0,053988  	-0,049991  	0,414149  	0,209852  	-4,338252  	16777,213541  	125886,593747  	18,258307  	-0,047943  
73,690000  	24,220945  	30,259262  	23,196914  	1256,670793  	70,187340  	65,244887  	0,009807  	0,011801  	0,003964  	0,004336  	0,004484  	-0,000001  	-0,000000  	26,452402  	25,432374  	26,363196  	26,199903  	29,134115  	27,728798  	28,890093  	28,462583  	31,314737  	30,302359  	32,692844  	59,296146  	25,540789  	24,179067  	28,355969  	64,596188  	0,279246  	0,141496  	-3572,011611  	25596,532439  	-0,018547  	-0,050006  	0,409473  	0,207483  	-4,293905  	16798,718489  	126038,534353  	18,280344  	-0,047957  
74,572000  	24,232803  	30,257354  	23,196853  	1256,670793  	70,188711  	65,248868  	0,009798  	0,011844  	0,003965  	0,004393  	0,004501  	-0,000000  	-0,000001  	26,441842  	25,421177  	26,362665  	26,207740  	29,130423  	27,715784  	28,886396  	28,456130  	31,306284  	30,298598  	32,683985  	59,296908  	25,521579  	24,162048  	28,353328  	64,591391  	0,324678  	0,164516  	-4143,686586  	25596,101490  	-0,018547  	-0,050005  	0,423384  	0,214532  	-4,437441  	16890,801093  	125853,745541  	18,253543  	-0,047956  
75,571000  	24,257687  	30,261878  	23,195563  	1256,670793  	70,184848  	65,247873  	0,009799  	0,011801  	0,003965  	0,004417  	0,004479  	0,000001  	-0,000000  	26,439203  	25,421745  	26,363871  	26,209886  	29,130964  	27,719112  	28,880399  	28,459072  	31,311474  	30,303903  	32,689750  	59,299569  	25,517091  	24,148220  	28,353378  	64,588589  	0,344269  	0,174444  	-4378,865690  	25589,339964  	-0,018542  	-0,049990  	0,405990  	0,205718  	-4,252661  	16797,688447  	125877,322531  	18,256962  	-0,047943  
76,575000  	24,260206  	30,268526  	23,194519  	1256,670793  	70,185471  	65,242648  	0,009803  	0,011835  	0,003961  	0,004372  	0,004449  	0,000001  	-0,000000  	26,439557  	25,427522  	26,357550  	26,213167  	29,141497  	27,737190  	28,877976  	28,459182  	31,314867  	30,297238  	32,699666  	59,298246  	25,498690  	24,118476  	28,351379  	64,594672  	0,307667  	0,155897  	-3916,011015  	25586,746203  	-0,018540  	-0,049985  	0,382211  	0,193669  	-4,008326  	16870,926809  	125966,059291  	18,269832  	-0,047938  
77,572000  	24,279130  	30,282251  	23,192676  	1256,670793  	70,185970  	65,241310  	0,009793  	0,011792  	0,003964  	0,004399  	0,004444  	-0,000000  	-0,000000  	26,439649  	25,431091  	26,368204  	26,206294  	29,140975  	27,730969  	28,900893  	28,462329  	31,327544  	30,314848  	32,690947  	59,303392  	25,475866  	24,097793  	28,363161  	64,589957  	0,330242  	0,167336  	-4199,704472  	25594,413485  	-0,018546  	-0,050001  	0,377582  	0,191323  	-3,961244  	16777,983950  	125735,895893  	18,236450  	-0,047953  
78,570000  	24,261681  	30,294561  	23,190342  	657,183579  	70,185596  	65,246038  	0,009787  	0,011812  	0,003967  	0,004378  	0,004514  	-0,000001  	-0,000000  	26,444270  	25,422436  	26,357263  	26,201986  	29,126313  	27,721227  	28,879911  	28,454500  	31,310711  	30,294474  	32,683658  	59,292797  	25,462330  	24,064959  	28,351206  	64,585406  	0,313051  	0,158625  	-4000,815936  	18532,584958  	-0,027612  	-0,050007  	0,433499  	0,219657  	-4,543193  	16821,352520  	125606,268342  	18,217649  	-0,047957  
79,574000  	24,243064  	30,303794  	23,187486  	657,183579  	70,185035  	65,249366  	0,009797  	0,011839  	0,003967  	0,004338  	0,004469  	-0,000000  	-0,000000  	26,445894  	25,417145  	26,364064  	26,206024  	29,131258  	27,721470  	28,884289  	28,460828  	31,309456  	30,294824  	32,692841  	59,297760  	25,447368  	24,053210  	28,353760  	64,590135  	0,280495  	0,142129  	-3601,300495  	18531,878971  	-0,027611  	-0,050004  	0,397544  	0,201438  	-4,163093  	16881,256937  	125833,995663  	18,250678  	-0,047955  
80,571000  	24,228318  	30,310318  	23,188039  	57,696365  	70,179677  	65,247686  	0,009793  	0,011816  	0,003962  	0,004348  	0,004510  	0,000000  	-0,000000  	26,443229  	25,417355  	26,348677  	26,197270  	29,128704  	27,715495  	28,888690  	28,452313  	31,309109  	30,292714  	32,686235  	59,301197  	25,430313  	24,053863  	28,360149  	64,587757  	0,288295  	0,146081  	-3714,439495  	1874,203451  	-0,053998  	-0,050000  	0,430064  	0,217917  	-4,500287  	16830,932049  	125739,574723  	18,236983  	-0,047951  
81,570000  	24,203250  	30,307917  	23,191294  	1256,670793  	70,179117  	65,248837  	0,009791  	0,011827  	0,003963  	0,004415  	0,004545  	0,000001  	-0,000000  	26,433214  	25,413601  	26,349140  	26,192711  	29,123992  	27,711491  	28,878781  	28,447984  	31,304498  	30,296893  	32,677732  	59,295339  	25,414531  	24,033703  	28,349193  	64,579195  	0,342853  	0,173726  	-4433,841067  	25590,872957  	-0,018543  	-0,049994  	0,457603  	0,231871  	-4,786797  	16854,135575  	125707,983391  	18,232402  	-0,047946  
82,573000  	24,203311  	30,301824  	23,191785  	657,183579  	70,181422  	65,247593  	0,009801  	0,011797  	0,003962  	0,004385  	0,004511  	0,000000  	-0,000000  	26,442883  	25,418944  	26,356716  	26,201043  	29,135500  	27,725124  	28,888206  	28,464208  	31,315174  	30,296839  	32,683784  	59,304613  	25,416382  	24,050145  	28,356833  	64,584095  	0,318423  	0,161348  	-4113,767180  	18528,460665  	-0,027606  	-0,049995  	0,430868  	0,218324  	-4,510385  	16790,716565  	125919,117143  	18,263024  	-0,047947  
83,571000  	24,202758  	30,293145  	23,192338  	-242,047242  	70,184319  	65,249055  	0,009800  	0,011809  	0,003964  	0,004363  	0,004444  	-0,000000  	-0,000000  	26,447424  	25,430186  	26,370130  	26,206884  	29,147170  	27,728584  	28,889042  	28,463001  	31,319777  	30,302575  	32,688574  	59,295596  	25,407924  	24,069324  	28,357255  	64,587330  	0,300821  	0,152428  	-3881,183004  	-27039,090173  	-0,103434  	-0,050004  	0,377967  	0,191519  	-3,957760  	16815,983004  	125885,591071  	18,258161  	-0,047955  
84,572000  	24,200977  	30,284221  	23,193935  	-242,047242  	70,182201  	65,246504  	0,009798  	0,011804  	0,003965  	0,004376  	0,004474  	-0,000000  	-0,000000  	26,443303  	25,428200  	26,358582  	26,202154  	29,136865  	27,724172  	28,888092  	28,457472  	31,310924  	30,302490  	32,684499  	59,301121  	25,391795  	24,089816  	28,364421  	64,588470  	0,311272  	0,157724  	-4011,304530  	-27039,870090  	-0,103436  	-0,050005  	0,401944  	0,203668  	-4,209189  	16805,470355  	125858,610634  	18,254248  	-0,047956  
85,572000  	24,188934  	30,275481  	23,195901  	1256,670793  	70,180145  	65,244172  	0,009797  	0,011772  	0,003965  	0,004400  	0,004479  	0,000001  	-0,000000  	26,441682  	25,420454  	26,362384  	26,202952  	29,138102  	27,718357  	28,882375  	28,459326  	31,317029  	30,306654  	32,684423  	59,301028  	25,379332  	24,095806  	28,363885  	64,591613  	0,330389  	0,167411  	-4259,981334  	25589,829414  	-0,018542  	-0,049992  	0,405246  	0,205341  	-4,244007  	16736,575005  	125831,510158  	18,250318  	-0,047944  
86,571000  	24,170748  	30,271972  	23,199647  	1256,670793  	70,181079  	65,240502  	0,009792  	0,011812  	0,003964  	0,004318  	0,004516  	-0,000001  	-0,000000  	26,445287  	25,432695  	26,366822  	26,207943  	29,139109  	27,722952  	28,891653  	28,468059  	31,316053  	30,309202  	32,690514  	59,300211  	25,384802  	24,119730  	28,358799  	64,598973  	0,264119  	0,133831  	-3413,727887  	25601,344742  	-0,018551  	-0,050017  	0,435115  	0,220476  	-4,561061  	16822,660588  	125717,826555  	18,233829  	-0,047966  
87,575000  	24,186323  	30,266248  	23,201213  	1256,670793  	70,181422  	65,245229  	0,009805  	0,011823  	0,003964  	0,004304  	0,004417  	-0,000001  	-0,000000  	26,448829  	25,431435  	26,373977  	26,211082  	29,138250  	27,727704  	28,898175  	28,471604  	31,320460  	30,315790  	32,702801  	59,301445  	25,384971  	24,151368  	28,362049  	64,602472  	0,252531  	0,127959  	-3252,555333  	25597,744136  	-0,018548  	-0,050009  	0,356370  	0,180576  	-3,732317  	16845,227413  	125995,588783  	18,274115  	-0,047959  
88,571000  	24,192160  	30,257447  	23,199862  	1256,670793  	70,180861  	65,240564  	0,009796  	0,011780  	0,003963  	0,004359  	0,004457  	0,000001  	-0,000001  	26,440306  	25,429175  	26,370830  	26,206091  	29,130333  	27,721400  	28,886362  	28,460739  	31,316227  	30,303474  	32,689499  	59,297743  	25,372906  	24,173636  	28,361275  	64,592467  	0,297741  	0,150868  	-3825,615651  	25590,255577  	-0,018543  	-0,049993  	0,388508  	0,196860  	-4,072283  	16752,276772  	125798,499547  	18,245530  	-0,047945  
89,572000  	24,206844  	30,250923  	23,201766  	1256,670793  	70,183197  	65,233193  	0,009795  	0,011805  	0,003965  	0,004339  	0,004515  	-0,000001  	-0,000000  	26,443884  	25,432564  	26,359537  	26,205828  	29,128995  	27,718956  	28,885272  	28,462242  	31,316598  	30,296327  	32,683954  	59,299015  	25,364500  	24,188018  	28,358494  	64,590940  	0,281114  	0,142443  	-3599,346590  	25599,806550  	-0,018550  	-0,050014  	0,433963  	0,219892  	-4,557661  	16805,937976  	125778,735546  	18,242663  	-0,047963  
90,571000  	24,220914  	30,255600  	23,203609  	657,183579  	70,184132  	65,232695  	0,009798  	0,011828  	0,003965  	0,004346  	0,004449  	0,000001  	-0,000000  	26,443690  	25,425471  	26,354223  	26,206024  	29,129319  	27,718100  	28,888645  	28,461922  	31,310391  	30,294356  	32,685104  	59,296083  	25,358758  	24,185871  	28,353044  	64,586077  	0,286862  	0,145355  	-3667,224971  	18526,196743  	-0,027603  	-0,049989  	0,381530  	0,193324  	-4,008153  	16855,644557  	125847,750672  	18,252673  	-0,047942  
91,573000  	24,222850  	30,257724  	23,204346  	657,183579  	70,183509  	65,238262  	0,009797  	0,011783  	0,003962  	0,004362  	0,004441  	0,000000  	-0,000000  	26,443389  	25,423178  	26,356750  	26,205796  	29,132419  	27,714458  	28,891874  	28,462228  	31,307275  	30,300619  	32,684538  	59,299533  	25,353826  	24,178034  	28,355153  	64,581704  	0,300069  	0,152047  	-3836,189935  	18528,994519  	-0,027607  	-0,049998  	0,375740  	0,190390  	-3,942390  	16759,858472  	125839,552743  	18,251484  	-0,047949  
92,573000  	24,211053  	30,262832  	23,204223  	1256,670793  	70,181141  	65,239631  	0,009800  	0,011800  	0,003964  	0,004374  	0,004430  	0,000002  	-0,000000  	26,442359  	25,425577  	26,361807  	26,203555  	29,136801  	27,711442  	28,891509  	28,461537  	31,314290  	30,303124  	32,686771  	59,303555  	25,348659  	24,170424  	28,365120  	64,586686  	0,309477  	0,156814  	-3967,546478  	25582,682825  	-0,018537  	-0,049977  	0,367191  	0,186058  	-3,849780  	16796,446879  	125887,935354  	18,258501  	-0,047931  
93,572000  	24,183528  	30,269264  	23,205544  	1256,670793  	70,179272  	65,245634  	0,009804  	0,011810  	0,003967  	0,004366  	0,004520  	-0,000001  	-0,000000  	26,438323  	25,425825  	26,361761  	26,201500  	29,135358  	27,708799  	28,885477  	28,459716  	31,314152  	30,304161  	32,684707  	59,297338  	25,342302  	24,161780  	28,364189  	64,587473  	0,303554  	0,153813  	-3913,458464  	25598,713049  	-0,018549  	-0,050012  	0,438184  	0,222031  	-4,586786  	16817,380918  	125990,871973  	18,273431  	-0,047961  
94,571000  	24,200055  	30,271295  	23,207939  	657,183579  	70,178089  	65,247935  	0,009795  	0,011786  	0,003962  	0,004354  	0,004451  	0,000001  	-0,000000  	26,439372  	25,423297  	26,358934  	26,203151  	29,128439  	27,709111  	28,882884  	28,457777  	31,309669  	30,307017  	32,679225  	59,291819  	25,340323  	24,149457  	28,353332  	64,580530  	0,293493  	0,148715  	-3774,731262  	18526,686572  	-0,027604  	-0,049991  	0,383515  	0,194330  	-4,011697  	16765,677924  	125790,612305  	18,244386  	-0,047944  
95,572000  	24,243924  	30,265848  	23,209505  	-242,047242  	70,180269  	65,243923  	0,009798  	0,011808  	0,003959  	0,004461  	0,004397  	-0,000000  	-0,000000  	26,444397  	25,419750  	26,363017  	26,200876  	29,126474  	27,717995  	28,884285  	28,455535  	31,311698  	30,296021  	32,681617  	59,292898  	25,342843  	24,141121  	28,354795  	64,582360  	0,379771  	0,192433  	-4844,703991  	-27039,036291  	-0,103427  	-0,050003  	0,340522  	0,172545  	-3,566442  	16814,474022  	125853,787907  	18,253549  	-0,047954  
96,571000  	24,262787  	30,260678  	23,208768  	-242,047242  	70,184443  	65,240751  	0,009799  	0,011799  	0,003967  	0,004431  	0,004445  	0,000000  	-0,000000  	26,447241  	25,423998  	26,366249  	26,198432  	29,133741  	27,723781  	28,884916  	28,463763  	31,314768  	30,296009  	32,686743  	59,299001  	25,342175  	24,145328  	28,364430  	64,589742  	0,356159  	0,180468  	-4525,342394  	-27035,268824  	-0,103413  	-0,049995  	0,379019  	0,192052  	-3,975545  	16794,911721  	125878,367573  	18,257114  	-0,047947  
97,575000  	24,234124  	30,267018  	23,209843  	1256,670793  	70,186219  	65,238262  	0,009792  	0,011820  	0,003966  	0,004417  	0,004464  	-0,000000  	-0,000000  	26,434064  	25,419802  	26,363799  	26,203925  	29,131324  	27,718719  	28,883867  	28,456701  	31,314658  	30,305695  	32,685904  	59,300101  	25,338157  	24,134926  	28,361123  	64,584682  	0,344442  	0,174531  	-4402,018154  	25593,541251  	-0,018545  	-0,050001  	0,393624  	0,199452  	-4,132294  	16840,331178  	125720,975803  	18,234286  	-0,047952  
98,572000  	24,231482  	30,282774  	23,211624  	657,183579  	70,187091  	65,241746  	0,009795  	0,011797  	0,003966  	0,004325  	0,004460  	0,000001  	-0,000000  	26,448234  	25,430444  	26,365120  	26,211052  	29,133249  	27,725914  	28,892820  	28,464861  	31,312946  	30,306350  	32,690497  	59,307406  	25,336806  	24,133850  	28,362590  	64,595039  	0,269567  	0,136592  	-3455,609547  	18524,990769  	-0,027601  	-0,049987  	0,390942  	0,198093  	-4,101977  	16789,041333  	125789,489591  	18,244223  	-0,047940  
99,571000  	24,228902  	30,291176  	23,213559  	657,183579  	70,185471  	65,242648  	0,009795  	0,011815  	0,003960  	0,004382  	0,004469  	0,000000  	-0,000000  	26,446055  	25,421870  	26,360347  	26,202445  	29,131089  	27,715648  	28,885414  	28,460199  	31,310113  	30,298144  	32,681544  	59,306621  	25,326656  	24,120771  	28,360902  	64,588088  	0,316023  	0,160131  	-4058,482683  	18527,953188  	-0,027606  	-0,049996  	0,398082  	0,201711  	-4,174763  	16827,563898  	125793,295521  	18,244775  	-0,047948  
100,574000  	24,202421  	30,291360  	23,213313  	57,696365  	70,184101  	65,246069  	0,009801  	0,011779  	0,003966  	0,004405  	0,004508  	-0,000000  	-0,000000  	26,434614  	25,420232  	26,356518  	26,198320  	29,125652  	27,716479  	28,882347  	28,454501  	31,306265  	30,306447  	32,682034  	59,298731  	25,318184  	24,125327  	28,362608  	64,583046  	0,334798  	0,169644  	-4318,520039  	1872,920132  	-0,054000  	-0,050004  	0,428860  	0,217306  	-4,493181  	16749,891971  	125916,638699  	18,262664  	-0,047955  
101,572000  	24,195693  	30,288837  	23,212822  	956,927186  	70,180736  	65,243767  	0,009796  	0,011804  	0,003962  	0,004359  	0,004480  	-0,000000  	-0,000000  	26,439237  	25,418911  	26,358604  	26,190868  	29,126824  	27,713201  	28,873281  	28,459453  	31,307433  	30,299905  	32,693196  	59,296473  	25,319656  	24,129765  	28,361262  	64,576598  	0,297370  	0,150679  	-3838,387974  	22552,216736  	-0,022189  	-0,050006  	0,406036  	0,205742  	-4,253143  	16805,700275  	125800,977990  	18,245889  	-0,047956  
102,571000  	24,206384  	30,279851  	23,212945  	357,439972  	70,185596  	65,244576  	0,009796  	0,011781  	0,003960  	0,004389  	0,004442  	0,000000  	-0,000000  	26,435728  	25,414126  	26,359232  	26,191035  	29,127707  	27,711739  	28,879653  	28,461220  	31,303124  	30,288596  	32,679523  	59,293862  	25,323855  	24,121541  	28,363775  	64,586057  	0,321901  	0,163110  	-4141,613434  	12584,469888  	-0,036533  	-0,049997  	0,376698  	0,190876  	-3,949072  	16754,733025  	125813,857424  	18,247757  	-0,047949  
103,572000  	24,220853  	30,269695  	23,212853  	1256,670793  	70,185191  	65,242772  	0,009800  	0,011824  	0,003966  	0,004399  	0,004486  	-0,000000  	-0,000000  	26,432737  	25,424467  	26,354854  	26,202232  	29,137494  	27,713306  	28,874131  	28,455876  	31,302839  	30,304330  	32,681778  	59,292571  	25,326818  	24,107046  	28,357781  	64,585628  	0,330259  	0,167344  	-4231,912645  	25594,296289  	-0,018546  	-0,050003  	0,411480  	0,208500  	-4,314919  	16847,827985  	125904,197052  	18,260860  	-0,047954  
104,570000  	24,244139  	30,267233  	23,212668  	1256,670793  	70,180830  	65,242959  	0,009798  	0,011820  	0,003964  	0,004399  	0,004464  	0,000001  	-0,000000  	26,443118  	25,434195  	26,362222  	26,206946  	29,134475  	27,716166  	28,889563  	28,460139  	31,321838  	30,297349  	32,689600  	59,290540  	25,320748  	24,084570  	28,375567  	64,594358  	0,330020  	0,167224  	-4210,848675  	25588,659127  	-0,018542  	-0,049990  	0,393644  	0,199462  	-4,124089  	16839,168137  	125847,510595  	18,252638  	-0,047943  
105,573000  	24,231912  	30,271695  	23,212853  	-242,047242  	70,183447  	65,243519  	0,009801  	0,011795  	0,003962  	0,004293  	0,004474  	0,000001  	-0,000000  	26,437517  	25,425361  	26,358209  	26,204315  	29,127486  	27,725066  	28,883745  	28,459352  	31,306838  	30,299088  	32,687165  	59,291746  	25,328442  	24,079114  	28,364385  	64,595561  	0,243864  	0,123567  	-3120,170536  	-27033,594256  	-0,103405  	-0,049991  	0,401852  	0,203621  	-4,211835  	16786,133022  	125925,698081  	18,263978  	-0,047944  
106,572000  	24,242726  	30,276373  	23,212730  	357,439972  	70,182076  	65,246069  	0,009793  	0,011819  	0,003961  	0,004385  	0,004436  	-0,000001  	-0,000000  	26,444535  	25,432385  	26,363027  	26,207365  	29,139130  	27,720591  	28,891409  	28,474535  	31,318238  	30,304991  	32,686228  	59,307208  	25,325728  	24,063765  	28,360575  	64,585178  	0,318769  	0,161523  	-4074,424010  	12587,937635  	-0,036543  	-0,050012  	0,371258  	0,188119  	-3,888088  	16837,826819  	125732,937295  	18,236021  	-0,047962  
107,574000  	24,271296  	30,284682  	23,213098  	1256,670793  	70,176625  	65,251232  	0,009790  	0,011794  	0,003964  	0,004457  	0,004490  	0,000001  	-0,000001  	26,431644  	25,417997  	26,353624  	26,192800  	29,117564  	27,708083  	28,881747  	28,454584  	31,297551  	30,287856  	32,675212  	59,288414  	25,304591  	24,039740  	28,350028  	64,587610  	0,376579  	0,190815  	-4797,160102  	25588,963780  	-0,018542  	-0,049991  	0,414555  	0,210058  	-4,332194  	16783,211269  	125688,671301  	18,229601  	-0,047944  
108,572000  	24,265644  	30,286036  	23,213098  	1256,670793  	70,174195  	65,248682  	0,009801  	0,011772  	0,003964  	0,004339  	0,004472  	-0,000000  	-0,000000  	26,447856  	25,418675  	26,358999  	26,203207  	29,128513  	27,717263  	28,887073  	28,462026  	31,313998  	30,302832  	32,680229  	59,288824  	25,300253  	24,033163  	28,369689  	64,584829  	0,281504  	0,142640  	-3590,203202  	25595,377207  	-0,018547  	-0,050005  	0,400028  	0,202697  	-4,180486  	16736,638675  	125915,932589  	18,262562  	-0,047956  
109,572000  	24,224785  	30,295977  	23,213620  	1256,670793  	70,170114  	65,246442  	0,009802  	0,011817  	0,003963  	0,004343  	0,004433  	0,000002  	-0,000000  	26,447768  	25,438370  	26,370152  	26,214721  	29,138424  	27,724713  	28,894350  	28,471447  	31,315387  	30,310336  	32,700298  	59,302144  	25,310003  	24,032757  	28,379660  	64,596482  	0,284140  	0,143976  	-3654,401563  	25582,330999  	-0,018537  	-0,049976  	0,369395  	0,187175  	-3,858916  	16833,645812  	125929,970043  	18,264598  	-0,047931  
110,571000  	24,210715  	30,304655  	23,212945  	1256,670793  	70,168245  	65,239662  	0,009802  	0,011794  	0,003966  	0,004396  	0,004463  	0,000000  	-0,000000  	26,442713  	25,428625  	26,356810  	26,206464  	29,127469  	27,709136  	28,886769  	28,467290  	31,305996  	30,302331  	32,685155  	59,300552  	25,296488  	24,011063  	28,365816  	64,587543  	0,327409  	0,165901  	-4226,679143  	25591,225272  	-0,018544  	-0,049996  	0,392786  	0,199027  	-4,107353  	16784,338231  	125936,190866  	18,265500  	-0,047948  
111,572000  	24,194679  	30,302809  	23,212208  	1256,670793  	70,167809  	65,231731  	0,009790  	0,011790  	0,003964  	0,004383  	0,004510  	-0,000000  	-0,000000  	26,441281  	25,424452  	26,365478  	26,200139  	29,125454  	27,708515  	28,884981  	28,459462  	31,306901  	30,305550  	32,677915  	59,292950  	25,295506  	24,005352  	28,361039  	64,579185  	0,317213  	0,160734  	-4104,594195  	25593,350152  	-0,018545  	-0,050000  	0,430285  	0,218029  	-4,506322  	16775,057952  	125681,645513  	18,228582  	-0,047952  
112,571000  	24,179012  	30,293269  	23,212269  	1256,670793  	70,171610  	65,230674  	0,009796  	0,011786  	0,003963  	0,004391  	0,004452  	-0,000000  	-0,000000  	26,433265  	25,415930  	26,355710  	26,200654  	29,121721  	27,707355  	28,884816  	28,452858  	31,300535  	30,292789  	32,677062  	59,286294  	25,290884  	24,003716  	28,358030  	64,568831  	0,323560  	0,163950  	-4190,925714  	25593,363151  	-0,018545  	-0,050000  	0,384016  	0,194584  	-4,025712  	16766,719285  	125803,061013  	18,246191  	-0,047952  
113,573000  	24,182022  	30,278250  	23,212392  	1256,670793  	70,176064  	65,231140  	0,009792  	0,011824  	0,003963  	0,004345  	0,004434  	-0,000001  	-0,000000  	26,431378  	25,413599  	26,358308  	26,200166  	29,126638  	27,712354  	28,881362  	28,460086  	31,298700  	30,296461  	32,685819  	59,292509  	25,295220  	24,000346  	28,356411  	64,576209  	0,286329  	0,145085  	-3697,749371  	25598,020241  	-0,018549  	-0,050011  	0,370135  	0,187550  	-3,883329  	16847,482751  	125730,119919  	18,235612  	-0,047961  
114,572000  	24,212313  	30,267541  	23,210734  	1256,670793  	70,175441  	65,230767  	0,009796  	0,011780  	0,003965  	0,004422  	0,004486  	0,000000  	-0,000000  	26,442276  	25,428638  	26,365439  	26,208625  	29,133971  	27,722797  	28,885542  	28,460508  	31,310054  	30,304520  	32,687042  	59,299887  	25,304641  	24,015468  	28,364997  	64,589452  	0,348555  	0,176615  	-4471,076291  	25590,860370  	-0,018543  	-0,049995  	0,410904  	0,208208  	-4,310843  	16753,358457  	125808,674582  	18,247006  	-0,047947  
115,570000  	24,226413  	30,256924  	23,208707  	1256,670793  	70,176905  	65,239009  	0,009793  	0,011814  	0,003963  	0,004418  	0,004463  	-0,000000  	-0,000000  	26,448249  	25,432044  	26,362928  	26,215347  	29,135547  	27,727687  	28,889213  	28,464292  	31,311764  	30,303285  	32,685102  	59,299063  	25,307641  	24,040883  	28,365533  	64,592556  	0,345464  	0,175049  	-4413,341555  	25595,195565  	-0,018547  	-0,050004  	0,393052  	0,199162  	-4,117905  	16826,366899  	125734,787302  	18,236289  	-0,047955  
116,573000  	24,214985  	30,257477  	23,205206  	1256,670793  	70,181079  	65,228185  	0,009803  	0,011807  	0,003964  	0,004413  	0,004467  	-0,000001  	-0,000000  	26,444180  	25,426330  	26,361276  	26,206267  	29,129727  	27,720936  	28,887396  	28,461301  	31,305369  	30,301088  	32,680816  	59,292149  	25,303270  	24,048973  	28,361689  	64,577641  	0,340930  	0,172752  	-4364,064988  	25600,759394  	-0,018550  	-0,050016  	0,396198  	0,200757  	-4,163471  	16810,375079  	125963,933902  	18,269524  	-0,047965  
117,578000  	24,196154  	30,268495  	23,201029  	956,927186  	70,182637  	65,235246  	0,009794  	0,011789  	0,003964  	0,004424  	0,004482  	0,000001  	-0,000000  	26,441682  	25,424788  	26,359968  	26,204204  	29,129719  	27,717906  	28,888194  	28,459021  	31,304746  	30,299969  	32,682534  	59,291291  	25,302703  	24,051222  	28,365345  	64,574330  	0,350107  	0,177402  	-4503,685572  	22543,434913  	-0,022180  	-0,049983  	0,407937  	0,206705  	-4,282065  	16773,557459  	125756,987379  	18,239509  	-0,047937  
118,572000  	24,183497  	30,273357  	23,199309  	-242,047242  	70,181017  	65,238916  	0,009797  	0,011782  	0,003968  	0,004378  	0,004483  	0,000001  	-0,000000  	26,440238  	25,421794  	26,358461  	26,210991  	29,130862  	27,716023  	28,888519  	28,460276  	31,311280  	30,300230  	32,682991  	59,292278  	25,307812  	24,064426  	28,365142  	64,577573  	0,312968  	0,158583  	-4037,559356  	-27032,771831  	-0,103407  	-0,049990  	0,408942  	0,207214  	-4,288029  	16756,716704  	125839,997592  	18,251549  	-0,047943  
119,573000  	24,171700  	30,271049  	23,197375  	657,183579  	70,178307  	65,241466  	0,009792  	0,011802  	0,003964  	0,004346  	0,004493  	0,000002  	-0,000000  	26,444294  	25,424738  	26,360381  	26,206433  	29,129193  	27,716384  	28,886333  	28,458872  	31,317888  	30,302254  	32,683587  	59,294605  	25,317166  	24,078416  	28,362080  	64,572474  	0,287092  	0,145472  	-3709,503579  	18523,247846  	-0,027598  	-0,049979  	0,416769  	0,211180  	-4,365450  	16801,012029  	125714,783224  	18,233388  	-0,047934  
120,572000  	24,171332  	30,262678  	23,191663  	1256,670793  	70,177123  	65,241715  	0,009793  	0,011792  	0,003964  	0,004342  	0,004395  	0,000000  	-0,000000  	26,448766  	25,431685  	26,363878  	26,206575  	29,133416  	27,724199  	28,889268  	28,458573  	31,317388  	30,304783  	32,688737  	59,297283  	25,324768  	24,084439  	28,367067  	64,574376  	0,283994  	0,143902  	-3664,666272  	25593,741680  	-0,018545  	-0,050000  	0,338934  	0,171740  	-3,549133  	16778,514534  	125734,723752  	18,236280  	-0,047951  
121,571000  	24,192713  	30,254831  	23,186657  	57,696365  	70,174880  	65,234219  	0,009797  	0,011790  	0,003964  	0,004460  	0,004455  	-0,000001  	-0,000000  	26,444557  	25,429631  	26,365812  	26,213320  	29,136034  	27,724744  	28,891743  	28,459510  	31,313892  	30,303955  	32,683931  	59,292571  	25,325186  	24,081616  	28,371292  	64,581828  	0,379696  	0,192395  	-4876,092995  	1874,889790  	-0,054015  	-0,050018  	0,386591  	0,195889  	-4,052482  	16775,503643  	125826,376743  	18,249573  	-0,047967  
122,572000  	24,203649  	30,247630  	23,188131  	1256,670793  	70,174818  	65,233037  	0,009802  	0,011763  	0,003965  	0,004437  	0,004488  	-0,000001  	-0,000000  	26,447990  	25,428419  	26,364939  	26,206180  	29,134428  	27,720001  	28,891271  	28,460552  	31,315371  	30,302718  	32,682261  	59,294167  	25,332285  	24,072915  	28,370498  	64,582417  	0,360327  	0,182580  	-4613,496843  	25597,149372  	-0,018548  	-0,050007  	0,412896  	0,209217  	-4,329203  	16716,632805  	125928,910879  	18,264444  	-0,047957  
123,570000  	24,198028  	30,247814  	23,189789  	1256,670793  	70,174257  	65,234157  	0,009801  	0,011775  	0,003959  	0,004393  	0,004419  	-0,000000  	-0,000000  	26,447600  	25,426221  	26,365824  	26,206605  	29,133124  	27,716022  	28,896443  	28,455292  	31,314776  	30,311092  	32,687566  	59,297895  	25,339056  	24,066064  	28,367234  	64,577891  	0,324819  	0,164588  	-4162,866923  	25594,006792  	-0,018545  	-0,050000  	0,357943  	0,181372  	-3,751749  	16741,828500  	125905,171483  	18,261001  	-0,047952  
124,575000  	24,210500  	30,250953  	23,190649  	57,696365  	70,172762  	65,235712  	0,009799  	0,011790  	0,003965  	0,004412  	0,004467  	-0,000000  	-0,000000  	26,439089  	25,425615  	26,359897  	26,198797  	29,127764  	27,714921  	28,888834  	28,455667  	31,308766  	30,305297  	32,681500  	59,295181  	25,331122  	24,054797  	28,361143  	64,584917  	0,340493  	0,172530  	-4357,001061  	1874,201640  	-0,054002  	-0,050004  	0,396302  	0,200809  	-4,151237  	16774,563448  	125881,086094  	18,257508  	-0,047955  
125,571000  	24,236950  	30,254154  	23,191540  	1256,670793  	70,173354  	65,228870  	0,009794  	0,011806  	0,003967  	0,004408  	0,004488  	0,000000  	-0,000000  	26,435483  	25,417560  	26,350934  	26,196487  	29,135257  	27,714844  	28,880383  	28,452230  	31,309594  	30,301251  	32,681730  	59,299439  	25,335744  	24,049350  	28,366332  	64,573973  	0,337413  	0,170970  	-4300,970353  	25593,020342  	-0,018545  	-0,049998  	0,412859  	0,209199  	-4,331185  	16809,935755  	125774,675418  	18,242074  	-0,047950  
126,573000  	24,259008  	30,255569  	23,190926  	1256,670793  	70,177777  	65,226506  	0,009806  	0,011812  	0,003961  	0,004287  	0,004520  	-0,000000  	-0,000000  	26,437361  	25,422575  	26,359134  	26,196320  	29,133069  	27,720032  	28,885345  	28,456441  	31,310786  	30,292382  	32,684947  	59,303383  	25,331530  	24,040071  	28,367317  	64,583682  	0,239359  	0,121285  	-3040,611557  	25595,056952  	-0,018546  	-0,050003  	0,438399  	0,222140  	-4,605425  	16821,441659  	126022,604526  	18,278033  	-0,047954  
127,571000  	24,268685  	30,262678  	23,189820  	1256,670793  	70,177871  	65,229896  	0,009806  	0,011796  	0,003961  	0,004359  	0,004435  	0,000000  	-0,000000  	26,428216  	25,419536  	26,352654  	26,201395  	29,137193  	27,715343  	28,876800  	28,447160  	31,308766  	30,289258  	32,674682  	59,287715  	25,332014  	24,027645  	28,371331  	64,577617  	0,297233  	0,150610  	-3774,177540  	25593,269222  	-0,018545  	-0,049999  	0,371112  	0,188045  	-3,895978  	16788,223525  	126018,113671  	18,277382  	-0,047950  
128,573000  	24,266719  	30,275481  	23,191663  	57,696365  	70,179864  	65,232011  	0,009801  	0,011796  	0,003966  	0,004468  	0,004412  	-0,000001  	-0,000000  	26,427570  	25,413006  	26,345878  	26,196664  	29,125196  	27,704152  	28,874372  	28,451285  	31,305836  	30,291192  	32,675158  	59,286564  	25,323324  	24,024652  	28,358564  	64,576631  	0,385443  	0,195307  	-4906,303238  	1874,562956  	-0,054014  	-0,050017  	0,352394  	0,178561  	-3,699388  	16788,665679  	125920,564667  	18,263234  	-0,047966  
129,572000  	24,257779  	30,290314  	23,191755  	1256,670793  	70,181702  	65,237578  	0,009793  	0,011758  	0,003961  	0,004400  	0,004522  	-0,000001  	-0,000000  	26,429973  	25,404003  	26,344445  	26,190153  	29,114392  	27,699677  	28,872670  	28,437817  	31,299549  	30,287368  	32,665749  	59,285952  	25,324965  	24,003689  	28,357616  	64,579838  	0,330635  	0,167535  	-4225,305537  	25599,906766  	-0,018550  	-0,050013  	0,439697  	0,222798  	-4,612402  	16705,541465  	125739,687700  	18,237000  	-0,047963  
130,572000  	24,201253  	30,298377  	23,192799  	657,183579  	70,182387  	65,239320  	0,009791  	0,011817  	0,003959  	0,004364  	0,004472  	-0,000001  	-0,000000  	26,439191  	25,419427  	26,360379  	26,191049  	29,123447  	27,716614  	28,884955  	28,454162  	31,315189  	30,301480  	32,680513  	59,298919  	25,336732  	24,028546  	28,378399  	64,585465  	0,301859  	0,152954  	-3898,880208  	18533,397516  	-0,027613  	-0,050010  	0,400013  	0,202690  	-4,195225  	16833,214270  	125691,326272  	18,229986  	-0,047960  
131,571000  	24,178121  	30,300778  	23,193444  	657,183579  	70,181235  	65,240097  	0,009801  	0,011778  	0,003968  	0,004360  	0,004464  	-0,000000  	-0,000000  	26,453011  	25,427958  	26,368806  	26,210075  	29,140812  	27,719835  	28,891390  	28,461652  	31,316927  	30,307581  	32,687238  	59,309779  	25,339353  	24,045253  	28,364918  	64,586220  	0,297940  	0,150968  	-3864,381936  	18530,643886  	-0,027609  	-0,050001  	0,393705  	0,199493  	-4,127452  	16749,407370  	125916,363316  	18,262624  	-0,047953  
132,572000  	24,188750  	30,295177  	23,193567  	1256,670793  	70,182045  	65,236614  	0,009789  	0,011813  	0,003964  	0,004378  	0,004492  	-0,000000  	-0,000000  	26,452115  	25,426397  	26,363510  	26,198586  	29,141045  	27,729983  	28,883656  	28,465857  	31,319580  	30,303186  	32,682413  	59,294056  	25,336266  	24,031967  	28,366696  	64,583005  	0,312681  	0,158438  	-4044,822818  	25595,402271  	-0,018546  	-0,050004  	0,415873  	0,210726  	-4,363637  	16825,130283  	125664,148124  	18,226044  	-0,047954  
133,571000  	24,177076  	30,274988  	23,195379  	57,696365  	70,182169  	65,239911  	0,009795  	0,011777  	0,003964  	0,004372  	0,004424  	0,000001  	-0,000000  	26,438894  	25,418438  	26,352882  	26,194269  	29,130252  	27,713640  	28,878427  	28,457126  	31,311652  	30,303825  	32,681680  	59,297010  	25,343238  	24,023443  	28,361158  	64,585855  	0,307900  	0,156015  	-3977,423253  	1873,513198  	-0,053989  	-0,049992  	0,362213  	0,183536  	-3,798165  	16746,193442  	125792,469373  	18,244655  	-0,047944  
134,572000  	24,196860  	30,263971  	23,196853  	1256,670793  	70,185471  	65,240408  	0,009800  	0,011803  	0,003963  	0,004346  	0,004417  	-0,000001  	-0,000000  	26,442869  	25,432617  	26,361153  	26,199463  	29,127546  	27,722966  	28,881087  	28,447705  	31,306366  	30,293043  	32,676755  	59,299060  	25,341784  	24,042616  	28,365079  	64,579762  	0,286868  	0,145358  	-3687,009554  	25597,199780  	-0,018548  	-0,050008  	0,356758  	0,180772  	-3,743085  	16802,344150  	125901,181965  	18,260423  	-0,047958  
135,570000  	24,229117  	30,257416  	23,199064  	357,439972  	70,186842  	65,237236  	0,009797  	0,011775  	0,003964  	0,004472  	0,004458  	-0,000000  	-0,000001  	26,433689  	25,429405  	26,365032  	26,199748  	29,127610  	27,720368  	28,880339  	28,456487  	31,308548  	30,297266  	32,685110  	59,295128  	25,331796  	24,050735  	28,363729  	64,576617  	0,389265  	0,197243  	-4971,069260  	12586,530919  	-0,036538  	-0,050003  	0,388927  	0,197072  	-4,084352  	16743,327578  	125822,655547  	18,249033  	-0,047954  
136,573000  	24,230468  	30,254215  	23,200169  	-242,047242  	70,185845  	65,240160  	0,009808  	0,011804  	0,003963  	0,004378  	0,004517  	-0,000001  	-0,000000  	26,432525  	25,417873  	26,353476  	26,193130  	29,123730  	27,709267  	28,882855  	28,452238  	31,300384  	30,300294  	32,674641  	59,286875  	25,334831  	24,055916  	28,359765  	64,577523  	0,313267  	0,158735  	-3997,529376  	-27043,719135  	-0,103449  	-0,050013  	0,435899  	0,220873  	-4,574002  	16804,624249  	126067,032925  	18,284477  	-0,047963  
137,573000  	24,212835  	30,262894  	23,202073  	1256,670793  	70,187216  	65,239444  	0,009801  	0,011812  	0,003966  	0,004360  	0,004435  	-0,000000  	-0,000000  	26,439495  	25,426243  	26,356488  	26,201553  	29,132773  	27,716615  	28,888219  	28,454444  	31,310307  	30,303644  	32,678904  	59,295078  	25,339206  	24,074147  	28,361139  	64,575133  	0,298368  	0,151185  	-3824,035423  	25594,350148  	-0,018546  	-0,050002  	0,370406  	0,187687  	-3,888408  	16821,056101  	125909,669400  	18,261654  	-0,047953  
138,571000  	24,220269  	30,274280  	23,202810  	1256,670793  	70,189458  	65,237827  	0,009798  	0,011803  	0,003963  	0,004351  	0,004463  	-0,000000  	-0,000000  	26,442233  	25,424999  	26,360591  	26,206762  	29,131681  	27,721006  	28,886317  	28,458483  	31,309548  	30,299304  	32,682765  	59,300588  	25,329647  	24,085630  	28,361099  	64,572727  	0,291288  	0,147598  	-3735,734387  	25595,540699  	-0,018547  	-0,050005  	0,392949  	0,199110  	-4,128279  	16802,700703  	125848,668615  	18,252806  	-0,047955  
139,572000  	24,214832  	30,276219  	23,202995  	357,439972  	70,187527  	65,242088  	0,009788  	0,011815  	0,003966  	0,004396  	0,004505  	0,000000  	-0,000000  	26,440065  	25,423585  	26,359336  	26,194475  	29,124171  	27,715969  	28,879641  	28,448421  	31,300833  	30,294070  	32,682566  	59,287425  	25,324263  	24,087175  	28,359528  	64,573626  	0,327318  	0,165854  	-4202,926581  	12585,610291  	-0,036536  	-0,049999  	0,426131  	0,215924  	-4,471284  	16829,217199  	125628,539030  	18,220879  	-0,047951  
140,573000  	24,202052  	30,274127  	23,202135  	956,927186  	70,180300  	65,243021  	0,009800  	0,011802  	0,003961  	0,004266  	0,004513  	0,000001  	-0,000000  	26,435204  	25,415030  	26,350971  	26,190828  	29,122592  	27,712292  	28,876335  	28,442868  	31,294635  	30,291538  	32,677630  	59,288261  	25,327040  	24,090176  	28,354939  	64,570731  	0,222399  	0,112691  	-2860,754583  	22544,470886  	-0,022181  	-0,049986  	0,432518  	0,219160  	-4,530815  	16801,120268  	125899,995702  	18,260251  	-0,047939  
141,570000  	24,212681  	30,272649  	23,202841  	1256,670793  	70,178276  	65,244483  	0,009801  	0,011768  	0,003964  	0,004343  	0,004427  	0,000001  	-0,000000  	26,430842  	25,416143  	26,349450  	26,192652  	29,124357  	27,715500  	28,881084  	28,449048  	31,299450  	30,292750  	32,670871  	59,290094  	25,328729  	24,104333  	28,355658  	64,569173  	0,284203  	0,144008  	-3648,453420  	25589,182417  	-0,018542  	-0,049991  	0,364533  	0,184711  	-3,815943  	16726,960812  	125917,937940  	18,262853  	-0,047943  
142,571000  	24,206168  	30,269449  	23,200384  	657,183579  	70,176656  	65,243052  	0,009798  	0,011813  	0,003964  	0,004397  	0,004483  	-0,000000  	-0,000000  	26,440937  	25,423130  	26,356877  	26,197316  	29,128695  	27,719067  	28,888398  	28,454566  	31,303633  	30,299598  	32,677753  	59,292352  	25,333040  	24,120449  	28,363102  	64,574940  	0,328146  	0,166274  	-4214,881342  	18531,111959  	-0,027610  	-0,050004  	0,408613  	0,207047  	-4,277211  	16825,140895  	125857,360820  	18,254067  	-0,047955  
143,570000  	24,193911  	30,267972  	23,199002  	-242,047242  	70,174444  	65,236738  	0,009801  	0,011798  	0,003968  	0,004373  	0,004489  	0,000001  	-0,000000  	26,439172  	25,422000  	26,358544  	26,200365  	29,131726  	27,717019  	28,887740  	28,456616  	31,308502  	30,300185  	32,678025  	59,296579  	25,341144  	24,128184  	28,368645  	64,580091  	0,308589  	0,156364  	-3970,733264  	-27033,183162  	-0,103409  	-0,049991  	0,413914  	0,209733  	-4,336300  	16792,387553  	125910,714441  	18,261805  	-0,047944  
144,573000  	24,189180  	30,268587  	23,197590  	-242,047242  	70,175067  	65,236116  	0,009803  	0,011812  	0,003965  	0,004341  	0,004422  	-0,000000  	-0,000000  	26,436792  	25,422163  	26,357927  	26,204835  	29,128244  	27,712654  	28,883821  	28,456773  	31,308878  	30,293952  	32,676828  	59,297776  	25,343148  	24,134511  	28,369540  	64,578166  	0,283257  	0,143528  	-3647,984364  	-27037,729186  	-0,103427  	-0,050001  	0,360825  	0,182833  	-3,781077  	16821,973658  	125957,042275  	18,268524  	-0,047952  
145,571000  	24,206076  	30,264648  	23,194457  	1256,670793  	70,175721  	65,239320  	0,009799  	0,011782  	0,003963  	0,004372  	0,004441  	-0,000001  	-0,000000  	26,442748  	25,423854  	26,357054  	26,203427  	29,124717  	27,714609  	28,889818  	28,459487  	31,306982  	30,292512  	32,680392  	59,299384  	25,341978  	24,140431  	28,369007  	64,579503  	0,307938  	0,156034  	-3952,244033  	25597,425625  	-0,018548  	-0,050008  	0,375804  	0,190423  	-3,936008  	16757,445373  	125863,327444  	18,254932  	-0,047958  
146,571000  	24,188873  	30,259909  	23,192308  	657,183579  	70,175597  	65,244856  	0,009795  	0,011807  	0,003965  	0,004432  	0,004521  	0,000001  	-0,000000  	26,439140  	25,424356  	26,354601  	26,198265  	29,128483  	27,720061  	28,894051  	28,460258  	31,306686  	30,299855  	32,676413  	59,299883  	25,347729  	24,140482  	28,373547  	64,579391  	0,356742  	0,180764  	-4588,055799  	18525,892748  	-0,027602  	-0,049987  	0,438817  	0,222352  	-4,590711  	16810,508079  	125793,825103  	18,244852  	-0,047940  
147,572000  	24,152009  	30,258708  	23,193966  	657,183579  	70,168152  	65,242523  	0,009792  	0,011799  	0,003965  	0,004373  	0,004413  	0,000000  	-0,000000  	26,439841  	25,427548  	26,358561  	26,200732  	29,130227  	27,723218  	28,889676  	28,457313  	31,303639  	30,302396  	32,677075  	59,298054  	25,351800  	24,132618  	28,374736  	64,575011  	0,308537  	0,156338  	-3991,399439  	18530,013712  	-0,027608  	-0,049999  	0,353679  	0,179212  	-3,696197  	16793,571110  	125723,051764  	18,234587  	-0,047951  
148,573000  	24,167000  	30,256985  	23,195133  	1256,670793  	70,165099  	65,234126  	0,009807  	0,011771  	0,003963  	0,004328  	0,004492  	0,000001  	-0,000000  	26,442913  	25,423393  	26,360951  	26,194644  	29,125111  	27,721943  	28,888918  	28,462126  	31,309834  	30,294348  	32,682903  	59,296655  	25,347780  	24,116111  	28,364253  	64,580786  	0,272764  	0,138211  	-3518,958678  	25589,979909  	-0,018543  	-0,049992  	0,415843  	0,210711  	-4,350569  	16732,885673  	126050,799472  	18,282123  	-0,047944  
149,571000  	24,221467  	30,245414  	23,197160  	57,696365  	70,166968  	65,225044  	0,009796  	0,011791  	0,003963  	0,004382  	0,004508  	-0,000000  	-0,000000  	26,444203  	25,419906  	26,357956  	26,193593  	29,126802  	27,715041  	28,882675  	28,459624  	31,315859  	30,302674  	32,688041  	59,295020  	25,350860  	24,103968  	28,370378  	64,579987  	0,315972  	0,160105  	-4032,174512  	1873,774463  	-0,054000  	-0,050002  	0,428672  	0,217212  	-4,494747  	16777,631641  	125807,813129  	18,246881  	-0,047953  
150,575000  	24,240391  	30,236674  	23,196054  	1256,670793  	70,168277  	65,222991  	0,009808  	0,011807  	0,003964  	0,004407  	0,004506  	-0,000000  	-0,000000  	26,443560  	25,421642  	26,355846  	26,201049  	29,129330  	27,721466  	28,887384  	28,451891  	31,317996  	30,307127  	32,685903  	59,301222  	25,358614  	24,092838  	28,382634  	64,580854  	0,336071  	0,170290  	-4268,969770  	25594,997264  	-0,018546  	-0,050003  	0,426840  	0,216283  	-4,478572  	16812,383518  	126060,127176  	18,283476  	-0,047954  
151,571000  	24,211452  	30,241198  	23,192553  	1256,670793  	70,169990  	65,221872  	0,009798  	0,011777  	0,003966  	0,004324  	0,004437  	-0,000000  	-0,000000  	26,434140  	25,419813  	26,353733  	26,202096  	29,127801  	27,705220  	28,884191  	28,447528  	31,305914  	30,289305  	32,678045  	59,297038  	25,352831  	24,078923  	28,375277  	64,566154  	0,268779  	0,136192  	-3433,243776  	25593,954540  	-0,018545  	-0,050000  	0,372423  	0,188710  	-3,909853  	16746,104304  	125847,312885  	18,252610  	-0,047952  
152,573000  	24,192897  	30,258739  	23,193290  	57,696365  	70,170052  	65,226848  	0,009801  	0,011782  	0,003962  	0,004409  	0,004425  	-0,000000  	-0,000000  	26,436276  	25,409703  	26,347349  	26,194790  	29,124668  	27,706801  	28,882313  	28,451677  	31,304769  	30,290949  	32,674763  	59,287461  	25,346981  	24,064681  	28,364440  	64,563193  	0,337933  	0,171233  	-4342,428576  	1873,930460  	-0,053998  	-0,050000  	0,362883  	0,183876  	-3,805917  	16757,083868  	125905,037322  	18,260982  	-0,047952  
153,571000  	24,217443  	30,267695  	23,196975  	57,696365  	70,171672  	65,230331  	0,009795  	0,011806  	0,003965  	0,004419  	0,004499  	-0,000002  	-0,000000  	26,443407  	25,418667  	26,360297  	26,199640  	29,131738  	27,719335  	28,885209  	28,457979  	31,308743  	30,298369  	32,683254  	59,288620  	25,349803  	24,063047  	28,365930  	64,583737  	0,346324  	0,175485  	-4438,813984  	1874,580817  	-0,054023  	-0,050026  	0,421227  	0,213439  	-4,416162  	16808,433139  	125792,137501  	18,244607  	-0,047974  
154,572000  	24,227519  	30,262586  	23,200169  	1256,670793  	70,172295  	65,230767  	0,009795  	0,011793  	0,003964  	0,004351  	0,004479  	-0,000000  	-0,000000  	26,438332  	25,422754  	26,356861  	26,200976  	29,130185  	27,717247  	28,883400  	28,460012  	31,301562  	30,292944  	32,682551  	59,287518  	25,355275  	24,052642  	28,364176  	64,579894  	0,290614  	0,147256  	-3715,422166  	25595,662063  	-0,018547  	-0,050005  	0,405950  	0,205698  	-4,256162  	16780,622724  	125792,850672  	18,244710  	-0,047955  
155,571000  	24,236828  	30,261294  	23,202473  	1256,670793  	70,168650  	65,233753  	0,009804  	0,011832  	0,003962  	0,004336  	0,004430  	-0,000000  	-0,000000  	26,436303  	25,421028  	26,354124  	26,201354  	29,121124  	27,701426  	28,883683  	28,443688  	31,308358  	30,290447  	32,678021  	59,294401  	25,349643  	24,043597  	28,370627  	64,571329  	0,279162  	0,141453  	-3562,742908  	25595,229305  	-0,018546  	-0,050004  	0,367133  	0,186029  	-3,844017  	16865,362745  	125978,380899  	18,271619  	-0,047955  
156,573000  	24,233448  	30,264679  	23,201920  	1256,670793  	70,168401  	65,230145  	0,009805  	0,011752  	0,003964  	0,004424  	0,004482  	-0,000001  	-0,000000  	26,433917  	25,415762  	26,359385  	26,194894  	29,126592  	27,718479  	28,875787  	28,457768  	31,299067  	30,296130  	32,675475  	59,296000  	25,351950  	24,030393  	28,362994  	64,578519  	0,350384  	0,177542  	-4476,725484  	25600,635583  	-0,018550  	-0,050016  	0,407765  	0,206617  	-4,272354  	16692,460786  	126010,734828  	18,276312  	-0,047965  
157,572000  	24,240237  	30,273634  	23,201674  	57,696365  	70,168650  	65,227408  	0,009799  	0,011782  	0,003965  	0,004359  	0,004463  	-0,000001  	-0,000000  	26,449786  	25,421732  	26,358925  	26,207335  	29,129808  	27,718915  	28,879899  	28,458917  	31,310531  	30,306916  	32,684575  	59,300881  	25,351659  	24,031717  	28,373051  	64,582718  	0,297251  	0,150619  	-3799,225468  	1873,918392  	-0,054011  	-0,050014  	0,393298  	0,199287  	-4,123264  	16757,692979  	125869,738917  	18,255862  	-0,047964  
158,572000  	24,239500  	30,279112  	23,199647  	1256,670793  	70,172015  	65,227594  	0,009800  	0,011821  	0,003962  	0,004330  	0,004451  	-0,000000  	-0,000000  	26,444363  	25,419624  	26,350137  	26,206066  	29,133395  	27,712173  	28,877577  	28,448823  	31,305746  	30,293975  	32,682816  	59,296139  	25,340812  	24,016425  	28,366870  	64,580997  	0,273660  	0,138665  	-3501,305635  	25594,166529  	-0,018546  	-0,050001  	0,383367  	0,194255  	-4,021737  	16842,094841  	125899,098943  	18,260120  	-0,047953  
159,572000  	24,247426  	30,281236  	23,199002  	1256,670793  	70,173634  	65,233628  	0,009799  	0,011796  	0,003964  	0,004414  	0,004518  	-0,000001  	-0,000000  	26,428132  	25,419636  	26,355381  	26,193184  	29,112295  	27,704795  	28,880752  	28,441522  	31,302272  	30,284668  	32,671034  	59,280536  	25,338116  	24,002921  	28,369240  	64,571322  	0,342316  	0,173454  	-4375,508864  	25601,285096  	-0,018551  	-0,050017  	0,436382  	0,221118  	-4,573813  	16788,051616  	125864,866763  	18,255156  	-0,047966  
160,571000  	24,257257  	30,283574  	23,196546  	1256,670793  	70,169647  	65,235494  	0,009797  	0,011798  	0,003968  	0,004395  	0,004528  	-0,000001  	-0,000000  	26,435307  	25,413815  	26,342714  	26,189859  	29,124016  	27,705446  	28,877853  	28,447217  	31,305640  	30,293217  	32,666834  	59,285561  	25,344660  	23,998595  	28,367690  	64,573486  	0,326547  	0,165464  	-4168,756079  	25601,833439  	-0,018551  	-0,050018  	0,444474  	0,225218  	-4,653107  	16792,957047  	125829,420074  	18,250014  	-0,047967  
161,572000  	24,277594  	30,285975  	23,196546  	57,696365  	70,164632  	65,232322  	0,009798  	0,011784  	0,003963  	0,004318  	0,004478  	-0,000001  	-0,000000  	26,424397  	25,409645  	26,343201  	26,197646  	29,113280  	27,703992  	28,873284  	28,452670  	31,305713  	30,291940  	32,673952  	59,287610  	25,343306  	24,003832  	28,374065  	64,573945  	0,264561  	0,134055  	-3367,379505  	1874,156992  	-0,054010  	-0,050013  	0,404695  	0,205062  	-4,235089  	16761,866204  	125860,382968  	18,254505  	-0,047962  
162,570000  	24,259653  	30,290160  	23,200538  	657,183579  	70,167560  	65,228092  	0,009805  	0,011818  	0,003963  	0,004384  	0,004409  	-0,000000  	-0,000000  	26,429409  	25,407469  	26,350736  	26,199836  	29,112082  	27,708041  	28,870416  	28,447572  	31,307012  	30,292469  	32,681523  	59,288998  	25,352737  	23,997243  	28,373205  	64,577983  	0,317693  	0,160977  	-4058,546851  	18530,916799  	-0,027610  	-0,050003  	0,350163  	0,177430  	-3,669727  	16836,107725  	126007,183098  	18,275797  	-0,047954  
163,571000  	24,233940  	30,298839  	23,202565  	657,183579  	70,171174  	65,228185  	0,009795  	0,011806  	0,003967  	0,004360  	0,004486  	0,000000  	-0,000000  	26,429211  	25,413117  	26,345526  	26,198441  	29,120084  	27,715150  	28,877480  	28,453960  	31,301277  	30,286113  	32,681050  	59,287321  	25,349503  	23,989268  	28,373108  	64,579752  	0,298675  	0,151341  	-3837,359762  	18529,276702  	-0,027607  	-0,049998  	0,411533  	0,208527  	-4,315961  	16808,743000  	125787,936151  	18,243998  	-0,047950  
164,574000  	24,213726  	30,305855  	23,202749  	1256,670793  	70,171360  	65,230611  	0,009808  	0,011796  	0,003965  	0,004362  	0,004456  	-0,000001  	-0,000000  	26,439586  	25,423724  	26,355079  	26,197434  	29,129447  	27,715132  	28,881930  	28,453286  	31,314032  	30,293593  	32,687307  	59,293294  	25,356799  	23,991974  	28,381321  	64,587704  	0,300166  	0,152096  	-3873,835868  	25597,786110  	-0,018548  	-0,050009  	0,387154  	0,196174  	-4,058447  	16786,701101  	126069,214803  	18,284794  	-0,047959  
165,571000  	24,238517  	30,301485  	23,206127  	1256,670793  	70,171392  	65,232913  	0,009795  	0,011791  	0,003961  	0,004354  	0,004413  	0,000001  	-0,000000  	26,440878  	25,425524  	26,357616  	26,195041  	29,134954  	27,718907  	28,889589  	28,457997  	31,312255  	30,301371  	32,691986  	59,294766  	25,362193  	23,988565  	28,386783  	64,580926  	0,293127  	0,148529  	-3764,874093  	25589,070127  	-0,018542  	-0,049991  	0,353253  	0,178996  	-3,701379  	16777,828312  	125785,521257  	18,243647  	-0,047943  
166,572000  	24,268316  	30,291822  	23,205759  	657,183579  	70,171765  	65,233037  	0,009790  	0,011787  	0,003968  	0,004355  	0,004493  	-0,000000  	-0,000000  	26,433852  	25,415171  	26,351024  	26,193830  	29,128600  	27,715718  	28,883241  	28,457378  	31,305327  	30,296493  	32,674592  	59,288489  	25,350655  	23,968813  	28,373880  	64,573585  	0,294404  	0,149177  	-3756,665839  	18530,949328  	-0,027610  	-0,050004  	0,416834  	0,211213  	-4,367794  	16768,965426  	125677,938439  	18,228044  	-0,047955  
167,570000  	24,288592  	30,287760  	23,207878  	657,183579  	70,174475  	65,233255  	0,009799  	0,011760  	0,003967  	0,004436  	0,004490  	-0,000001  	-0,000000  	26,430750  	25,410656  	26,348291  	26,190019  	29,123890  	27,711267  	28,881360  	28,454237  	31,304671  	30,298067  	32,667959  	59,288721  	25,357202  	23,960436  	28,362530  	64,573091  	0,360206  	0,182519  	-4577,727788  	18534,084376  	-0,027615  	-0,050014  	0,414165  	0,209861  	-4,342023  	16709,248483  	125875,260692  	18,256663  	-0,047963  
168,574000  	24,283615  	30,292992  	23,209782  	1256,670793  	70,177590  	65,231575  	0,009794  	0,011787  	0,003963  	0,004349  	0,004454  	0,000000  	-0,000000  	26,438277  	25,419260  	26,354150  	26,192339  	29,128410  	27,717386  	28,882417  	28,456405  	31,309383  	30,299626  	32,681226  	59,294472  	25,367683  	23,962156  	28,369651  	64,576339  	0,289307  	0,146594  	-3682,963636  	25592,098250  	-0,018544  	-0,049997  	0,385577  	0,195375  	-4,046233  	16769,053857  	125768,285128  	18,241148  	-0,047949  
169,572000  	24,255229  	30,306686  	23,213068  	57,696365  	70,174289  	65,235712  	0,009802  	0,011808  	0,003965  	0,004354  	0,004469  	0,000000  	-0,000000  	26,449690  	25,425574  	26,361595  	26,205647  	29,134751  	27,725132  	28,885135  	28,463606  	31,315720  	30,300488  	32,693331  	59,294405  	25,371147  	23,969319  	28,375432  	64,580127  	0,293619  	0,148779  	-3764,036866  	1872,721191  	-0,053994  	-0,049998  	0,397391  	0,201361  	-4,163938  	16813,489257  	125933,154596  	18,265060  	-0,047950  
170,571000  	24,234216  	30,315488  	23,213928  	1256,670793  	70,169865  	65,236210  	0,009803  	0,011813  	0,003965  	0,004445  	0,004537  	0,000000  	-0,000000  	26,452506  	25,429500  	26,366204  	26,211915  	29,137694  	27,728055  	28,893019  	28,464674  	31,316346  	30,303869  	32,694800  	59,295199  	25,372516  	23,974568  	28,372383  	64,588664  	0,367114  	0,186019  	-4729,395173  	25592,936350  	-0,018545  	-0,050000  	0,451850  	0,228956  	-4,729846  	16824,903193  	125961,850879  	18,269222  	-0,047951  
171,572000  	24,225461  	30,315396  	23,212638  	1256,670793  	70,168931  	65,228776  	0,009804  	0,011808  	0,003964  	0,004365  	0,004498  	0,000001  	-0,000000  	26,442737  	25,426029  	26,361058  	26,206557  	29,130540  	27,724399  	28,893292  	28,458169  	31,308913  	30,301358  	32,684944  	59,290251  	25,363182  	23,968879  	28,363250  	64,585105  	0,302642  	0,153351  	-3904,381822  	25588,684488  	-0,018542  	-0,049990  	0,420323  	0,212981  	-4,405626  	16813,874815  	125971,955304  	18,270687  	-0,047943  
172,570000  	24,218272  	30,307640  	23,212638  	1256,670793  	70,165131  	65,238107  	0,009796  	0,011789  	0,003964  	0,004378  	0,004480  	-0,000001  	-0,000000  	26,432457  	25,416422  	26,351407  	26,199540  	29,119829  	27,717665  	28,883109  	28,453944  	31,303508  	30,298096  	32,675186  	59,281796  	25,351659  	23,967999  	28,354978  	64,571110  	0,312679  	0,158437  	-4033,489073  	25598,158449  	-0,018549  	-0,050011  	0,406324  	0,205887  	-4,247578  	16773,470443  	125808,836987  	18,247029  	-0,047961  
173,573000  	24,224294  	30,295484  	23,213928  	1256,670793  	70,163853  	65,228745  	0,009788  	0,011809  	0,003966  	0,004425  	0,004444  	0,000001  	-0,000000  	26,429807  	25,417476  	26,355694  	26,196528  	29,122919  	27,718359  	28,875942  	28,453670  	31,303894  	30,298345  	32,678080  	59,286304  	25,354435  	23,984852  	28,360560  	64,574964  	0,350675  	0,177690  	-4510,130307  	25587,608075  	-0,018541  	-0,049988  	0,377980  	0,191525  	-3,957762  	16816,024744  	125627,395133  	18,220713  	-0,047941  
174,570000  	24,232895  	30,290129  	23,215463  	1256,670793  	70,164912  	65,226630  	0,009800  	0,011794  	0,003962  	0,004363  	0,004429  	0,000000  	-0,000000  	26,431029  	25,421282  	26,366573  	26,201806  	29,134137  	27,721199  	28,878117  	28,456655  	31,304377  	30,300004  	32,687471  	59,288615  	25,358726  	24,004958  	28,364251  	64,577198  	0,300725  	0,152380  	-3858,818401  	25590,761189  	-0,018543  	-0,049995  	0,365734  	0,185320  	-3,831999  	16783,046434  	125894,855226  	18,259505  	-0,047947  
175,570000  	24,238886  	30,285052  	23,217859  	1256,670793  	70,162981  	65,230020  	0,009792  	0,011776  	0,003963  	0,004343  	0,004399  	0,000001  	-0,000000  	26,444543  	25,427791  	26,370579  	26,206955  	29,141708  	27,724823  	28,888098  	28,462410  	31,309924  	30,309136  	32,700777  	59,292474  	25,353798  	24,014661  	28,362713  	64,573762  	0,284390  	0,144103  	-3642,543762  	25587,973385  	-0,018541  	-0,049989  	0,342195  	0,173393  	-3,581498  	16743,759828  	125721,533629  	18,234367  	-0,047942  
176,572000  	24,214617  	30,285052  	23,219885  	57,696365  	70,164103  	65,232509  	0,009796  	0,011783  	0,003965  	0,004432  	0,004502  	-0,000000  	-0,000000  	26,456877  	25,431283  	26,368399  	26,213125  	29,140692  	27,733497  	28,893510  	28,465091  	31,313588  	30,304762  	32,701761  	59,294947  	25,351302  	24,011718  	28,372474  	64,584190  	0,356514  	0,180648  	-4584,656634  	1872,504311  	-0,053998  	-0,050003  	0,424210  	0,214950  	-4,438662  	16759,121313  	125818,390646  	18,248415  	-0,047954  
177,572000  	24,165526  	30,285944  	23,221175  	1256,670793  	70,165598  	65,233068  	0,009796  	0,011786  	0,003967  	0,004391  	0,004507  	-0,000001  	-0,000000  	26,440432  	25,428831  	26,354211  	26,202989  	29,135032  	27,720201  	28,884907  	28,457202  	31,309462  	30,303459  	32,679501  	59,286790  	25,337880  	23,996359  	28,366438  	64,568027  	0,323480  	0,163910  	-4194,112226  	25595,892735  	-0,018547  	-0,050007  	0,427436  	0,216585  	-4,473267  	16765,191909  	125810,009129  	18,247199  	-0,047957  
178,571000  	24,172898  	30,284036  	23,221052  	1256,670793  	70,170021  	65,226661  	0,009801  	0,011784  	0,003963  	0,004329  	0,004421  	-0,000000  	-0,000000  	26,435872  	25,420541  	26,352857  	26,200787  	29,131329  	27,716198  	28,886792  	28,460779  	31,309582  	30,298585  	32,681159  	59,289566  	25,332762  	23,993377  	28,374137  	64,573378  	0,273544  	0,138607  	-3541,285164  	25595,375708  	-0,018547  	-0,050005  	0,359492  	0,182157  	-3,770464  	16762,364954  	125922,082802  	18,263454  	-0,047956  
179,571000  	24,199809  	30,271203  	23,221697  	1256,670793  	70,173541  	65,222711  	0,009794  	0,011784  	0,003963  	0,004417  	0,004485  	0,000001  	-0,000000  	26,453606  	25,439509  	26,362609  	26,213416  	29,136700  	27,726347  	28,889262  	28,467947  	31,317803  	30,302655  	32,698430  	59,288341  	25,348216  	23,996383  	28,378345  	64,575651  	0,344198  	0,174408  	-4426,979189  	25589,848502  	-0,018543  	-0,049993  	0,410386  	0,207946  	-4,310761  	16762,350805  	125764,514504  	18,240601  	-0,047946  
180,572000  	24,199195  	30,256554  	23,221636  	1256,670793  	70,173229  	65,226444  	0,009785  	0,011807  	0,003963  	0,004428  	0,004494  	0,000000  	-0,000000  	26,444931  	25,420073  	26,356283  	26,210775  	29,125041  	27,719118  	28,888623  	28,464484  	31,308351  	30,298226  	32,684056  	59,282329  	25,346525  	23,983756  	28,367351  	64,572215  	0,353293  	0,179016  	-4533,452588  	25591,606579  	-0,018544  	-0,049997  	0,417184  	0,211390  	-4,378589  	16812,288013  	125575,743236  	18,213222  	-0,047949  
181,571000  	24,211606  	30,252738  	23,224308  	1256,670793  	70,169149  	65,223582  	0,009804  	0,011804  	0,003966  	0,004368  	0,004511  	0,000001  	-0,000000  	26,450384  	25,428095  	26,360243  	26,210156  	29,125903  	27,726727  	28,886333  	28,457024  	31,319795  	30,296167  	32,692640  	59,277320  	25,355602  	23,986528  	28,366728  	64,571643  	0,304787  	0,154438  	-3900,548596  	25585,477585  	-0,018540  	-0,049984  	0,430797  	0,218288  	-4,520352  	16805,739184  	125977,816011  	18,271537  	-0,047938  
182,573000  	24,239439  	30,256308  	23,225782  	1256,670793  	70,164663  	65,230798  	0,009802  	0,011772  	0,003963  	0,004356  	0,004445  	0,000000  	-0,000000  	26,449023  	25,432266  	26,357846  	26,199574  	29,130570  	27,716312  	28,887181  	28,454852  	31,310145  	30,301710  	32,686045  	59,280768  	25,359365  	23,996724  	28,361651  	64,572504  	0,294728  	0,149341  	-3756,661285  	25591,976129  	-0,018544  	-0,049998  	0,379027  	0,192056  	-3,967724  	16735,675133  	125940,611111  	18,266141  	-0,047950  
183,571000  	24,238794  	30,260093  	23,226887  	1256,670793  	70,159492  	65,229336  	0,009796  	0,011817  	0,003968  	0,004379  	0,004500  	0,000000  	-0,000000  	26,449653  	25,426671  	26,369327  	26,212440  	29,137656  	27,720162  	28,916077  	28,464931  	31,323408  	30,319117  	32,684997  	59,296579  	25,365227  	24,021985  	28,367956  	64,578649  	0,313474  	0,158840  	-3998,543213  	25590,390321  	-0,018543  	-0,049995  	0,422507  	0,214088  	-4,419559  	16833,053680  	125800,130659  	18,245766  	-0,047947  
184,572000  	24,226874  	30,267787  	23,224431  	1256,670793  	70,166532  	65,226724  	0,009793  	0,011757  	0,003965  	0,004382  	0,004485  	-0,000000  	-0,000000  	26,450840  	25,433172  	26,370514  	26,214955  	29,135091  	27,731066  	28,893434  	28,464130  	31,318426  	30,310385  	32,685425  	59,295059  	25,351048  	24,033054  	28,374346  	64,575195  	0,315849  	0,160043  	-4041,962395  	25594,379550  	-0,018546  	-0,050004  	0,410504  	0,208005  	-4,302401  	16704,553870  	125747,024176  	18,238064  	-0,047954  
185,572000  	24,244723  	30,278220  	23,223049  	57,696365  	70,170893  	65,226506  	0,009801  	0,011806  	0,003965  	0,004350  	0,004465  	0,000000  	-0,000000  	26,443807  	25,431656  	26,364173  	26,202732  	29,133894  	27,732701  	28,897264  	28,460467  	31,311435  	30,307876  	32,691275  	59,297616  	25,354633  	24,030475  	28,369045  	64,572100  	0,290134  	0,147013  	-3708,319121  	1872,067135  	-0,053991  	-0,049996  	0,394222  	0,199755  	-4,135588  	16809,385362  	125905,609271  	18,261065  	-0,047948  
186,571000  	24,217259  	30,278650  	23,222496  	1256,670793  	70,170395  	65,222463  	0,009794  	0,011794  	0,003964  	0,004416  	0,004523  	0,000001  	-0,000000  	26,443074  	25,432601  	26,363083  	26,209845  	29,141152  	27,722564  	28,895540  	28,465689  	31,325447  	30,305744  	32,693055  	59,294547  	25,347553  	24,027837  	28,377123  	64,586104  	0,343495  	0,174052  	-4410,658542  	25587,324336  	-0,018541  	-0,049988  	0,440166  	0,223036  	-4,620873  	16782,491089  	125768,638183  	18,241199  	-0,047941  
187,596000  	24,169243  	30,279943  	23,220930  	357,439972  	70,170519  	65,219570  	0,009798  	0,011764  	0,003967  	0,004356  	0,004485  	-0,000000  	-0,000000  	26,440084  	25,430743  	26,357104  	26,208343  	29,138000  	27,717038  	28,894019  	28,464411  	31,316359  	30,302679  	32,688075  	59,289045  	25,345223  	24,022900  	28,363846  	64,576418  	0,295296  	0,149628  	-3822,607080  	12585,020587  	-0,036536  	-0,050001  	0,410646  	0,208077  	-4,313598  	16718,330676  	125849,763084  	18,252965  	-0,047952  
188,570000  	24,174895  	30,284805  	23,219947  	956,927186  	70,167218  	65,226537  	0,009793  	0,011794  	0,003962  	0,004383  	0,004456  	-0,000000  	-0,000000  	26,443911  	25,417789  	26,356124  	26,204488  	29,136987  	27,717879  	28,889895  	28,457732  	31,312559  	30,298434  	32,683208  	59,283016  	25,343273  	24,009608  	28,377427  	64,575240  	0,316633  	0,160440  	-4098,281777  	22550,468151  	-0,022188  	-0,050002  	0,387048  	0,196120  	-4,057283  	16783,321631  	125733,135006  	18,236049  	-0,047953  
189,574000  	24,195693  	30,270618  	23,219425  	1256,670793  	70,166283  	65,227221  	0,009797  	0,011803  	0,003966  	0,004399  	0,004480  	-0,000000  	-0,000000  	26,448631  	25,432288  	26,358593  	26,208183  	29,132722  	27,716831  	28,884151  	28,453869  	31,318565  	30,296965  	32,693109  	59,288997  	25,348539  	24,004483  	28,379670  	64,570471  	0,330303  	0,167367  	-4250,734983  	25594,641410  	-0,018546  	-0,050004  	0,406081  	0,205764  	-4,255408  	16803,283639  	125831,884396  	18,250372  	-0,047955  
190,572000  	24,184941  	30,255354  	23,216354  	1256,670793  	70,168027  	65,231389  	0,009796  	0,011761  	0,003966  	0,004372  	0,004483  	-0,000001  	-0,000000  	26,436236  	25,430783  	26,354237  	26,214111  	29,128101  	27,723225  	28,886677  	28,455646  	31,312359  	30,303256  	32,687240  	59,294612  	25,346780  	24,005104  	28,363624  	64,570428  	0,308422  	0,156280  	-3966,202061  	25596,718368  	-0,018548  	-0,050008  	0,408576  	0,207029  	-4,279455  	16713,002192  	125800,377797  	18,245802  	-0,047958  
191,570000  	24,224939  	30,253231  	23,215432  	1256,670793  	70,164912  	65,232695  	0,009800  	0,011813  	0,003965  	0,004323  	0,004434  	-0,000001  	-0,000000  	26,443831  	25,428047  	26,363803  	26,208307  	29,131944  	27,725750  	28,887949  	28,463777  	31,316139  	30,306516  	32,687450  	59,289735  	25,349721  	23,995009  	28,363797  	64,571118  	0,268068  	0,135832  	-3423,330868  	25597,481084  	-0,018548  	-0,050010  	0,370168  	0,187567  	-3,873688  	16823,408359  	125901,054866  	18,260404  	-0,047960  
192,571000  	24,218119  	30,252800  	23,215187  	1256,670793  	70,165349  	65,228403  	0,009796  	0,011760  	0,003963  	0,004428  	0,004469  	0,000001  	-0,000000  	26,451606  	25,428893  	26,366713  	26,205319  	29,132420  	27,715919  	28,888204  	28,460501  	31,321016  	30,306257  	32,691241  	59,294098  	25,356121  	24,000752  	28,367531  	64,572676  	0,353470  	0,179106  	-4518,743445  	25588,597999  	-0,018542  	-0,049990  	0,397736  	0,201536  	-4,166172  	16709,117605  	125799,904704  	18,245734  	-0,047943  
193,572000  	24,189211  	30,258616  	23,214941  	1256,670793  	70,169118  	65,222152  	0,009792  	0,011790  	0,003966  	0,004418  	0,004514  	-0,000000  	-0,000000  	26,437736  	25,419769  	26,359630  	26,202189  	29,122930  	27,712999  	28,886445  	28,449736  	31,308024  	30,298072  	32,681904  	59,285375  	25,352336  	23,998043  	28,362597  	64,574995  	0,345664  	0,175151  	-4444,384864  	25594,301579  	-0,018546  	-0,050003  	0,433282  	0,219547  	-4,547711  	16775,115963  	125726,123340  	18,235033  	-0,047954  
194,571000  	24,221467  	30,268956  	23,212914  	1256,670793  	70,169367  	65,220037  	0,009790  	0,011790  	0,003964  	0,004345  	0,004487  	0,000001  	-0,000000  	26,435861  	25,419460  	26,361330  	26,200847  	29,121757  	27,717826  	28,890293  	28,448323  	31,300360  	30,291998  	32,674656  	59,280711  	25,352546  	23,993488  	28,364002  	64,570555  	0,286274  	0,145057  	-3667,476434  	25586,402141  	-0,018540  	-0,049985  	0,412296  	0,208914  	-4,329514  	16775,438558  	125675,234041  	18,227652  	-0,047939  
195,572000  	24,219900  	30,263879  	23,212453  	1256,670793  	70,172451  	65,220690  	0,009796  	0,011787  	0,003960  	0,004344  	0,004438  	-0,000000  	-0,000000  	26,440427  	25,429223  	26,360239  	26,200162  	29,124879  	27,725957  	28,889636  	28,448982  	31,306144  	30,296466  	32,680650  	59,284244  	25,357317  	23,999189  	28,365918  	64,564454  	0,285314  	0,144571  	-3653,053960  	25595,714883  	-0,018547  	-0,050006  	0,373415  	0,189212  	-3,923150  	16767,540630  	125802,008910  	18,246039  	-0,047956  
196,571000  	24,195816  	30,260247  	23,212331  	57,696365  	70,172513  	65,220690  	0,009801  	0,011756  	0,003967  	0,004405  	0,004511  	-0,000001  	-0,000000  	26,439269  	25,432601  	26,361973  	26,203997  	29,129035  	27,727451  	28,883737  	28,449940  	31,313703  	30,305465  	32,687950  	59,288923  	25,366993  	24,003557  	28,369276  	64,572029  	0,335081  	0,169788  	-4304,784652  	1873,089038  	-0,054003  	-0,050008  	0,430879  	0,218329  	-4,526926  	16700,587927  	125906,237708  	18,261156  	-0,047958  
197,575000  	24,215999  	30,269695  	23,212269  	1256,670793  	70,167591  	65,228776  	0,009796  	0,011812  	0,003962  	0,004361  	0,004489  	0,000001  	-0,000000  	26,437615  	25,428234  	26,363998  	26,204751  	29,130586  	27,716899  	28,881553  	28,451401  	31,311133  	30,307482  	32,684823  	59,288380  	25,370872  	23,997200  	28,374128  	64,576274  	0,299345  	0,151681  	-3838,871698  	25588,880120  	-0,018542  	-0,049991  	0,413424  	0,209485  	-4,332139  	16822,869992  	125810,623444  	18,247288  	-0,047943  
198,572000  	24,225461  	30,267664  	23,212761  	1256,670793  	70,166096  	65,232073  	0,009803  	0,011796  	0,003963  	0,004336  	0,004393  	0,000002  	-0,000000  	26,437513  	25,427892  	26,359613  	26,198485  	29,128014  	27,710337  	28,879926  	28,450408  	31,306677  	30,303150  	32,678657  	59,287939  	25,367651  	23,991445  	28,375386  	64,568949  	0,279081  	0,141412  	-3572,193979  	25582,437620  	-0,018537  	-0,049977  	0,337468  	0,170997  	-3,532788  	16787,146792  	125961,808513  	18,269216  	-0,047931  
199,570000  	24,257165  	30,267018  	23,211931  	357,439972  	70,167809  	65,225231  	0,009794  	0,011769  	0,003963  	0,004411  	0,004483  	-0,000001  	-0,000000  	26,441176  	25,426385  	26,362501  	26,197448  	29,131501  	27,714769  	28,877955  	28,450394  	31,308451  	30,298509  	32,681472  	59,293958  	25,373003  	23,997635  	28,372225  	64,570789  	0,339423  	0,171988  	-4321,295940  	12586,836724  	-0,036540  	-0,050007  	0,408612  	0,207047  	-4,284971  	16729,931378  	125756,888524  	18,239495  	-0,047957  
200,571000  	24,284813  	30,269972  	23,211379  	956,927186  	70,169990  	65,230891  	0,009795  	0,011781  	0,003966  	0,004378  	0,004546  	0,000000  	-0,000000  	26,439853  	25,417904  	26,358315  	26,194441  	29,131075  	27,721252  	28,877811  	28,451807  	31,305091  	30,295293  	32,687052  	59,287144  	25,370359  	24,001562  	28,364290  	64,573669  	0,312969  	0,158584  	-3968,132064  	22549,560082  	-0,022186  	-0,049999  	0,459040  	0,232599  	-4,810415  	16755,104434  	125784,906942  	18,243558  	-0,047951  
201,571000  	24,283400  	30,278281  	23,210918  	1256,670793  	70,171267  	65,230300  	0,009795  	0,011760  	0,003962  	0,004375  	0,004416  	0,000000  	-0,000000  	26,440679  	25,424680  	26,353205  	26,197154  	29,128009  	27,727240  	28,883425  	28,460364  	31,311029  	30,299722  	32,688210  	59,283016  	25,366119  	23,997992  	28,372268  	64,575976  	0,310125  	0,157142  	-3938,452877  	25592,033248  	-0,018544  	-0,049997  	0,356059  	0,180418  	-3,732655  	16711,014268  	125784,398543  	18,243485  	-0,047949  
202,572000  	24,276580  	30,292007  	23,211286  	1256,670793  	70,174320  	65,224515  	0,009801  	0,011824  	0,003966  	0,004445  	0,004437  	0,000001  	-0,000000  	26,445102  	25,424514  	26,358547  	26,209354  	29,132566  	27,723485  	28,891754  	28,460399  	31,312439  	30,300087  	32,688762  	59,280702  	25,370494  	23,991955  	28,374643  	64,582647  	0,367228  	0,186077  	-4679,628097  	25587,705049  	-0,018541  	-0,049988  	0,372649  	0,188824  	-3,913560  	16847,779879  	125913,108152  	18,262152  	-0,047941  
203,571000  	24,282571  	30,304655  	23,211563  	357,439972  	70,174507  	65,226879  	0,009798  	0,011802  	0,003963  	0,004368  	0,004503  	-0,000002  	-0,000000  	26,438046  	25,428933  	26,361284  	26,201078  	29,131794  	27,716668  	28,884733  	28,456398  	31,315356  	30,302107  	32,687740  	59,284316  	25,370571  	23,986242  	28,379723  	64,578778  	0,305188  	0,154641  	-3893,341454  	12590,606187  	-0,036551  	-0,050024  	0,424956  	0,215329  	-4,460927  	16800,740370  	125849,692473  	18,252955  	-0,047972  
204,571000  	24,264753  	30,309702  	23,210887  	-242,047242  	70,174008  	65,229616  	0,009799  	0,011801  	0,003963  	0,004297  	0,004451  	0,000000  	-0,000000  	26,441867  	25,419847  	26,361222  	26,200058  	29,126879  	27,716362  	28,882294  	28,451922  	31,311552  	30,291910  	32,680512  	59,282834  	25,376427  	23,974855  	28,370664  	64,570666  	0,247436  	0,125378  	-3168,579217  	-27036,816031  	-0,103418  	-0,049998  	0,383772  	0,194460  	-4,025968  	16797,878043  	125882,004036  	18,257641  	-0,047950  
205,573000  	24,235752  	30,315488  	23,209352  	1256,670793  	70,175846  	65,234686  	0,009799  	0,011832  	0,003965  	0,004426  	0,004472  	0,000000  	-0,000000  	26,448021  	25,430073  	26,363976  	26,192251  	29,126842  	27,715716  	28,885841  	28,451801  	31,305324  	30,300547  	32,689154  	59,282604  	25,376551  	23,976226  	28,374015  	64,580413  	0,351992  	0,178357  	-4533,429932  	25592,606993  	-0,018545  	-0,049999  	0,399729  	0,202546  	-4,190622  	16865,047931  	125864,506647  	18,255103  	-0,047950  
206,571000  	24,222481  	30,315919  	23,210334  	1256,670793  	70,175161  	65,232695  	0,009800  	0,011796  	0,003963  	0,004397  	0,004468  	-0,000001  	-0,000000  	26,444365  	25,427889  	26,364355  	26,209311  	29,131962  	27,722077  	28,891533  	28,453541  	31,308159  	30,303661  	32,688446  	59,292885  	25,382165  	23,979908  	28,375402  	64,581352  	0,328260  	0,166332  	-4237,319311  	25596,814487  	-0,018548  	-0,050008  	0,396956  	0,201140  	-4,162648  	16787,920031  	125884,567213  	18,258013  	-0,047958  
207,572000  	24,208012  	30,307887  	23,209229  	1256,670793  	70,174102  	65,234903  	0,009794  	0,011795  	0,003966  	0,004361  	0,004470  	-0,000000  	-0,000000  	26,445822  	25,430196  	26,353925  	26,204095  	29,134352  	27,726799  	28,893070  	28,456475  	31,318551  	30,298805  	32,687482  	59,292694  	25,376906  	23,978189  	28,375391  	64,585384  	0,299035  	0,151523  	-3864,140541  	25595,103646  	-0,018546  	-0,050004  	0,398573  	0,201960  	-4,176850  	16785,158161  	125764,119083  	18,240543  	-0,047955  
208,571000  	24,205984  	30,298408  	23,208123  	1256,670793  	70,174974  	65,235463  	0,009791  	0,011778  	0,003963  	0,004350  	0,004435  	-0,000000  	-0,000000  	26,444658  	25,434122  	26,358173  	26,206353  	29,141236  	27,722766  	28,883746  	28,461156  	31,310012  	30,294004  	32,686973  	59,280556  	25,375287  	23,980113  	28,377528  	64,580583  	0,290087  	0,146989  	-3743,938550  	25595,178901  	-0,018546  	-0,050004  	0,370402  	0,187686  	-3,881878  	16749,218482  	125707,672703  	18,232356  	-0,047955  
209,571000  	24,214340  	30,284498  	23,209505  	57,696365  	70,172824  	65,236490  	0,009801  	0,011800  	0,003963  	0,004411  	0,004515  	0,000000  	-0,000000  	26,435748  	25,425203  	26,351262  	26,197828  	29,131126  	27,721918  	28,886576  	28,448741  	31,308866  	30,289643  	32,674005  	59,284006  	25,368916  	23,978813  	28,373014  	64,563186  	0,339814  	0,172186  	-4369,697069  	1872,893521  	-0,053993  	-0,049997  	0,434253  	0,220039  	-4,548115  	16795,175598  	125910,862724  	18,261827  	-0,047949  
210,572000  	24,216060  	30,278958  	23,208523  	657,183579  	70,171516  	65,232322  	0,009802  	0,011814  	0,003964  	0,004363  	0,004455  	-0,000000  	-0,000000  	26,453077  	25,423293  	26,361982  	26,204568  	29,124173  	27,720453  	28,885333  	28,458115  	31,314693  	30,308255  	32,676065  	59,297880  	25,370768  	23,982663  	28,370006  	64,572086  	0,301133  	0,152586  	-3867,661338  	18530,470556  	-0,027610  	-0,050003  	0,386919  	0,196055  	-4,054710  	16826,780047  	125945,970480  	18,266919  	-0,047954  
211,572000  	24,211729  	30,276650  	23,207970  	657,183579  	70,168339  	65,232664  	0,009801  	0,011773  	0,003961  	0,004341  	0,004485  	-0,000000  	-0,000000  	26,443650  	25,413902  	26,355502  	26,210427  	29,121413  	27,713006  	28,884670  	28,459207  	31,302346  	30,299173  	32,673622  	59,275737  	25,354299  	23,973477  	28,365438  	64,561118  	0,282870  	0,143332  	-3634,317289  	18531,205145  	-0,027611  	-0,050005  	0,410254  	0,207879  	-4,296192  	16737,120446  	125915,840795  	18,262549  	-0,047956  
212,571000  	24,214494  	30,275973  	23,207110  	1256,670793  	70,166221  	65,233037  	0,009796  	0,011826  	0,003963  	0,004401  	0,004453  	-0,000000  	-0,000000  	26,453254  	25,438604  	26,376846  	26,217454  	29,130350  	27,726281  	28,893462  	28,469235  	31,324710  	30,306852  	32,697032  	59,293176  	25,370161  	23,990597  	28,379269  	64,578720  	0,331806  	0,168129  	-4260,627460  	25595,697221  	-0,018547  	-0,050005  	0,384732  	0,194946  	-4,026884  	16851,352482  	125816,314685  	18,248114  	-0,047956  
213,570000  	24,194956  	30,275388  	23,207478  	956,927186  	70,163573  	65,239631  	0,009805  	0,011780  	0,003965  	0,004421  	0,004501  	-0,000001  	-0,000000  	26,448014  	25,424948  	26,361813  	26,204961  	29,125006  	27,729246  	28,884731  	28,455500  	31,311122  	30,297382  	32,687681  	59,277460  	25,361990  	23,993746  	28,372252  	64,567821  	0,347433  	0,176047  	-4475,236274  	22555,826851  	-0,022193  	-0,050014  	0,423057  	0,214366  	-4,419739  	16752,322048  	125994,621413  	18,273975  	-0,047964  
214,571000  	24,165341  	30,276004  	23,206004  	357,439972  	70,160458  	65,233410  	0,009792  	0,011801  	0,003964  	0,004325  	0,004424  	-0,000000  	-0,000000  	26,447219  	25,425111  	26,362492  	26,210580  	29,128771  	27,728268  	28,891770  	28,457649  	31,322107  	30,300188  	32,688632  	59,275266  	25,368518  	23,997808  	28,373905  	64,562979  	0,270212  	0,136919  	-3497,884072  	12585,859360  	-0,036537  	-0,050001  	0,362249  	0,183554  	-3,786849  	16797,923319  	125720,043739  	18,234151  	-0,047952  
215,572000  	24,167553  	30,269726  	23,205083  	1256,670793  	70,155132  	65,230238  	0,009791  	0,011778  	0,003963  	0,004399  	0,004421  	-0,000000  	-0,000000  	26,445292  	25,426023  	26,361382  	26,209258  	29,130339  	27,725055  	28,893184  	28,464809  	31,317774  	30,304674  	32,693086  	59,281529  	25,369213  	24,014719  	28,381523  	64,568163  	0,330101  	0,167265  	-4267,204190  	25594,349891  	-0,018546  	-0,050002  	0,360028  	0,182429  	-3,761986  	16749,412322  	125699,347674  	18,231149  	-0,047953  
216,573000  	24,192989  	30,257785  	23,205083  	1256,670793  	70,153761  	65,220908  	0,009796  	0,011789  	0,003966  	0,004375  	0,004496  	-0,000001  	-0,000000  	26,455915  	25,438150  	26,374107  	26,214465  	29,135034  	27,726941  	28,894737  	28,465149  	31,323836  	30,308153  	32,700147  	59,294703  	25,381192  	24,043999  	28,383481  	64,581903  	0,310416  	0,157290  	-3988,143781  	25597,153685  	-0,018548  	-0,050008  	0,419063  	0,212343  	-4,385926  	16771,576610  	125801,380473  	18,245948  	-0,047958  
217,573000  	24,216828  	30,243660  	23,201674  	57,696365  	70,155910  	65,214812  	0,009804  	0,011813  	0,003964  	0,004334  	0,004487  	0,000001  	-0,000000  	26,452144  	25,432347  	26,371395  	26,209292  	29,132357  	27,720046  	28,896840  	28,464309  	31,320366  	30,310573  	32,692294  	59,292805  	25,386151  	24,049786  	28,374308  	64,577821  	0,277032  	0,140374  	-3536,959080  	1873,004151  	-0,053984  	-0,049987  	0,411822  	0,208673  	-4,317343  	16823,368742  	125972,774391  	18,270806  	-0,047940  
218,570000  	24,225737  	30,246245  	23,199954  	657,183579  	70,157156  	65,215247  	0,009796  	0,011802  	0,003959  	0,004353  	0,004450  	-0,000001  	-0,000000  	26,449495  	25,424308  	26,370033  	26,207340  	29,133793  	27,722185  	28,894270  	28,467291  	31,317763  	30,305544  	32,688025  	59,284739  	25,387459  	24,060700  	28,371714  	64,574217  	0,292940  	0,148435  	-3736,135053  	18532,909237  	-0,027613  	-0,050009  	0,382860  	0,193998  	-4,014369  	16800,302461  	125800,462530  	18,245814  	-0,047959  
219,571000  	24,244538  	30,254092  	23,198572  	657,183579  	70,159524  	65,219570  	0,009792  	0,011793  	0,003964  	0,004401  	0,004465  	0,000000  	-0,000000  	26,452148  	25,432166  	26,374754  	26,213306  	29,140404  	27,732869  	28,899951  	28,469658  	31,322985  	30,312314  	32,693033  	59,285554  	25,396929  	24,082398  	28,379060  	64,573740  	0,331247  	0,167845  	-4217,001739  	18529,446890  	-0,027608  	-0,049998  	0,394294  	0,199792  	-4,132630  	16780,426054  	125719,528279  	18,234076  	-0,047950  
220,572000  	24,239439  	30,262648  	23,199371  	1256,670793  	70,161455  	65,224982  	0,009796  	0,011777  	0,003963  	0,004339  	0,004465  	-0,000001  	-0,000000  	26,448903  	25,431666  	26,370041  	26,213053  	29,138332  	27,733732  	28,897688  	28,463372  	31,317891  	30,314081  	32,691436  	59,284115  	25,399546  	24,090059  	28,374956  	64,576623  	0,281377  	0,142576  	-3590,257511  	25598,266898  	-0,018549  	-0,050010  	0,394887  	0,200092  	-4,135932  	16746,416995  	125815,827470  	18,248043  	-0,047960  
221,583000  	24,226352  	30,273049  	23,196453  	-242,047242  	70,161455  	65,223085  	0,009788  	0,011799  	0,003963  	0,004350  	0,004397  	0,000000  	-0,000000  	26,445124  	25,428096  	26,361316  	26,209358  	29,130089  	27,725099  	28,893228  	28,462279  	31,314177  	30,303423  	32,686041  	59,286189  	25,400127  	24,094796  	28,371847  	64,579053  	0,289886  	0,146887  	-3713,258085  	-27034,428569  	-0,103415  	-0,049994  	0,340697  	0,172633  	-3,569727  	16793,825084  	125642,788317  	18,222946  	-0,047946  
222,571000  	24,214002  	30,281543  	23,191908  	-242,047242  	70,161393  	65,222463  	0,009799  	0,011782  	0,003965  	0,004430  	0,004445  	-0,000001  	-0,000000  	26,448429  	25,429412  	26,356241  	26,200743  	29,129108  	27,718351  	28,891562  	28,457545  	31,312428  	30,298147  	32,681356  	59,285043  	25,404373  	24,098715  	28,365266  	64,566400  	0,355086  	0,179925  	-4564,112669  	-27040,298815  	-0,103439  	-0,050006  	0,378640  	0,191860  	-3,967740  	16757,110751  	125871,278235  	18,256085  	-0,047957  
223,572000  	24,223587  	30,283020  	23,197620  	-242,047242  	70,160053  	65,217331  	0,009796  	0,011793  	0,003962  	0,004376  	0,004465  	0,000001  	-0,000000  	26,447857  	25,428701  	26,354977  	26,197913  	29,133122  	27,717015  	28,888123  	28,456615  	31,308565  	30,301239  	32,680571  	59,285190  	25,409513  	24,105542  	28,361452  	64,559635  	0,311110  	0,157642  	-3993,521604  	-27032,649309  	-0,103407  	-0,049990  	0,394319  	0,199804  	-4,135204  	16780,793218  	125818,263547  	18,248396  	-0,047943  
224,573000  	24,242572  	30,278712  	23,201183  	-242,047242  	70,158309  	65,219197  	0,009801  	0,011806  	0,003962  	0,004350  	0,004428  	-0,000000  	-0,000000  	26,440677  	25,428339  	26,355186  	26,206084  	29,132650  	27,719249  	28,887817  	28,462451  	31,309011  	30,300805  	32,682456  	59,290092  	25,415377  	24,112410  	28,372395  	64,565227  	0,290432  	0,147164  	-3713,762426  	-27039,154838  	-0,103431  	-0,050003  	0,365167  	0,185033  	-3,826694  	16808,238591  	125921,510853  	18,263371  	-0,047954  
225,572000  	24,219286  	30,272619  	23,204070  	1256,670793  	70,158340  	65,215403  	0,009802  	0,011786  	0,003966  	0,004393  	0,004429  	0,000000  	-0,000000  	26,441649  	25,431304  	26,355945  	26,207313  	29,129934  	27,721407  	28,887904  	28,457470  	31,308171  	30,299991  	32,684919  	59,285744  	25,421039  	24,114478  	28,377296  	64,559704  	0,324789  	0,164573  	-4164,919973  	25591,415942  	-0,018544  	-0,049996  	0,365667  	0,185286  	-3,834895  	16765,246382  	125935,957850  	18,265466  	-0,047948  
226,572000  	24,182360  	30,277912  	23,204192  	1256,670793  	70,159648  	65,215527  	0,009796  	0,011764  	0,003962  	0,004423  	0,004462  	-0,000000  	-0,000000  	26,448015  	25,434134  	26,358921  	26,206087  	29,131505  	27,720551  	28,888225  	28,460367  	31,309299  	30,301487  	32,688147  	59,287904  	25,425691  	24,129182  	28,376785  	64,561931  	0,349678  	0,177185  	-4515,366662  	25595,683247  	-0,018547  	-0,050005  	0,392090  	0,198675  	-4,112992  	16717,707416  	125818,440074  	18,248422  	-0,047956  
227,571000  	24,156463  	30,280774  	23,205298  	1256,670793  	70,161766  	65,216211  	0,009799  	0,011823  	0,003964  	0,004327  	0,004486  	-0,000001  	-0,000000  	26,443756  	25,429585  	26,356748  	26,201149  	29,135661  	27,717438  	28,887874  	28,456037  	31,309998  	30,293456  	32,677054  	59,285972  	25,419797  	24,131157  	28,371284  	64,569298  	0,271592  	0,137618  	-3523,598029  	25600,703924  	-0,018550  	-0,050016  	0,411201  	0,208358  	-4,314713  	16846,438561  	125880,775406  	18,257463  	-0,047965  
228,572000  	24,141718  	30,274557  	23,203824  	1256,670793  	70,163573  	65,217455  	0,009799  	0,011788  	0,003964  	0,004369  	0,004456  	-0,000000  	-0,000000  	26,434113  	25,432052  	26,357566  	26,194945  	29,134602  	27,714488  	28,883493  	28,452218  	31,308555  	30,301156  	32,677988  	59,279182  	25,415315  	24,145948  	28,374485  	64,567577  	0,305911  	0,155007  	-3974,371008  	25593,523018  	-0,018545  	-0,050000  	0,387384  	0,196290  	-4,065269  	16771,367206  	125878,240473  	18,257095  	-0,047952  
229,571000  	24,167522  	30,253692  	23,205943  	1256,670793  	70,165504  	65,221996  	0,009797  	0,011789  	0,003965  	0,004410  	0,004491  	-0,000000  	-0,000000  	26,442030  	25,433566  	26,358469  	26,201580  	29,133306  	27,721245  	28,883467  	28,456118  	31,312004  	30,304305  	32,683310  	59,285630  	25,410749  	24,162069  	28,375551  	64,573816  	0,338814  	0,171680  	-4368,352913  	25593,877788  	-0,018546  	-0,050001  	0,414791  	0,210177  	-4,350585  	16773,289337  	125834,186312  	18,250706  	-0,047952  
230,572000  	24,204264  	30,237074  	23,206557  	657,183579  	70,170488  	65,217891  	0,009801  	0,011749  	0,003964  	0,004364  	0,004504  	0,000000  	-0,000000  	26,442699  	25,427707  	26,363509  	26,202050  	29,129215  	27,720367  	28,882517  	28,454931  	31,311847  	30,304773  	32,680891  	59,279846  	25,408462  	24,175439  	28,373528  	64,573923  	0,301302  	0,152672  	-3850,636713  	18528,841915  	-0,027607  	-0,049998  	0,425432  	0,215570  	-4,470401  	16686,806169  	125910,742686  	18,261809  	-0,047949  
231,571000  	24,245829  	30,230427  	23,206004  	657,183579  	70,169616  	65,215278  	0,009797  	0,011792  	0,003963  	0,004408  	0,004408  	-0,000001  	-0,000000  	26,449202  	25,425639  	26,371245  	26,205723  	29,132878  	27,725261  	28,889281  	28,456692  	31,318501  	30,313829  	32,686415  	59,288118  	25,405944  	24,185660  	28,379543  	64,586804  	0,337138  	0,170830  	-4274,176338  	18533,875230  	-0,027614  	-0,050013  	0,349603  	0,177146  	-3,674884  	16778,524439  	125833,176576  	18,250559  	-0,047962  
232,570000  	24,271818  	30,236705  	23,206250  	57,696365  	70,166252  	65,222307  	0,009790  	0,011761  	0,003965  	0,004429  	0,004517  	-0,000001  	-0,000000  	26,441626  	25,428624  	26,361054  	26,200139  	29,133118  	27,721816  	28,882292  	28,457705  	31,303516  	30,298848  	32,684004  	59,286437  	25,402853  	24,185465  	28,378815  	64,573169  	0,354187  	0,179469  	-4475,524710  	1873,465159  	-0,054005  	-0,050009  	0,436040  	0,220945  	-4,573870  	16712,719921  	125681,687880  	18,228588  	-0,047959  
233,572000  	24,236152  	30,254554  	23,205452  	-242,047242  	70,165847  	65,227283  	0,009802  	0,011814  	0,003963  	0,004375  	0,004459  	-0,000000  	-0,000000  	26,441715  	25,424360  	26,354566  	26,197539  	29,131775  	27,709224  	28,882611  	28,446981  	31,312916  	30,301748  	32,678375  	59,285884  	25,400893  	24,189291  	28,369291  	64,584512  	0,310609  	0,157388  	-3960,084921  	-27038,507794  	-0,103427  	-0,050002  	0,389587  	0,197407  	-4,082148  	16826,598234  	125930,923291  	18,264736  	-0,047953  
234,571000  	24,203527  	30,276589  	23,202258  	-242,047242  	70,164040  	65,231451  	0,009801  	0,011801  	0,003968  	0,004405  	0,004433  	0,000001  	-0,000000  	26,444392  	25,429475  	26,364029  	26,203685  	29,127317  	27,722499  	28,900945  	28,450907  	31,313090  	30,307871  	32,687516  	59,280190  	25,402349  	24,202272  	28,376923  	64,572374  	0,334757  	0,169624  	-4306,728724  	-27033,837461  	-0,103410  	-0,049992  	0,369531  	0,187244  	-3,867314  	16797,481165  	125920,056268  	18,263160  	-0,047945  
235,571000  	24,155235  	30,286467  	23,206588  	657,183579  	70,168588  	65,226195  	0,009796  	0,011763  	0,003963  	0,004407  	0,004480  	0,000001  	-0,000000  	26,444913  	25,429535  	26,358695  	26,208487  	29,132795  	27,717959  	28,886528  	28,453860  	31,313512  	30,304622  	32,680815  	59,279681  	25,397908  	24,205212  	28,366746  	64,580383  	0,336234  	0,170372  	-4367,189763  	18526,413078  	-0,027603  	-0,049990  	0,406077  	0,205762  	-4,258237  	16715,966391  	125809,860846  	18,247178  	-0,047943  
236,574000  	24,158245  	30,282343  	23,207878  	1256,670793  	70,169273  	65,218357  	0,009800  	0,011779  	0,003965  	0,004354  	0,004498  	-0,000000  	-0,000000  	26,446880  	25,416232  	26,359672  	26,197300  	29,122742  	27,722573  	28,886946  	28,453511  	31,311624  	30,286207  	32,673155  	59,266352  	25,401705  	24,213224  	28,367885  	64,570306  	0,293553  	0,148746  	-3808,387191  	25593,357671  	-0,018545  	-0,050000  	0,420626  	0,213134  	-4,418402  	16751,096044  	125892,553309  	18,259171  	-0,047952  
237,570000  	24,179411  	30,260986  	23,211133  	57,696365  	70,166688  	65,222121  	0,009792  	0,011798  	0,003962  	0,004321  	0,004432  	-0,000001  	-0,000000  	26,450096  	25,433026  	26,369986  	26,205837  	29,132358  	27,729706  	28,893684  	28,457827  	31,317973  	30,300531  	32,691043  	59,285920  	25,419771  	24,231273  	28,383252  	64,585435  	0,266760  	0,135169  	-3436,751201  	1873,195630  	-0,054005  	-0,050009  	0,368370  	0,186656  	-3,864525  	16792,957047  	125715,538761  	18,233497  	-0,047959  
238,572000  	24,180701  	30,241906  	23,211686  	1256,670793  	70,168183  	65,224049  	0,009797  	0,011780  	0,003965  	0,004364  	0,004447  	0,000000  	-0,000000  	26,443338  	25,422831  	26,360263  	26,200260  	29,128708  	27,717214  	28,888063  	28,455701  	31,309378  	30,299547  	32,679729  	59,279964  	25,408343  	24,230579  	28,381751  	64,584618  	0,301175  	0,152607  	-3867,128080  	25590,404026  	-0,018543  	-0,049994  	0,380593  	0,192849  	-3,992401  	16753,484382  	125834,052151  	18,250686  	-0,047946  
239,572000  	24,205677  	30,239136  	23,209659  	1256,670793  	70,171267  	65,220254  	0,009794  	0,011763  	0,003965  	0,004345  	0,004486  	-0,000000  	-0,000000  	26,455078  	25,435108  	26,360883  	26,202428  	29,136715  	27,722894  	28,898536  	28,453754  	31,311343  	30,303608  	32,679135  	59,280809  	25,419171  	24,237846  	28,381568  	64,577744  	0,286079  	0,144958  	-3656,482208  	25593,794626  	-0,018546  	-0,050001  	0,411245  	0,208381  	-4,319946  	16716,987236  	125771,695636  	18,241642  	-0,047952  
240,572000  	24,246228  	30,239259  	23,207632  	1256,670793  	70,171641  	65,220254  	0,009794  	0,011783  	0,003965  	0,004373  	0,004420  	-0,000000  	-0,000000  	26,443822  	25,428858  	26,357164  	26,191520  	29,132234  	27,718939  	28,888886  	28,456885  	31,313732  	30,304933  	32,676435  	59,277767  	25,418814  	24,231542  	28,388054  	64,567178  	0,308774  	0,156458  	-3920,101398  	25595,389770  	-0,018547  	-0,050005  	0,358832  	0,181823  	-3,769652  	16758,927473  	125759,734144  	18,239907  	-0,047955  
241,571000  	24,260360  	30,245291  	23,206004  	57,696365  	70,169180  	65,220597  	0,009787  	0,011794  	0,003964  	0,004397  	0,004475  	-0,000000  	-0,000000  	26,451699  	25,428655  	26,355869  	26,186631  	29,128342  	27,711043  	28,888297  	28,455730  	31,311296  	30,300081  	32,677463  	59,277788  	25,424627  	24,223660  	28,378152  	64,575086  	0,328292  	0,166348  	-4162,259669  	1873,290865  	-0,053999  	-0,050003  	0,402759  	0,204081  	-4,228726  	16783,026626  	125604,630169  	18,217411  	-0,047954  
242,571000  	24,255690  	30,260247  	23,207601  	1256,670793  	70,170987  	65,222338  	0,009789  	0,011770  	0,003966  	0,004368  	0,004454  	-0,000001  	-0,000000  	26,446634  	25,423142  	26,364200  	26,188438  	29,127056  	27,714431  	28,889862  	28,456044  	31,308362  	30,300449  	32,674956  	59,284759  	25,434718  	24,217365  	28,378393  	64,566931  	0,304597  	0,154341  	-3874,496806  	25596,444061  	-0,018547  	-0,050007  	0,385596  	0,195384  	-4,048573  	16732,251094  	125659,247725  	18,225333  	-0,047957  
243,572000  	24,272187  	30,278343  	23,208707  	1256,670793  	70,170114  	65,229896  	0,009794  	0,011773  	0,003963  	0,004321  	0,004462  	-0,000000  	-0,000000  	26,438717  	25,422458  	26,360457  	26,197725  	29,122660  	27,710123  	28,886570  	28,454101  	31,305581  	30,301548  	32,671355  	59,285000  	25,434634  	24,197680  	28,372165  	64,572488  	0,266334  	0,134953  	-3388,690481  	25593,405718  	-0,018545  	-0,050000  	0,392174  	0,198717  	-4,110635  	16738,598301  	125753,915803  	18,239063  	-0,047952  
244,574000  	24,280973  	30,288129  	23,209321  	1256,670793  	70,166377  	65,229398  	0,009794  	0,011797  	0,003966  	0,004392  	0,004498  	-0,000001  	-0,000000  	26,431924  	25,419642  	26,346897  	26,194927  	29,119282  	27,703338  	28,879792  	28,452780  	31,305291  	30,293400  	32,670144  	59,279502  	25,434226  	24,175260  	28,372127  	64,569223  	0,324444  	0,164398  	-4128,735000  	25596,590631  	-0,018548  	-0,050007  	0,420926  	0,213286  	-4,409109  	16788,998179  	125766,569283  	18,240899  	-0,047958  
245,570000  	24,260544  	30,296100  	23,208553  	956,927186  	70,162327  	65,224298  	0,009796  	0,011771  	0,003965  	0,004385  	0,004473  	0,000000  	-0,000000  	26,432933  	25,418604  	26,350823  	26,190616  	29,121544  	27,708569  	28,882067  	28,452120  	31,301688  	30,293154  	32,669377  	59,281175  	25,445600  	24,163629  	28,376599  	64,570355  	0,318707  	0,161491  	-4074,906942  	22547,799784  	-0,022185  	-0,049995  	0,401191  	0,203287  	-4,203286  	16732,960662  	125808,526299  	18,246984  	-0,047947  
246,573000  	24,241989  	30,306502  	23,207693  	-242,047242  	70,167000  	65,225542  	0,009797  	0,011760  	0,003964  	0,004369  	0,004467  	-0,000001  	-0,000000  	26,439258  	25,420214  	26,358388  	26,197555  	29,125707  	27,716084  	28,883469  	28,453122  	31,305916  	30,299644  	32,675489  	59,281474  	25,453986  	24,159745  	28,374808  	64,572643  	0,305614  	0,154857  	-3926,263079  	-27042,261267  	-0,103440  	-0,050010  	0,396018  	0,200665  	-4,151961  	16709,129632  	125836,106930  	18,250984  	-0,047960  
247,571000  	24,246505  	30,309271  	23,209352  	657,183579  	70,171236  	65,226630  	0,009794  	0,011785  	0,003964  	0,004423  	0,004482  	-0,000000  	-0,000000  	26,442047  	25,424029  	26,356901  	26,200095  	29,127422  	27,720967  	28,880763  	28,453513  	31,311479  	30,303780  	32,681328  	59,284038  	25,458362  	24,157053  	28,375171  	64,572845  	0,349615  	0,177152  	-4490,244994  	18531,322626  	-0,027611  	-0,050005  	0,407992  	0,206733  	-4,280230  	16764,345803  	125762,473848  	18,240305  	-0,047956  
248,571000  	24,261189  	30,304040  	23,210457  	1256,670793  	70,177279  	65,226319  	0,009796  	0,011789  	0,003964  	0,004450  	0,004473  	-0,000001  	-0,000001  	26,440458  	25,425538  	26,358268  	26,196486  	29,124595  	27,720816  	28,885025  	28,455651  	31,307337  	30,298312  	32,678152  	59,284265  	25,461251  	24,153741  	28,379156  	64,572749  	0,371617  	0,188301  	-4757,144390  	25598,418546  	-0,018549  	-0,050011  	0,401033  	0,203206  	-4,212629  	16772,726917  	125812,494633  	18,247560  	-0,047961  
249,573000  	24,227550  	30,296131  	23,212300  	57,696365  	70,183914  	65,227128  	0,009802  	0,011785  	0,003963  	0,004368  	0,004474  	0,000001  	-0,000000  	26,433996  	25,424243  	26,361611  	26,194972  	29,120292  	27,711490  	28,885950  	28,456126  	31,306235  	30,293573  	32,672102  	59,280174  	25,459909  	24,157521  	28,380282  	64,567617  	0,304683  	0,154385  	-3916,931947  	1872,615170  	-0,053990  	-0,049994  	0,401442  	0,203414  	-4,221892  	16764,791494  	125932,695625  	18,264993  	-0,047946  
250,571000  	24,219685  	30,300070  	23,211993  	1256,670793  	70,180736  	65,231420  	0,009788  	0,011771  	0,003963  	0,004386  	0,004431  	-0,000001  	-0,000000  	26,431243  	25,427426  	26,363460  	26,195789  	29,121419  	27,710378  	28,883828  	28,453925  	31,310643  	30,298169  	32,672656  	59,279495  	25,457662  	24,173351  	28,376810  	64,562404  	0,319091  	0,161686  	-4110,131206  	25596,650062  	-0,018548  	-0,050008  	0,367767  	0,186350  	-3,861911  	16734,272267  	125637,584291  	18,222191  	-0,047958  
251,574000  	24,238671  	30,299516  	23,211624  	1256,670793  	70,174102  	65,238107  	0,009793  	0,011778  	0,003964  	0,004405  	0,004505  	-0,000001  	-0,000000  	26,436863  	25,424779  	26,366048  	26,198239  	29,126509  	27,718642  	28,887835  	28,453556  	31,307468  	30,297030  	32,677081  	59,279820  	25,457664  	24,183823  	28,372231  	64,559070  	0,334598  	0,169543  	-4296,023073  	25598,210100  	-0,018549  	-0,050011  	0,426083  	0,215900  	-4,462245  	16748,522355  	125751,995186  	18,238785  	-0,047961  
252,571000  	24,239162  	30,289175  	23,212177  	1256,670793  	70,171174  	65,233877  	0,009793  	0,011776  	0,003963  	0,004358  	0,004434  	-0,000001  	-0,000000  	26,440921  	25,418659  	26,365559  	26,200184  	29,130801  	27,717321  	28,887177  	28,456526  	31,306175  	30,296763  	32,680062  	59,286910  	25,461993  	24,189635  	28,377211  	64,559191  	0,296817  	0,150399  	-3804,125274  	25596,692807  	-0,018548  	-0,050008  	0,369834  	0,187398  	-3,874184  	16745,113880  	125749,340215  	18,238400  	-0,047958  
253,574000  	24,237043  	30,284498  	23,212914  	1256,670793  	70,169367  	65,232011  	0,009801  	0,011803  	0,003967  	0,004335  	0,004453  	0,000001  	-0,000000  	26,448404  	25,428298  	26,366612  	26,204112  	29,133827  	27,722328  	28,890580  	28,466323  	31,312423  	30,306148  	32,682860  	59,291476  	25,464183  	24,206904  	28,385842  	64,569898  	0,278037  	0,140884  	-3561,934108  	25588,429999  	-0,018542  	-0,049990  	0,385108  	0,195137  	-4,034230  	16802,583267  	125922,654750  	18,263537  	-0,047943  
254,571000  	24,253079  	30,288252  	23,213651  	657,183579  	70,169118  	65,231202  	0,009793  	0,011763  	0,003963  	0,004393  	0,004497  	0,000000  	-0,000000  	26,445919  	25,418783  	26,362230  	26,200835  	29,129622  	27,721117  	28,885729  	28,457149  	31,308612  	30,300240  	32,674911  	59,281150  	25,461049  	24,196011  	28,382827  	64,570778  	0,324679  	0,164517  	-4151,001116  	18528,838029  	-0,027607  	-0,049998  	0,419773  	0,212702  	-4,397862  	16716,487779  	125744,757565  	18,237735  	-0,047950  
255,573000  	24,257503  	30,291853  	23,213651  	657,183579  	70,171423  	65,232664  	0,009796  	0,011770  	0,003965  	0,004318  	0,004453  	-0,000000  	-0,000000  	26,443218  	25,426225  	26,365737  	26,202075  	29,133983  	27,720775  	28,892834  	28,457807  	31,315844  	30,299565  	32,681791  	59,283243  	25,468520  	24,190316  	28,379775  	64,565293  	0,263969  	0,133755  	-3374,364468  	18529,904550  	-0,027609  	-0,050002  	0,385227  	0,195198  	-4,036631  	16731,887467  	125802,136010  	18,246057  	-0,047953  
256,572000  	24,242941  	30,294069  	23,214388  	1256,670793  	70,170862  	65,232353  	0,009795  	0,011802  	0,003965  	0,004339  	0,004454  	-0,000000  	-0,000000  	26,445468  	25,433679  	26,363333  	26,204242  	29,140115  	27,722323  	28,892285  	28,459308  	31,315029  	30,302238  	32,677659  	59,281634  	25,475721  	24,183713  	28,386404  	64,559600  	0,281170  	0,142471  	-3604,245371  	25593,796632  	-0,018546  	-0,050002  	0,385469  	0,195320  	-4,038955  	16799,632509  	125793,175482  	18,244758  	-0,047953  
257,573000  	24,247948  	30,299700  	23,213252  	57,696365  	70,169305  	65,229989  	0,009789  	0,011778  	0,003965  	0,004375  	0,004464  	0,000000  	-0,000000  	26,442534  	25,429469  	26,353956  	26,196855  	29,124531  	27,717598  	28,885579  	28,452156  	31,312712  	30,293061  	32,673731  	59,271640  	25,468778  	24,182772  	28,381495  	64,562828  	0,310508  	0,157337  	-3980,735308  	1872,606158  	-0,053991  	-0,049995  	0,394072  	0,199679  	-4,129771  	16749,263051  	125652,765642  	18,224393  	-0,047947  
258,571000  	24,244692  	30,299208  	23,210427  	657,183579  	70,167124  	65,231047  	0,009798  	0,011790  	0,003961  	0,004368  	0,004457  	0,000000  	-0,000000  	26,444774  	25,434349  	26,364571  	26,209001  	29,135835  	27,720167  	28,889542  	28,456000  	31,300624  	30,301030  	32,686384  	59,271275  	25,484469  	24,176580  	28,377166  	64,565942  	0,304646  	0,154366  	-3907,366176  	18529,123390  	-0,027608  	-0,049999  	0,388148  	0,196678  	-4,065026  	16775,029655  	125845,025090  	18,252278  	-0,047950  
259,575000  	24,246074  	30,299023  	23,208492  	-242,047242  	70,168152  	65,229678  	0,009803  	0,011811  	0,003964  	0,004348  	0,004437  	-0,000002  	-0,000000  	26,443459  	25,423340  	26,367695  	26,208974  	29,135468  	27,726676  	28,885096  	28,456139  	31,312896  	30,309192  	32,678444  	59,284317  	25,485014  	24,170100  	28,384443  	64,554174  	0,288907  	0,146391  	-3704,542419  	-27046,810125  	-0,103457  	-0,050019  	0,371990  	0,188490  	-3,897690  	16818,920321  	125960,297439  	18,268997  	-0,047968  
260,571000  	24,253570  	30,298531  	23,207693  	956,927186  	70,171018  	65,230363  	0,009795  	0,011774  	0,003962  	0,004387  	0,004496  	-0,000001  	-0,000000  	26,450175  	25,421429  	26,363435  	26,210464  	29,128793  	27,717922  	28,897752  	28,456522  	31,320982  	30,309574  	32,684009  	59,278996  	25,497036  	24,171500  	28,375242  	64,572528  	0,320541  	0,162420  	-4104,743619  	22553,327075  	-0,022190  	-0,050008  	0,418746  	0,212182  	-4,389543  	16739,751438  	125780,825630  	18,242966  	-0,047958  
261,572000  	24,245091  	30,294315  	23,207816  	1256,670793  	70,168090  	65,230394  	0,009795  	0,011775  	0,003962  	0,004331  	0,004460  	0,000001  	-0,000000  	26,449920  	25,418408  	26,362465  	26,204195  	29,129434  	27,718358  	28,893591  	28,450496  	31,314973  	30,301264  	32,676934  	59,279918  	25,493141  	24,171524  	28,377795  	64,560899  	0,274516  	0,139100  	-3517,852943  	25588,372451  	-0,018542  	-0,049989  	0,390553  	0,197896  	-4,091558  	16742,939190  	125780,797386  	18,242962  	-0,047942  
262,571000  	24,224816  	30,294623  	23,209597  	1256,670793  	70,166657  	65,229709  	0,009799  	0,011790  	0,003965  	0,004326  	0,004470  	-0,000000  	-0,000000  	26,458917  	25,434053  	26,365527  	26,211017  	29,143075  	27,733307  	28,901464  	28,461497  	31,321762  	30,312686  	32,687035  	59,285942  	25,516589  	24,173064  	28,386392  	64,576377  	0,270483  	0,137056  	-3477,962756  	25594,272662  	-0,018546  	-0,050002  	0,398710  	0,202029  	-4,176375  	16774,945468  	125869,287007  	18,255797  	-0,047953  
263,571000  	24,218457  	30,297023  	23,207847  	357,439972  	70,167404  	65,228092  	0,009792  	0,011791  	0,003964  	0,004417  	0,004510  	0,000000  	-0,000000  	26,457250  	25,433298  	26,365610  	26,212316  	29,132607  	27,726177  	28,889396  	28,469737  	31,318203  	30,310162  	32,693854  	59,286682  	25,516372  	24,150271  	28,394866  	64,571943  	0,344605  	0,174614  	-4437,445523  	12584,933803  	-0,036534  	-0,049998  	0,429896  	0,217831  	-4,505195  	16777,312583  	125730,077552  	18,235606  	-0,047949  
264,572000  	24,233387  	30,296223  	23,204653  	-242,047242  	70,169149  	65,225542  	0,009804  	0,011788  	0,003967  	0,004378  	0,004444  	-0,000000  	-0,000000  	26,458940  	25,434639  	26,365936  	26,205436  	29,141682  	27,723116  	28,890181  	28,459818  	31,317795  	30,296496  	32,689584  	59,277449  	25,511613  	24,157028  	28,370695  	64,571512  	0,312540  	0,158366  	-4014,129943  	-27039,298873  	-0,103430  	-0,050004  	0,377996  	0,191533  	-3,964736  	16770,969621  	125978,274982  	18,271604  	-0,047955  
265,576000  	24,215108  	30,288468  	23,203025  	57,696365  	70,164975  	65,224329  	0,009801  	0,011786  	0,003961  	0,004376  	0,004466  	-0,000001  	-0,000000  	26,454204  	25,437203  	26,372438  	26,208815  	29,139262  	27,720125  	28,902830  	28,462114  	31,320745  	30,310741  	32,689918  	59,280740  	25,520691  	24,158639  	28,374287  	64,564955  	0,311002  	0,157587  	-4001,317285  	1873,612863  	-0,054004  	-0,050008  	0,395134  	0,200218  	-4,142020  	16765,786871  	125925,966403  	18,264017  	-0,047958  
266,569000  	24,191392  	30,284405  	23,204131  	1256,670793  	70,161237  	65,226195  	0,009801  	0,011816  	0,003965  	0,004361  	0,004484  	-0,000001  	-0,000000  	26,453264  	25,425674  	26,363028  	26,199919  	29,133809  	27,720548  	28,888103  	28,456989  	31,309800  	30,300264  	32,678942  	59,275510  	25,513883  	24,149311  	28,367533  	64,561026  	0,298917  	0,151464  	-3858,281936  	25598,661465  	-0,018549  	-0,050011  	0,409788  	0,207643  	-4,290756  	16831,084150  	125921,404937  	18,263356  	-0,047961  
267,572000  	24,219870  	30,283574  	23,206066  	1256,670793  	70,160676  	65,223085  	0,009802  	0,011786  	0,003964  	0,004381  	0,004486  	0,000001  	-0,000000  	26,448328  	25,435083  	26,365556  	26,215285  	29,137975  	27,717771  	28,894273  	28,460008  	31,316269  	30,304490  	32,684349  	59,277417  	25,519796  	24,155047  	28,379685  	64,573658  	0,315015  	0,159620  	-4046,497939  	25590,264107  	-0,018543  	-0,049993  	0,411223  	0,208370  	-4,308000  	16765,520164  	125931,791805  	18,264862  	-0,047946  
268,575000  	24,241190  	30,273419  	23,208215  	57,696365  	70,161548  	65,219477  	0,009792  	0,011766  	0,003967  	0,004366  	0,004430  	0,000000  	-0,000000  	26,457696  	25,433007  	26,369656  	26,220713  	29,134841  	27,730883  	28,899705  	28,471991  	31,324973  	30,311328  	32,686547  	59,276662  	25,534569  	24,154382  	28,387907  	64,574734  	0,303098  	0,153582  	-3873,207639  	1873,043501  	-0,053996  	-0,049999  	0,366593  	0,185755  	-3,843940  	16723,749006  	125711,768137  	18,232950  	-0,047951  
269,571000  	24,250928  	30,268310  	23,209966  	-242,047242  	70,166003  	65,221312  	0,009795  	0,011790  	0,003965  	0,004373  	0,004504  	-0,000001  	-0,000000  	26,461130  	25,437071  	26,369591  	26,213819  	29,133664  	27,730687  	28,900501  	28,471172  	31,324789  	30,312191  	32,690731  	59,287069  	25,538984  	24,164093  	28,389808  	64,570447  	0,308659  	0,156400  	-3934,558665  	-27040,738812  	-0,103433  	-0,050006  	0,425526  	0,215617  	-4,464255  	16775,070686  	125795,314993  	18,245068  	-0,047957  
270,572000  	24,267763  	30,274157  	23,210273  	357,439972  	70,170239  	65,223613  	0,009795  	0,011787  	0,003964  	0,004374  	0,004451  	0,000000  	-0,000000  	26,459551  	25,437852  	26,369218  	26,217059  	29,135425  	27,732423  	28,898264  	28,467489  	31,316714  	30,317769  	32,697106  	59,285345  	25,544074  	24,178349  	28,386571  	64,572957  	0,309563  	0,156858  	-3938,877359  	12585,037023  	-0,036535  	-0,049999  	0,383184  	0,194162  	-4,021609  	16768,163890  	125795,463276  	18,245089  	-0,047950  
271,571000  	24,261128  	30,282744  	23,211379  	1256,670793  	70,166532  	65,220348  	0,009802  	0,011780  	0,003963  	0,004354  	0,004450  	0,000000  	-0,000000  	26,457723  	25,440974  	26,377805  	26,219675  	29,147077  	27,733882  	28,902066  	28,473852  	31,314558  	30,317373  	32,692074  	59,284884  	25,547806  	24,188401  	28,388168  	64,571233  	0,293356  	0,148646  	-3742,122365  	25592,239446  	-0,018544  	-0,049998  	0,382674  	0,193904  	-4,015893  	16752,397745  	125947,255599  	18,267105  	-0,047950  
272,571000  	24,234831  	30,290991  	23,211317  	1256,670793  	70,170208  	65,224391  	0,009796  	0,011755  	0,003966  	0,004438  	0,004497  	-0,000001  	-0,000000  	26,454881  	25,441044  	26,375097  	26,220413  	29,145424  	27,729461  	28,904911  	28,469071  	31,315714  	30,315501  	32,689740  	59,282236  	25,547116  	24,194875  	28,389577  	64,570813  	0,361347  	0,183097  	-4635,877757  	25597,140545  	-0,018548  	-0,050009  	0,420120  	0,212878  	-4,408542  	16698,907742  	125810,990621  	18,247341  	-0,047959  
273,572000  	24,219563  	30,300962  	23,211686  	57,696365  	70,176157  	65,229150  	0,009798  	0,011788  	0,003964  	0,004384  	0,004450  	0,000001  	-0,000000  	26,443760  	25,431941  	26,367734  	26,215842  	29,134092  	27,721583  	28,897181  	28,462128  	31,314109  	30,308671  	32,685903  	59,277216  	25,536373  	24,196334  	28,378228  	64,569093  	0,317714  	0,160988  	-4093,077706  	1872,570587  	-0,053988  	-0,049991  	0,382831  	0,193983  	-4,018220  	16770,306037  	125850,186750  	18,253026  	-0,047944  
274,571000  	24,208626  	30,298746  	23,212361  	657,183579  	70,174039  	65,234126  	0,009795  	0,011794  	0,003962  	0,004373  	0,004451  	0,000000  	-0,000000  	26,444412  	25,428720  	26,366419  	26,211319  	29,131346  	27,719363  	28,890550  	28,462912  	31,316322  	30,300200  	32,679088  	59,279048  	25,532943  	24,190130  	28,374255  	64,566404  	0,309091  	0,156619  	-3987,699716  	18528,928291  	-0,027607  	-0,049999  	0,383406  	0,194275  	-4,018488  	16783,351344  	125776,716074  	18,242370  	-0,047950  
275,575000  	24,196645  	30,290991  	23,213743  	657,183579  	70,167404  	65,237640  	0,009797  	0,011800  	0,003963  	0,004411  	0,004492  	-0,000000  	-0,000000  	26,458122  	25,435305  	26,366820  	26,216503  	29,138225  	27,725805  	28,894494  	28,467202  	31,321572  	30,301122  	32,684844  	59,282231  	25,542740  	24,184926  	28,379207  	64,572243  	0,339306  	0,171929  	-4380,555926  	18531,140825  	-0,027611  	-0,050005  	0,416175  	0,210879  	-4,352979  	16796,773012  	125837,335560  	18,251162  	-0,047956  
276,573000  	24,181531  	30,282990  	23,215340  	57,696365  	70,163667  	65,234344  	0,009796  	0,011771  	0,003964  	0,004340  	0,004497  	-0,000000  	-0,000000  	26,459456  	25,437360  	26,371006  	26,219695  	29,146499  	27,731978  	28,898969  	28,470975  	31,324712  	30,307845  	32,692566  	59,284019  	25,549223  	24,182572  	28,379879  	64,578168  	0,282030  	0,142907  	-3645,356745  	1872,822242  	-0,054000  	-0,050005  	0,420184  	0,212911  	-4,394519  	16734,322496  	125810,107984  	18,247213  	-0,047956  
277,570000  	24,198212  	30,272434  	23,215801  	956,927186  	70,165504  	65,218419  	0,009795  	0,011778  	0,003962  	0,004337  	0,004451  	0,000000  	-0,000000  	26,450306  	25,428616  	26,368809  	26,214263  	29,142626  	27,729078  	28,897286  	28,468865  	31,321672  	30,312238  	32,685249  	59,281802  	25,547944  	24,168577  	28,379651  	64,574611  	0,279497  	0,141623  	-3596,493584  	22548,967881  	-0,022186  	-0,049998  	0,383229  	0,194185  	-4,022454  	16748,645451  	125792,236357  	18,244621  	-0,047950  
278,572000  	24,231267  	30,266279  	23,216415  	-242,047242  	70,168619  	65,217424  	0,009802  	0,011760  	0,003964  	0,004385  	0,004475  	0,000000  	-0,000000  	26,446938  	25,423105  	26,361317  	26,212447  	29,132801  	27,723506  	28,896132  	28,470143  	31,314362  	30,312559  	32,682662  	59,275745  	25,542978  	24,153559  	28,374404  	64,571720  	0,318678  	0,161477  	-4074,183270  	-27036,918050  	-0,103416  	-0,049998  	0,402847  	0,204126  	-4,231884  	16710,768784  	125941,592603  	18,266284  	-0,047950  
279,573000  	24,274952  	30,262494  	23,218073  	657,183579  	70,167311  	65,223520  	0,009803  	0,011778  	0,003968  	0,004369  	0,004516  	-0,000000  	-0,000000  	26,453929  	25,434133  	26,367767  	26,215672  	29,133987  	27,727700  	28,897995  	28,469619  	31,315692  	30,311008  	32,693410  	59,278201  	25,544725  	24,152658  	28,379071  	64,573930  	0,305612  	0,154856  	-3876,392654  	18529,591192  	-0,027609  	-0,050001  	0,434647  	0,220239  	-4,559116  	16749,024642  	125958,920526  	18,268797  	-0,047953  
280,575000  	24,274706  	30,264279  	23,219793  	57,696365  	70,171610  	65,228185  	0,009800  	0,011747  	0,003963  	0,004325  	0,004491  	-0,000000  	-0,000000  	26,446658  	25,434989  	26,364150  	26,214654  	29,133743  	27,724855  	28,897415  	28,460602  	31,309560  	30,302447  	32,688007  	59,272849  	25,538123  	24,138735  	28,379771  	64,573751  	0,269662  	0,136640  	-3421,565749  	1872,405781  	-0,053995  	-0,050000  	0,414834  	0,210200  	-4,350972  	16682,676098  	125891,155213  	18,258968  	-0,047952  
281,573000  	24,245552  	30,279328  	23,220991  	1256,670793  	70,172949  	65,222774  	0,009793  	0,011777  	0,003965  	0,004395  	0,004416  	0,000000  	-0,000000  	26,447098  	25,429509  	26,367422  	26,211272  	29,133091  	27,729344  	28,896291  	28,464133  	31,317338  	30,305697  	32,694494  	59,280117  	25,535719  	24,133318  	28,371699  	64,577904  	0,326977  	0,165682  	-4179,422613  	25591,187089  	-0,018544  	-0,049996  	0,355554  	0,180162  	-3,734302  	16746,992857  	125735,980626  	18,236462  	-0,047948  
282,571000  	24,203342  	30,293730  	23,222956  	657,183579  	70,173510  	65,225075  	0,009792  	0,011791  	0,003966  	0,004381  	0,004507  	0,000000  	-0,000001  	26,452987  	25,435293  	26,361732  	26,216714  	29,141165  	27,729004  	28,900034  	28,466548  	31,316444  	30,305096  	32,689184  	59,289136  	25,530962  	24,122313  	28,379058  	64,579699  	0,315300  	0,159765  	-4067,983054  	18528,821290  	-0,027608  	-0,050000  	0,427525  	0,216630  	-4,488620  	16777,452658  	125712,573102  	18,233067  	-0,047951  
283,573000  	24,163345  	30,297885  	23,223417  	-242,047242  	70,169087  	65,222649  	0,009793  	0,011776  	0,003964  	0,004321  	0,004474  	0,000001  	-0,000000  	26,447997  	25,434310  	26,370749  	26,210802  	29,142410  	27,734539  	28,897703  	28,462276  	31,316696  	30,308433  	32,690753  	59,287037  	25,534285  	24,123286  	28,389877  	64,574754  	0,266614  	0,135095  	-3464,790277  	-27031,017975  	-0,103391  	-0,049986  	0,401395  	0,203390  	-4,212579  	16744,704976  	125745,562530  	18,237852  	-0,047939  
284,571000  	24,146326  	30,289945  	23,223233  	956,927186  	70,162047  	65,229803  	0,009794  	0,011798  	0,003966  	0,004401  	0,004488  	0,000000  	-0,000000  	26,447093  	25,444121  	26,370981  	26,213394  	29,137735  	27,731961  	28,892205  	28,472808  	31,310324  	30,312888  	32,700213  	59,282698  	25,533832  	24,126747  	28,396046  	64,585087  	0,331367  	0,167906  	-4312,668965  	22547,647274  	-0,022185  	-0,049995  	0,412570  	0,209052  	-4,317438  	16791,568330  	125757,834710  	18,239632  	-0,047948  
285,572000  	24,213142  	30,270218  	23,224400  	57,696365  	70,158901  	65,231575  	0,009798  	0,011753  	0,003965  	0,004329  	0,004518  	-0,000000  	-0,000000  	26,433826  	25,411973  	26,341839  	26,196634  	29,119302  	27,724527  	28,879842  	28,459302  	31,290957  	30,288086  	32,673413  	59,264359  	25,506342  	24,114005  	28,366184  	64,562463  	0,272870  	0,138265  	-3501,304005  	1872,261226  	-0,053998  	-0,050004  	0,436867  	0,221364  	-4,567141  	16695,432767  	125843,401039  	18,252042  	-0,047955  
286,573000  	24,217074  	30,252123  	23,225874  	1256,670793  	70,161143  	65,223489  	0,009804  	0,011773  	0,003962  	0,004353  	0,004458  	-0,000001  	-0,000000  	26,447350  	25,430822  	26,367376  	26,204038  	29,136170  	27,725224  	28,899071  	28,472870  	31,309772  	30,308681  	32,677115  	59,289975  	25,508078  	24,118845  	28,380276  	64,573401  	0,292761  	0,148344  	-3742,871406  	25596,197460  	-0,018547  	-0,050008  	0,388968  	0,197093  	-4,074907  	16738,454689  	125971,086789  	18,270561  	-0,047958  
287,571000  	24,207858  	30,249538  	23,226519  	357,439972  	70,167404  	65,218637  	0,009785  	0,011760  	0,003965  	0,004398  	0,004491  	0,000000  	-0,000001  	26,443095  	25,430482  	26,363460  	26,202886  	29,129966  	27,723045  	28,887471  	28,454707  	31,314128  	30,306156  	32,684889  	59,269531  	25,510832  	24,111908  	28,377045  	64,566218  	0,328788  	0,166599  	-4208,087223  	12583,875882  	-0,036533  	-0,049997  	0,414988  	0,210277  	-4,357279  	16709,604328  	125578,850117  	18,213672  	-0,047949  
288,574000  	24,201714  	30,259262  	23,225229  	956,927186  	70,169273  	65,218513  	0,009788  	0,011772  	0,003962  	0,004337  	0,004476  	0,000000  	-0,000000  	26,462089  	25,437542  	26,361586  	26,225341  	29,142655  	27,729647  	28,901568  	28,477115  	31,330973  	30,306272  	32,691750  	59,275612  	25,508444  	24,131899  	28,383934  	64,586270  	0,279537  	0,141644  	-3587,135316  	22547,502761  	-0,022185  	-0,049995  	0,403180  	0,204294  	-4,235011  	16735,148793  	125635,049359  	18,221823  	-0,047947  
289,572000  	24,202175  	30,262555  	23,224707  	1256,670793  	70,165972  	65,216460  	0,009798  	0,011778  	0,003964  	0,004399  	0,004440  	0,000001  	-0,000000  	26,459021  	25,436943  	26,382076  	26,226076  	29,144463  	27,738133  	28,909511  	28,470869  	31,325779  	30,309455  	32,685361  	59,298652  	25,511806  	24,130039  	28,392115  	64,583666  	0,330053  	0,167240  	-4237,353190  	25588,890569  	-0,018542  	-0,049992  	0,375068  	0,190050  	-3,938720  	16749,307620  	125843,612872  	18,252073  	-0,047944  
290,571000  	24,205247  	30,261755  	23,222864  	1256,670793  	70,164539  	65,214221  	0,009797  	0,011761  	0,003966  	0,004448  	0,004493  	-0,000000  	-0,000000  	26,466324  	25,439438  	26,369045  	26,216508  	29,145160  	27,728457  	28,898559  	28,471841  	31,312534  	30,310114  	32,698123  	59,288623  	25,508903  	24,121315  	28,391023  	64,569802  	0,369992  	0,187478  	-4747,064350  	25592,850493  	-0,018545  	-0,050000  	0,416552  	0,211070  	-4,375068  	16712,482926  	125820,734929  	18,248755  	-0,047951  
291,572000  	24,191607  	30,261294  	23,222956  	1256,670793  	70,165972  	65,212137  	0,009800  	0,011780  	0,003968  	0,004352  	0,004467  	0,000001  	-0,000000  	26,458964  	25,438159  	26,368023  	26,212914  	29,143340  	27,731790  	28,900565  	28,471317  	31,313717  	30,310968  	32,700398  	59,283471  	25,516090  	24,127597  	28,385443  	64,581951  	0,292130  	0,148024  	-3756,235644  	25589,399062  	-0,018543  	-0,049993  	0,396242  	0,200779  	-4,164712  	16753,988791  	125893,690145  	18,259336  	-0,047945  
292,574000  	24,171332  	30,260432  	23,221052  	1256,670793  	70,168339  	65,214625  	0,009801  	0,011751  	0,003965  	0,004343  	0,004466  	0,000000  	-0,000000  	26,458722  	25,434411  	26,375381  	26,220015  	29,136342  	27,732579  	28,903338  	28,473731  	31,325810  	30,303941  	32,690785  	59,284607  	25,510359  	24,115359  	28,388851  	64,572436  	0,284595  	0,144207  	-3671,070116  	25592,124047  	-0,018544  	-0,049998  	0,395372  	0,200338  	-4,155464  	16690,027171  	125922,810094  	18,263560  	-0,047950  
293,574000  	24,219132  	30,260832  	23,218811  	1256,670793  	70,168183  	65,220068  	0,009795  	0,011794  	0,003963  	0,004415  	0,004467  	0,000001  	-0,000000  	26,451156  	25,427392  	26,366557  	26,211283  	29,132302  	27,724479  	28,896148  	28,467970  	31,314469  	30,301513  	32,679155  	59,278422  	25,497543  	24,107577  	28,383161  	64,563618  	0,342768  	0,173683  	-4387,025190  	25588,502857  	-0,018542  	-0,049990  	0,396343  	0,200830  	-4,160969  	16782,834908  	125793,839225  	18,244854  	-0,047943  
294,575000  	24,245306  	30,251661  	23,217275  	657,183579  	70,167124  	65,222494  	0,009797  	0,011769  	0,003964  	0,004381  	0,004489  	0,000001  	-0,000000  	26,455223  	25,435170  	26,372467  	26,209065  	29,138969  	27,723020  	28,901916  	28,464267  	31,311602  	30,303269  	32,683389  	59,282358  	25,498266  	24,112732  	28,388351  	64,572818  	0,315135  	0,159681  	-4009,755232  	18524,775722  	-0,027601  	-0,049987  	0,413583  	0,209566  	-4,338907  	16728,875161  	125825,303457  	18,249417  	-0,047940  
295,571000  	24,253048  	30,251569  	23,216262  	657,183579  	70,167778  	65,226630  	0,009793  	0,011789  	0,003963  	0,004327  	0,004403  	0,000000  	-0,000000  	26,458122  	25,439455  	26,372227  	26,215377  	29,135522  	27,731612  	28,901076  	28,471973  	31,320883  	30,309723  	32,689945  	59,287493  	25,495865  	24,108408  	28,389838  	64,575316  	0,271366  	0,137503  	-3448,329136  	18527,597822  	-0,027606  	-0,049995  	0,345698  	0,175168  	-3,624171  	16772,784928  	125738,529681  	18,236832  	-0,047947  
296,572000  	24,272709  	30,265479  	23,214665  	57,696365  	70,165785  	65,223956  	0,009792  	0,011755  	0,003963  	0,004389  	0,004476  	-0,000000  	-0,000000  	26,449944  	25,437394  	26,367758  	26,212677  	29,138857  	27,729776  	28,897330  	28,463981  	31,314967  	30,304168  	32,687581  	59,282876  	25,483599  	24,101593  	28,390186  	64,570708  	0,321685  	0,163000  	-4083,832759  	1872,752660  	-0,053997  	-0,050002  	0,403593  	0,204504  	-4,231702  	16698,793844  	125725,438414  	18,234933  	-0,047953  
297,573000  	24,275597  	30,280097  	23,213498  	1256,670793  	70,166221  	65,222618  	0,009799  	0,011750  	0,003965  	0,004426  	0,004518  	0,000001  	-0,000000  	26,447602  	25,438452  	26,362907  	26,208599  	29,141133  	27,725062  	28,895048  	28,460823  	31,313578  	30,301291  	32,689213  	59,284369  	25,476085  	24,096646  	28,391274  	64,573274  	0,351641  	0,178179  	-4472,864633  	25589,634894  	-0,018543  	-0,049992  	0,436213  	0,221033  	-4,575368  	16687,623269  	125865,615238  	18,255264  	-0,047945  
298,571000  	24,264661  	30,291114  	23,211102  	657,183579  	70,168277  	65,220752  	0,009794  	0,011739  	0,003964  	0,004373  	0,004441  	0,000000  	-0,000000  	26,455428  	25,437118  	26,365927  	26,210735  	29,138832  	27,731203  	28,899822  	28,466503  	31,318161  	30,304997  	32,692233  	59,287581  	25,474441  	24,086153  	28,392264  	64,578649  	0,308719  	0,156430  	-3941,257158  	18527,870661  	-0,027606  	-0,049995  	0,375930  	0,190486  	-3,946188  	16664,255615  	125768,927688  	18,241241  	-0,047947  
299,572000  	24,221529  	30,299054  	23,209905  	-242,047242  	70,166190  	65,221810  	0,009805  	0,011779  	0,003963  	0,004427  	0,004437  	0,000001  	-0,000000  	26,456728  	25,438650  	26,372407  	26,209659  	29,140756  	27,733330  	28,901689  	28,467150  	31,318668  	30,303962  	32,690117  	59,283809  	25,477235  	24,080133  	28,392375  	64,582719  	0,352532  	0,178631  	-4538,742980  	-27032,429625  	-0,103402  	-0,049989  	0,372122  	0,188557  	-3,903732  	16751,192964  	125993,915304  	18,273872  	-0,047942  
300,570000  	24,199164  	30,304040  	23,209290  	-242,047242  	70,165629  	65,222183  	0,009801  	0,011776  	0,003966  	0,004359  	0,004491  	-0,000001  	-0,000000  	26,443076  	25,433839  	26,366180  	26,204205  	29,133663  	27,723891  	28,891157  	28,460163  	31,307738  	30,295555  	32,685350  	59,278273  	25,468120  	24,067349  	28,380083  	64,575365  	0,297663  	0,150828  	-3849,570667  	-27041,235475  	-0,103436  	-0,050007  	0,415323  	0,210447  	-4,356118  	16744,484253  	125905,235033  	18,261010  	-0,047958  
301,574000  	24,205646  	30,295977  	23,207755  	1256,670793  	70,166532  	65,220348  	0,009800  	0,011763  	0,003963  	0,004318  	0,004488  	-0,000000  	-0,000000  	26,429510  	25,421099  	26,350777  	26,198311  	29,121884  	27,712540  	28,880803  	28,452404  	31,294736  	30,287030  	32,676246  	59,275148  	25,457469  	24,044578  	28,368974  	64,559670  	0,264187  	0,133865  	-3408,492803  	25595,239595  	-0,018547  	-0,050004  	0,412916  	0,209227  	-4,333264  	16716,707087  	125887,935354  	18,258501  	-0,047955  
302,572000  	24,206629  	30,281574  	23,207325  	1256,670793  	70,166532  	65,218419  	0,009794  	0,011768  	0,003963  	0,004405  	0,004444  	-0,000001  	-0,000000  	26,434526  	25,426286  	26,351704  	26,199238  	29,128581  	27,713520  	28,883289  	28,454838  	31,299584  	30,289074  	32,675927  	59,277583  	25,463861  	24,034265  	28,379635  	64,564843  	0,334592  	0,169540  	-4305,939902  	25599,552944  	-0,018550  	-0,050014  	0,377557  	0,191311  	-3,963743  	16727,567093  	125773,835148  	18,241953  	-0,047963  
303,572000  	24,208288  	30,271880  	23,206127  	357,439972  	70,166345  	65,220752  	0,009798  	0,011786  	0,003967  	0,004417  	0,004531  	0,000000  	-0,000000  	26,445850  	25,439640  	26,366272  	26,208002  	29,141319  	27,724527  	28,893373  	28,464053  	31,312048  	30,302651  	32,686214  	59,285973  	25,468021  	24,032475  	28,391371  	64,580181  	0,344612  	0,174617  	-4426,605261  	12585,571179  	-0,036536  	-0,050000  	0,446847  	0,226421  	-4,688786  	16766,226902  	125846,084254  	18,252431  	-0,047951  
304,571000  	24,199564  	30,268126  	23,205144  	-242,047242  	70,168401  	65,216398  	0,009799  	0,011744  	0,003963  	0,004386  	0,004473  	-0,000001  	-0,000000  	26,446580  	25,437272  	26,367615  	26,208903  	29,138025  	27,725476  	28,898366  	28,466275  	31,311917  	30,309130  	32,687769  	59,287425  	25,469070  	24,027688  	28,387634  	64,573384  	0,319088  	0,161684  	-4102,106989  	-27041,718774  	-0,103439  	-0,050009  	0,401069  	0,203224  	-4,213885  	16675,776376  	125872,739882  	18,256297  	-0,047959  
305,571000  	24,216460  	30,266310  	23,204960  	1256,670793  	70,172544  	65,220970  	0,009801  	0,011764  	0,003962  	0,004369  	0,004438  	0,000001  	-0,000000  	26,449344  	25,433823  	26,365841  	26,208318  	29,131128  	27,725007  	28,895480  	28,465581  	31,307886  	30,298311  	32,694224  	59,278935  	25,472212  	24,025211  	28,383631  	64,568263  	0,305431  	0,154764  	-3914,423011  	25589,404131  	-0,018542  	-0,049991  	0,373225  	0,189116  	-3,921007  	16719,403164  	125920,953027  	18,263290  	-0,047944  
306,574000  	24,240668  	30,264156  	23,203056  	1256,670793  	70,174912  	65,227377  	0,009804  	0,011756  	0,003961  	0,004435  	0,004486  	0,000001  	-0,000000  	26,445165  	25,424882  	26,362131  	26,212459  	29,134707  	27,723594  	28,892966  	28,462817  	31,311623  	30,293073  	32,687423  	59,276201  	25,465753  	24,019907  	28,383756  	64,566771  	0,359322  	0,182071  	-4585,019811  	25587,488659  	-0,018541  	-0,049987  	0,411326  	0,208422  	-4,317763  	16701,662538  	125979,129375  	18,271728  	-0,047940  
307,573000  	24,239746  	30,262586  	23,201490  	357,439972  	70,169865  	65,226070  	0,009799  	0,011739  	0,003966  	0,004348  	0,004476  	0,000000  	-0,000000  	26,443732  	25,430383  	26,355652  	26,210283  	29,124384  	27,719034  	28,888062  	28,453582  	31,313602  	30,296036  	32,682749  	59,270037  	25,458279  	24,003558  	28,376413  	64,572146  	0,288709  	0,146291  	-3683,594519  	12584,565021  	-0,036532  	-0,049994  	0,403518  	0,204466  	-4,232599  	16664,034892  	125864,499586  	18,255102  	-0,047947  
