06/18/2020 16:30:16
Tempo T_f_e T_f_s AR AR T_q_e T_q_s Corrente_P_f Corrente_P_q Corrente_P_RESERVA Corrente_eletromag_f Corrente_eletromag_q AR AR T_1 T_2 T_3 T_4 T_5 T_6 T_7 T_8 T_9 T_10 T_11 T_12 T_13 T_14 T_15 T_16 Velocidade_f_(m/s) Vazao_f_(L/s) q_f_(W) AR AR AR Velocidade_q_(m/s) Vazao_q_(L/s) q_q_(W) DeltaP_q_(Pa) DeltaP_f_(Pa) DeltaP_f_(Psi) AR
0,008000  	23,894463  	30,665758  	23,225505  	956,927186  	70,099406  	65,211359  	0,008650  	0,011742  	0,003965  	0,004340  	0,004447  	0,000000  	-0,000000  	26,758668  	25,291953  	26,204655  	26,112032  	29,222483  	27,772326  	28,960368  	28,631189  	31,709273  	30,625279  	33,076920  	59,294972  	25,438280  	24,233626  	28,434136  	64,544775  	0,282420  	0,143104  	-4051,218920  	22548,034203  	-0,022185  	-0,049997  	0,380188  	0,192644  	-3,942909  	16671,726954  	101111,201479  	14,664940  	-0,047949  
2,580000  	23,916273  	30,661141  	23,225567  	357,439972  	70,097661  	65,209555  	0,008654  	0,011785  	0,003963  	0,004326  	0,004515  	-0,000000  	-0,000000  	26,755899  	25,284753  	26,203025  	26,107968  	29,236076  	27,778173  	28,954295  	28,631108  	31,703251  	30,626078  	33,076261  	59,296480  	25,430311  	24,237393  	28,433474  	64,541548  	0,270573  	0,137101  	-3866,123492  	12585,223947  	-0,036537  	-0,050003  	0,434354  	0,220091  	-4,504717  	16764,701648  	101204,217261  	14,678431  	-0,047954  
3,586000  	23,921802  	30,656247  	23,225659  	1256,670793  	70,095294  	65,205046  	0,008652  	0,011765  	0,003963  	0,004357  	0,004452  	0,000001  	-0,000000  	26,759698  	25,290494  	26,201920  	26,113969  	29,233705  	27,782750  	28,954777  	28,632819  	31,713566  	30,638166  	33,082961  	59,300044  	25,432726  	24,228620  	28,432801  	64,539959  	0,296045  	0,150008  	-4223,544360  	25585,429979  	-0,018540  	-0,049984  	0,384529  	0,194844  	-3,989718  	16720,085143  	101149,656193  	14,670517  	-0,047938  
4,583000  	23,923952  	30,651692  	23,225168  	57,696365  	70,094733  	65,202495  	0,008649  	0,011746  	0,003965  	0,004323  	0,004459  	-0,000000  	-0,000000  	26,756572  	25,282069  	26,209769  	26,123662  	29,230449  	27,785332  	28,961695  	28,630572  	31,715525  	30,630160  	33,085984  	59,308272  	25,421624  	24,216693  	28,437622  	64,539262  	0,268267  	0,135933  	-3823,440425  	1872,161684  	-0,053997  	-0,050002  	0,390055  	0,197644  	-4,048702  	16679,081564  	101094,148939  	14,662467  	-0,047953  
5,582000  	23,939035  	30,656124  	23,225444  	1256,670793  	70,094515  	65,201282  	0,008650  	0,011760  	0,003963  	0,004327  	0,004486  	-0,000000  	-0,000000  	26,768733  	25,293306  	26,213805  	26,126123  	29,235880  	27,782602  	28,963270  	28,627207  	31,708786  	30,636878  	33,090658  	59,309085  	25,429098  	24,215091  	28,432798  	64,548517  	0,271728  	0,137687  	-3866,637117  	25593,975565  	-0,018546  	-0,050003  	0,410951  	0,208232  	-4,266462  	16709,514482  	101125,867370  	14,667067  	-0,047954  
6,608000  	23,921894  	30,656370  	23,224338  	1256,670793  	70,096945  	65,198794  	0,008655  	0,011747  	0,003966  	0,004322  	0,004469  	0,000000  	-0,000000  	26,756499  	25,291349  	26,210390  	26,126063  	29,240930  	27,785802  	28,964408  	28,629096  	31,705352  	30,642875  	33,083187  	59,304666  	25,424118  	24,204123  	28,430223  	64,542170  	0,267882  	0,135738  	-3821,773262  	25591,329554  	-0,018544  	-0,049997  	0,397623  	0,201478  	-4,132242  	16681,694163  	101224,397866  	14,681358  	-0,047949  
7,606000  	23,895723  	30,658956  	23,225536  	1256,670793  	70,098035  	65,199292  	0,008654  	0,011727  	0,003963  	0,004264  	0,004479  	-0,000000  	-0,000000  	26,771031  	25,300947  	26,205691  	26,120183  	29,253236  	27,787612  	28,971988  	28,633005  	31,716813  	30,637865  	33,089490  	59,306843  	25,415988  	24,202815  	28,437906  	64,549874  	0,220547  	0,111753  	-3159,909279  	25595,145789  	-0,018547  	-0,050005  	0,405487  	0,205463  	-4,214473  	16638,863251  	101197,170290  	14,677409  	-0,047956  
8,584000  	23,872316  	30,662895  	23,226703  	1256,670793  	70,100714  	65,204268  	0,008651  	0,011756  	0,003963  	0,004372  	0,004483  	0,000001  	-0,000000  	26,767796  	25,297321  	26,202889  	26,119537  	29,247243  	27,784877  	28,967160  	28,633574  	31,715181  	30,633312  	33,081883  	59,305094  	25,403124  	24,191599  	28,442405  	64,555496  	0,307674  	0,155900  	-4426,051301  	25588,199807  	-0,018542  	-0,049990  	0,408415  	0,206947  	-4,242922  	16701,003905  	101132,137621  	14,667976  	-0,047943  
9,582000  	23,891238  	30,660802  	23,225813  	57,696365  	70,099219  	65,206787  	0,008652  	0,011770  	0,003962  	0,004370  	0,004466  	-0,000002  	-0,000000  	26,761527  	25,297149  	26,205437  	26,124122  	29,245915  	27,789068  	28,966300  	28,635160  	31,717642  	30,635464  	33,089627  	59,310480  	25,403675  	24,189787  	28,446504  	64,555476  	0,306543  	0,155328  	-4396,136954  	1872,760922  	-0,054015  	-0,050021  	0,395093  	0,200197  	-4,101162  	16730,770409  	101149,345505  	14,670472  	-0,047969  
10,583000  	23,905061  	30,651261  	23,226550  	1256,670793  	70,097537  	65,201625  	0,008650  	0,011759  	0,003969  	0,004324  	0,004454  	-0,000002  	-0,000000  	26,761779  	25,294007  	26,212538  	26,124735  	29,247041  	27,789172  	28,969934  	28,637022  	31,719352  	30,641214  	33,084238  	59,304978  	25,395664  	24,190409  	28,445505  	64,556510  	0,269110  	0,136360  	-3845,991385  	25601,563684  	-0,018551  	-0,050019  	0,385571  	0,195372  	-4,005165  	16707,832175  	101121,651897  	14,666456  	-0,047968  
11,581000  	23,907181  	30,641289  	23,226918  	1256,670793  	70,103517  	65,199105  	0,008647  	0,011724  	0,003964  	0,004323  	0,004515  	-0,000000  	-0,000000  	26,757733  	25,286773  	26,207243  	26,118997  	29,243994  	27,786345  	28,965041  	28,624484  	31,713039  	30,632857  	33,075513  	59,301809  	25,381065  	24,187428  	28,442701  	64,550120  	0,268430  	0,136016  	-3829,394748  	25593,369210  	-0,018545  	-0,050001  	0,433864  	0,219842  	-4,514636  	16632,309470  	101044,128154  	14,655212  	-0,047953  
12,580000  	23,896737  	30,638027  	23,226304  	57,696365  	70,104950  	65,203086  	0,008640  	0,011744  	0,003963  	0,004366  	0,004466  	-0,000001  	-0,000000  	26,753290  	25,284096  	26,202833  	26,109537  	29,234562  	27,776219  	28,960240  	28,613097  	31,706489  	30,620868  	33,070481  	59,298904  	25,371202  	24,187267  	28,433583  	64,539422  	0,303381  	0,153725  	-4332,615985  	1872,317041  	-0,054003  	-0,050009  	0,395177  	0,200239  	-4,109939  	16675,228813  	100906,620422  	14,635268  	-0,047959  
13,581000  	23,928345  	30,643905  	23,226181  	57,696365  	70,101181  	65,205512  	0,008655  	0,011776  	0,003966  	0,004336  	0,004470  	0,000001  	-0,000000  	26,753544  	25,283151  	26,202583  	26,104586  	29,232796  	27,779289  	28,964345  	28,619137  	31,708202  	30,625299  	33,074944  	59,302689  	25,377468  	24,195866  	28,432667  	64,541371  	0,278997  	0,141370  	-3969,171573  	1871,753637  	-0,053987  	-0,049992  	0,398752  	0,202050  	-4,141878  	16745,166231  	101230,562200  	14,682252  	-0,047944  
14,582000  	23,972088  	30,648830  	23,225874  	657,183579  	70,097381  	65,210737  	0,008646  	0,011748  	0,003964  	0,004319  	0,004458  	-0,000000  	-0,000000  	26,754818  	25,286308  	26,206209  	26,106001  	29,237073  	27,782549  	28,964734  	28,627720  	31,715990  	30,630121  	33,080051  	59,306188  	25,380840  	24,211098  	28,441879  	64,545402  	0,264724  	0,134138  	-3744,332572  	18530,314298  	-0,027610  	-0,050004  	0,389102  	0,197161  	-4,034198  	16683,404768  	101036,495112  	14,654105  	-0,047955  
15,582000  	23,994573  	30,649845  	23,225229  	657,183579  	70,100496  	65,210302  	0,008647  	0,011744  	0,003965  	0,004352  	0,004472  	-0,000000  	-0,000000  	26,753726  	25,283886  	26,207870  	26,105809  	29,233279  	27,774115  	28,956916  	28,623814  	31,713049  	30,625378  	33,071827  	59,299550  	25,372114  	24,225979  	28,442834  	64,544441  	0,291577  	0,147744  	-4110,883786  	18529,618585  	-0,027609  	-0,050002  	0,400165  	0,202767  	-4,151910  	16675,574046  	101042,186353  	14,654930  	-0,047953  
16,584000  	24,004895  	30,657294  	23,225598  	57,696365  	70,104047  	65,210115  	0,008648  	0,011777  	0,003968  	0,004306  	0,004548  	-0,000000  	-0,000000  	26,757250  	25,280664  	26,205562  	26,106487  	29,234874  	27,778317  	28,955230  	28,623037  	31,705179  	30,631872  	33,070703  	59,303064  	25,374653  	24,248038  	28,442607  	64,550655  	0,254448  	0,128931  	-3585,858395  	1872,234857  	-0,054000  	-0,050005  	0,460555  	0,233367  	-4,782139  	16745,705305  	101070,105916  	14,658980  	-0,047956  
17,582000  	23,993621  	30,677177  	23,223540  	57,696365  	70,102022  	65,203802  	0,008646  	0,011751  	0,003962  	0,004316  	0,004445  	-0,000000  	-0,000000  	26,759704  	25,285058  	26,203739  	26,111355  	29,237578  	27,781652  	28,957734  	28,627508  	31,704740  	30,636829  	33,075697  	59,308554  	25,375615  	24,264928  	28,442215  	64,552209  	0,262349  	0,132934  	-3714,530655  	1872,317367  	-0,053999  	-0,050004  	0,378331  	0,191703  	-3,931814  	16691,030330  	101035,909041  	14,654020  	-0,047955  
18,583000  	23,986617  	30,692874  	23,223479  	1256,670793  	70,103268  	65,206663  	0,008650  	0,011778  	0,003962  	0,004345  	0,004522  	-0,000001  	-0,000000  	26,751633  	25,280444  	26,196036  	26,110361  	29,227765  	27,772999  	28,958210  	28,622250  	31,701331  	30,622771  	33,066895  	59,296545  	25,366233  	24,259968  	28,434920  	64,541226  	0,286306  	0,145074  	-4067,500892  	25597,557159  	-0,018548  	-0,050010  	0,439976  	0,222939  	-4,570949  	16749,582817  	101114,329543  	14,665394  	-0,047960  
19,581000  	23,986894  	30,702199  	23,223847  	1256,670793  	70,098097  	65,211390  	0,008644  	0,011719  	0,003967  	0,004342  	0,004452  	0,000001  	-0,000000  	26,753519  	25,284823  	26,194534  	26,107255  	29,232847  	27,776880  	28,962877  	28,626461  	31,706236  	30,621872  	33,071502  	59,295279  	25,373188  	24,269866  	28,445340  	64,539013  	0,283449  	0,143626  	-4032,344473  	25586,913142  	-0,018541  	-0,049987  	0,384201  	0,194678  	-3,983438  	16622,151251  	100983,529851  	14,646423  	-0,047940  
20,584000  	23,980443  	30,706139  	23,225014  	57,696365  	70,095605  	65,214749  	0,008649  	0,011771  	0,003965  	0,004362  	0,004443  	-0,000001  	-0,000000  	26,751334  	25,279924  	26,186443  	26,108842  	29,222574  	27,771827  	28,954134  	28,624292  	31,704404  	30,621744  	33,071823  	59,298504  	25,363994  	24,271907  	28,445938  	64,540457  	0,299597  	0,151808  	-4268,660544  	1872,493452  	-0,054006  	-0,050012  	0,377174  	0,191117  	-3,905894  	16733,000987  	101088,457697  	14,661641  	-0,047961  
21,582000  	24,000072  	30,706970  	23,225874  	956,927186  	70,095855  	65,206383  	0,008646  	0,011765  	0,003964  	0,004318  	0,004472  	-0,000000  	-0,000000  	26,754056  	25,284890  	26,193215  	26,112066  	29,226193  	27,767073  	28,959625  	28,617615  	31,700230  	30,633021  	33,070236  	59,308174  	25,378609  	24,272172  	28,442137  	64,540203  	0,264649  	0,134100  	-3760,180840  	22551,123390  	-0,022188  	-0,050004  	0,400272  	0,202821  	-4,152410  	16720,956716  	101021,800977  	14,651973  	-0,047955  
22,581000  	23,996693  	30,708017  	23,226672  	-242,047242  	70,096789  	65,202962  	0,008649  	0,011758  	0,003963  	0,004328  	0,004445  	0,000001  	-0,000000  	26,757796  	25,277051  	26,193440  	26,110742  	29,227704  	27,772393  	28,955747  	28,619494  	31,696310  	30,624252  	33,069179  	59,301605  	25,379722  	24,269592  	28,439274  	64,543902  	0,272279  	0,137966  	-3871,142600  	-27033,618593  	-0,103400  	-0,049991  	0,378484  	0,191781  	-3,929878  	16706,347246  	101094,021839  	14,662448  	-0,047944  
23,584000  	23,987570  	30,710233  	23,227686  	-242,047242  	70,094733  	65,212355  	0,008652  	0,011759  	0,003961  	0,004353  	0,004470  	0,000001  	-0,000000  	26,759214  	25,288958  	26,202346  	26,113759  	29,240085  	27,781678  	28,962816  	28,629124  	31,712211  	30,624750  	33,074215  	59,310451  	25,394505  	24,274365  	28,443090  	64,546438  	0,292316  	0,148119  	-4163,038417  	-27034,588246  	-0,103403  	-0,049993  	0,398719  	0,202034  	-4,130301  	16708,181654  	101151,710971  	14,670815  	-0,047945  
24,582000  	23,964347  	30,716081  	23,228546  	-242,047242  	70,094422  	65,205948  	0,008646  	0,011767  	0,003966  	0,004300  	0,004510  	0,000001  	-0,000000  	26,745285  	25,279050  	26,191222  	26,110432  	29,232284  	27,772271  	28,957390  	28,616059  	31,705638  	30,629220  	33,072349  	59,308459  	25,395393  	24,265449  	28,431559  	64,545544  	0,249913  	0,126633  	-3574,549353  	-27033,657855  	-0,103399  	-0,049991  	0,430570  	0,218173  	-4,465801  	16724,551958  	101021,984565  	14,652000  	-0,047944  
25,582000  	23,943704  	30,718943  	23,228484  	956,927186  	70,094328  	65,210986  	0,008645  	0,011760  	0,003962  	0,004315  	0,004411  	0,000000  	-0,000000  	26,760402  	25,289354  	26,214417  	26,116247  	29,242106  	27,794938  	28,967475  	28,635155  	31,706608  	30,642737  	33,071387  	59,309895  	25,407437  	24,274523  	28,441160  	64,550724  	0,262095  	0,132805  	-3761,844092  	22546,902366  	-0,022184  	-0,049994  	0,351972  	0,178347  	-3,646763  	16710,967577  	101017,896192  	14,651407  	-0,047946  
26,583000  	23,961336  	30,713649  	23,228423  	-242,047242  	70,094827  	65,212541  	0,008654  	0,011748  	0,003961  	0,004351  	0,004514  	-0,000000  	-0,000000  	26,749360  	25,279404  	26,197852  	26,104767  	29,225808  	27,782581  	28,953147  	28,617966  	31,701130  	30,619192  	33,062920  	59,294263  	25,395589  	24,262441  	28,447665  	64,540930  	0,290845  	0,147373  	-4160,363232  	-27039,302199  	-0,103421  	-0,050003  	0,433218  	0,219515  	-4,487581  	16685,087075  	101191,719126  	14,676618  	-0,047954  
27,581000  	23,961981  	30,705062  	23,227409  	657,183579  	70,094733  	65,206850  	0,008657  	0,011765  	0,003963  	0,004358  	0,004464  	0,000001  	-0,000000  	26,766922  	25,289380  	26,197476  	26,124898  	29,238529  	27,787013  	28,966077  	28,632302  	31,711070  	30,633043  	33,075546  	59,313382  	25,394011  	24,285558  	28,442183  	64,534466  	0,296433  	0,150205  	-4234,498410  	18525,100932  	-0,027602  	-0,049989  	0,394132  	0,199710  	-4,087380  	16720,723259  	101258,594741  	14,686318  	-0,047942  
28,580000  	23,963579  	30,697244  	23,226427  	1256,670793  	70,093425  	65,209213  	0,008646  	0,011757  	0,003961  	0,004327  	0,004479  	0,000000  	-0,000000  	26,765235  	25,280607  	26,210409  	26,120800  	29,235104  	27,779144  	28,966158  	28,624463  	31,708974  	30,632487  	33,073361  	59,302401  	25,395572  	24,291331  	28,434029  	64,542007  	0,271661  	0,137653  	-3875,218282  	25591,687189  	-0,018544  	-0,049998  	0,406021  	0,205734  	-4,207519  	16702,739978  	101025,734006  	14,652544  	-0,047950  
29,585000  	23,963302  	30,695644  	23,226550  	1256,670793  	70,090809  	65,205046  	0,008649  	0,011748  	0,003963  	0,004325  	0,004467  	0,000001  	-0,000000  	26,766837  	25,294433  	26,208963  	26,117160  	29,236575  	27,781545  	28,960008  	28,629557  	31,710918  	30,636185  	33,083323  	59,304162  	25,414673  	24,290666  	28,437863  	64,536701  	0,270197  	0,136911  	-3853,570729  	25589,449222  	-0,018543  	-0,049993  	0,396249  	0,200782  	-4,107550  	16683,362321  	101091,395112  	14,662067  	-0,047945  
30,580000  	23,970736  	30,696013  	23,225260  	657,183579  	70,092553  	65,203304  	0,008650  	0,011743  	0,003963  	0,004363  	0,004476  	0,000001  	-0,000000  	26,763708  	25,293809  	26,206090  	26,125513  	29,239886  	27,782358  	28,959239  	28,633605  	31,711233  	30,630186  	33,081504  	59,303294  	25,418485  	24,289700  	28,445031  	64,542055  	0,301091  	0,152565  	-4289,684646  	18525,743439  	-0,027603  	-0,049991  	0,403462  	0,204437  	-4,185306  	16672,948006  	101106,894212  	14,664315  	-0,047943  
31,581000  	23,965391  	30,697213  	23,223786  	-242,047242  	70,095605  	65,202744  	0,008644  	0,011768  	0,003963  	0,004342  	0,004462  	0,000001  	-0,000000  	26,755738  	25,286603  	26,200772  	26,113807  	29,236154  	27,780138  	28,967721  	28,624906  	31,712103  	30,632874  	33,066786  	59,301333  	25,403937  	24,279957  	28,440429  	64,528992  	0,283920  	0,143864  	-4048,973722  	-27034,445120  	-0,103404  	-0,049993  	0,392322  	0,198793  	-4,072753  	16727,148992  	100976,963034  	14,645470  	-0,047945  
32,582000  	23,946530  	30,696290  	23,224216  	-242,047242  	70,097412  	65,204113  	0,008645  	0,011756  	0,003962  	0,004342  	0,004501  	-0,000000  	-0,000000  	26,759124  	25,285492  	26,203952  	26,119162  	29,239656  	27,788563  	28,959996  	28,621753  	31,715816  	30,633251  	33,072775  	59,301639  	25,402518  	24,270855  	28,439492  	64,536684  	0,283755  	0,143781  	-4057,408083  	-27038,968483  	-0,103421  	-0,050002  	0,422908  	0,214291  	-4,390664  	16701,102948  	101008,328410  	14,650019  	-0,047953  
33,583000  	23,936393  	30,699122  	23,222956  	956,927186  	70,097194  	65,204019  	0,008645  	0,011752  	0,003963  	0,004384  	0,004444  	0,000002  	-0,000000  	26,766767  	25,293920  	26,215875  	26,119576  	29,237623  	27,783573  	28,962163  	28,634716  	31,711863  	30,633213  	33,080697  	59,298560  	25,406550  	24,280790  	28,452102  	64,537904  	0,317593  	0,160927  	-4549,990657  	22539,827040  	-0,022177  	-0,049976  	0,378053  	0,191562  	-3,924878  	16693,071312  	101001,683922  	14,649056  	-0,047931  
34,585000  	23,943151  	30,695982  	23,220500  	-242,047242  	70,098814  	65,207441  	0,008655  	0,011767  	0,003965  	0,004293  	0,004499  	0,000000  	-0,000000  	26,766427  	25,287381  	26,213335  	26,119247  	29,238619  	27,783730  	28,961051  	28,635270  	31,702240  	30,637345  	33,075050  	59,295230  	25,399202  	24,276481  	28,447423  	64,525169  	0,243901  	0,123587  	-3489,133415  	-27035,857266  	-0,103411  	-0,049996  	0,421580  	0,213618  	-4,375159  	16724,912048  	101223,261030  	14,681193  	-0,047948  
35,583000  	23,936240  	30,689519  	23,218012  	657,183579  	70,098876  	65,204548  	0,008644  	0,011775  	0,003964  	0,004337  	0,004433  	-0,000001  	-0,000000  	26,770449  	25,290330  	26,209789  	26,119341  	29,240514  	27,787583  	28,962656  	28,638417  	31,704268  	30,642257  	33,077490  	59,306138  	25,398607  	24,264466  	28,436448  	64,533689  	0,279454  	0,141601  	-3997,993116  	18532,892394  	-0,027614  	-0,050011  	0,369311  	0,187133  	-3,835021  	16741,251224  	100997,164822  	14,648400  	-0,047961  
36,583000  	23,926840  	30,685764  	23,217214  	1256,670793  	70,097194  	65,201127  	0,008647  	0,011741  	0,003965  	0,004319  	0,004534  	0,000000  	-0,000000  	26,770208  	25,285661  	26,212156  	26,118611  	29,239124  	27,785944  	28,959843  	28,635262  	31,711096  	30,640430  	33,073065  	59,299713  	25,387140  	24,259486  	28,439286  	64,540041  	0,264966  	0,134260  	-3793,899972  	25590,215205  	-0,018543  	-0,049994  	0,449492  	0,227761  	-4,669302  	16668,163548  	101057,756064  	14,657188  	-0,047946  
37,582000  	23,951476  	30,684902  	23,217920  	57,696365  	70,096633  	65,205823  	0,008658  	0,011749  	0,003964  	0,004291  	0,004426  	0,000001  	-0,000000  	26,761674  	25,290259  	26,210893  	26,110436  	29,237479  	27,777721  	28,964838  	28,632540  	31,705577  	30,636033  	33,073657  	59,304255  	25,390172  	24,256234  	28,432377  	64,540595  	0,242319  	0,122785  	-3456,533660  	1872,232706  	-0,053988  	-0,049992  	0,363596  	0,184237  	-3,772958  	16685,232101  	101286,655526  	14,690387  	-0,047944  
38,582000  	23,952459  	30,681763  	23,217306  	1256,670793  	70,090404  	65,208187  	0,008650  	0,011772  	0,003961  	0,004352  	0,004444  	-0,000000  	-0,000000  	26,765601  	25,295077  	26,212947  	26,121781  	29,243406  	27,782141  	28,971625  	28,640952  	31,707823  	30,631031  	33,078092  	59,307904  	25,404230  	24,265894  	28,435176  	64,539325  	0,292090  	0,148004  	-4163,932693  	25593,555725  	-0,018545  	-0,050001  	0,377528  	0,191296  	-3,910650  	16736,473132  	101113,503395  	14,665274  	-0,047952  
39,585000  	23,939741  	30,677700  	23,216753  	1256,670793  	70,085887  	65,210271  	0,008651  	0,011747  	0,003964  	0,004296  	0,004520  	0,000001  	-0,000000  	26,766728  	25,297128  	26,214135  	26,126932  	29,244976  	27,784206  	28,968687  	28,639020  	31,713854  	30,630039  	33,076007  	59,303111  	25,407655  	24,264632  	28,444320  	64,538180  	0,246443  	0,124875  	-3517,734129  	25587,032831  	-0,018541  	-0,049987  	0,438083  	0,221980  	-4,531780  	16682,850837  	101133,048502  	14,668109  	-0,047940  
40,582000  	23,931386  	30,679239  	23,216139  	1256,670793  	70,085451  	65,205108  	0,008642  	0,011758  	0,003965  	0,004292  	0,004405  	0,000000  	-0,000000  	26,762778  	25,296936  	26,205707  	26,116955  	29,233815  	27,780812  	28,963642  	28,623550  	31,708990  	30,631227  	33,070531  	59,300542  	25,396937  	24,250801  	28,444337  	64,533142  	0,243136  	0,123199  	-3475,618097  	25591,976207  	-0,018544  	-0,049998  	0,347099  	0,175878  	-3,594071  	16705,305885  	100934,179870  	14,639265  	-0,047949  
41,582000  	23,948404  	30,683763  	23,215248  	57,696365  	70,087320  	65,196679  	0,008651  	0,011698  	0,003963  	0,004315  	0,004494  	-0,000000  	-0,000000  	26,766699  	25,296812  	26,205771  	26,120604  	29,231821  	27,785906  	28,968804  	28,625049  	31,710943  	30,639101  	33,078509  	59,300913  	25,397263  	24,250933  	28,443449  	64,535870  	0,261841  	0,132677  	-3736,080119  	1872,755650  	-0,053998  	-0,050003  	0,417866  	0,211736  	-4,335952  	16576,010199  	101133,055563  	14,668110  	-0,047954  
42,586000  	23,990181  	30,680254  	23,214634  	1256,670793  	70,090995  	65,195933  	0,008643  	0,011759  	0,003966  	0,004307  	0,004480  	0,000000  	-0,000000  	26,761970  	25,296412  	26,212367  	26,126979  	29,238122  	27,788231  	28,970005  	28,635252  	31,713416  	30,646679  	33,084669  	59,298531  	25,403246  	24,244533  	28,443805  	64,543532  	0,255700  	0,129565  	-3623,915509  	25592,480484  	-0,018545  	-0,049999  	0,406257  	0,205854  	-4,219312  	16707,347575  	100972,902905  	14,644881  	-0,047950  
43,582000  	23,986402  	30,678500  	23,214910  	1256,670793  	70,090061  	65,195155  	0,008650  	0,011752  	0,003965  	0,004344  	0,004440  	0,000000  	-0,000000  	26,757394  	25,290143  	26,211145  	26,126172  	29,236628  	27,785399  	28,959510  	28,631384  	31,707771  	30,641497  	33,075737  	59,290606  	25,394471  	24,223229  	28,442118  	64,540489  	0,285141  	0,144483  	-4042,389961  	25592,171643  	-0,018544  	-0,049998  	0,374474  	0,189749  	-3,889091  	16692,107063  	101121,221170  	14,666393  	-0,047950  
44,581000  	23,976388  	30,681085  	23,214235  	1256,670793  	70,088441  	65,198079  	0,008649  	0,011780  	0,003962  	0,004328  	0,004484  	-0,000000  	-0,000000  	26,770239  	25,289945  	26,213946  	26,130006  	29,240377  	27,789545  	28,963431  	28,634033  	31,715766  	30,638927  	33,079878  	59,292871  	25,394510  	24,217137  	28,443333  	64,540670  	0,272269  	0,137961  	-3867,181784  	25593,226247  	-0,018545  	-0,050000  	0,409724  	0,207610  	-4,251234  	16752,566117  	101088,902546  	14,661706  	-0,047952  
45,581000  	23,968493  	30,691212  	23,214204  	1256,670793  	70,091587  	65,200101  	0,008648  	0,011747  	0,003964  	0,004314  	0,004488  	0,000001  	-0,000000  	26,767894  	25,292032  	26,209468  	26,129223  	29,241324  	27,793763  	28,973931  	28,640433  	31,720277  	30,638102  	33,080092  	59,305304  	25,392226  	24,218267  	28,451586  	64,539266  	0,261186  	0,132345  	-3719,725365  	25589,405806  	-0,018542  	-0,049992  	0,413127  	0,209335  	-4,287527  	16681,184802  	101079,447742  	14,660334  	-0,047944  
46,583000  	23,953810  	30,696998  	23,213651  	657,183579  	70,091213  	65,202775  	0,008648  	0,011776  	0,003967  	0,004326  	0,004427  	0,000001  	-0,000000  	26,763220  	25,297977  	26,209794  	26,127835  	29,242807  	27,793786  	28,974672  	28,637503  	31,730833  	30,640574  	33,081113  	59,309753  	25,391373  	24,225223  	28,451177  	64,544191  	0,270534  	0,137082  	-3864,597399  	18526,713128  	-0,027604  	-0,049992  	0,364475  	0,184682  	-3,780251  	16744,352668  	101065,544450  	14,658318  	-0,047945  
47,582000  	23,959155  	30,699122  	23,211348  	-242,047242  	70,087382  	65,203802  	0,008655  	0,011761  	0,003962  	0,004330  	0,004499  	-0,000000  	-0,000000  	26,764152  	25,291817  	26,211196  	26,125485  	29,243525  	27,793815  	28,973377  	28,633716  	31,721968  	30,635188  	33,083994  	59,311790  	25,386335  	24,209692  	28,439955  	64,534087  	0,273781  	0,138727  	-3909,105553  	-27039,928283  	-0,103430  	-0,050005  	0,421806  	0,213732  	-4,370523  	16711,232869  	101215,952798  	14,680133  	-0,047955  
48,581000  	23,955162  	30,698568  	23,208523  	956,927186  	70,084890  	65,204237  	0,008652  	0,011767  	0,003967  	0,004333  	0,004460  	0,000000  	-0,000000  	26,765786  	25,290577  	26,206823  	26,125720  	29,231335  	27,792467  	28,964713  	28,635127  	31,712374  	30,629548  	33,079755  	59,304830  	25,384426  	24,203681  	28,437500  	64,534419  	0,276536  	0,140123  	-3950,462869  	22547,784401  	-0,022185  	-0,049994  	0,390542  	0,197891  	-4,044159  	16724,906388  	101156,328926  	14,671485  	-0,047947  
49,581000  	23,930403  	30,694997  	23,205083  	1256,670793  	70,086510  	65,200692  	0,008645  	0,011780  	0,003963  	0,004323  	0,004486  	0,000000  	-0,000000  	26,768385  	25,294314  	26,210034  	26,128821  	29,241843  	27,789874  	28,968162  	28,629504  	31,716174  	30,637867  	33,079028  	59,298216  	25,381176  	24,199624  	28,445736  	64,531394  	0,268360  	0,135980  	-3845,716205  	25593,217877  	-0,018545  	-0,050000  	0,411379  	0,208449  	-4,264435  	16752,074442  	101004,388320  	14,649448  	-0,047951  
50,584000  	23,961981  	30,694689  	23,203056  	657,183579  	70,082959  	65,194533  	0,008646  	0,011729  	0,003962  	0,004320  	0,004514  	0,000001  	-0,000000  	26,764485  	25,288637  	26,199714  	26,117985  	29,239419  	27,778008  	28,970483  	28,635409  	31,701195  	30,636548  	33,080992  	59,295670  	25,373764  	24,187053  	28,424477  	64,531201  	0,265986  	0,134777  	-3793,720061  	18526,411631  	-0,027603  	-0,049990  	0,433211  	0,219511  	-4,493141  	16642,357328  	101032,639755  	14,653546  	-0,047943  
51,583000  	23,994788  	30,689426  	23,200200  	-242,047242  	70,080685  	65,194565  	0,008653  	0,011777  	0,003963  	0,004330  	0,004402  	0,000000  	-0,000000  	26,765171  	25,287663  	26,206340  	26,128002  	29,241375  	27,782631  	28,970055  	28,628558  	31,716276  	30,639392  	33,076480  	59,292161  	25,375077  	24,179540  	28,438781  	64,538258  	0,274205  	0,138942  	-3888,832049  	-27035,794072  	-0,103418  	-0,049997  	0,344499  	0,174560  	-3,571366  	16745,708842  	101171,983370  	14,673756  	-0,047948  
52,581000  	23,997983  	30,681793  	23,196269  	956,927186  	70,079626  	65,197301  	0,008646  	0,011774  	0,003966  	0,004328  	0,004507  	-0,000001  	-0,000000  	26,772000  	25,295388  	26,209530  	26,131192  	29,249629  	27,792547  	28,965399  	28,638582  	31,720769  	30,643670  	33,084727  	59,302405  	25,371209  	24,152400  	28,442208  	64,534714  	0,272769  	0,138214  	-3862,197762  	22553,113749  	-0,022190  	-0,050007  	0,427720  	0,216729  	-4,430656  	16740,492841  	101020,339330  	14,651761  	-0,047957  
53,584000  	23,982378  	30,688534  	23,188991  	57,696365  	70,081308  	65,207316  	0,008648  	0,011734  	0,003965  	0,004335  	0,004454  	-0,000001  	-0,000000  	26,776569  	25,298580  	26,217169  	26,139524  	29,251732  	27,802863  	28,973406  	28,652410  	31,719430  	30,653342  	33,086968  	59,314481  	25,351561  	24,144042  	28,454345  	64,538028  	0,278158  	0,140945  	-3951,680651  	1874,532221  	-0,054009  	-0,050011  	0,385869  	0,195523  	-3,990314  	16653,577423  	101067,909916  	14,658661  	-0,047961  
54,582000  	23,958848  	30,700291  	23,187087  	1256,670793  	70,085607  	65,204828  	0,008656  	0,011766  	0,003964  	0,004375  	0,004448  	0,000000  	-0,000000  	26,776907  	25,299582  	26,222419  	26,129512  	29,251674  	27,787519  	28,979479  	28,638891  	31,722893  	30,643813  	33,094717  	59,305054  	25,349185  	24,137009  	28,445353  	64,540451  	0,310319  	0,157241  	-4431,788585  	25593,685951  	-0,018545  	-0,049999  	0,381189  	0,193151  	-3,947403  	16722,497534  	101241,111474  	14,683782  	-0,047951  
55,583000  	23,947144  	30,706662  	23,184968  	1256,670793  	70,086292  	65,200349  	0,008652  	0,011713  	0,003962  	0,004317  	0,004455  	-0,000001  	-0,000000  	26,768703  	25,289485  	26,213869  	26,123929  	29,246944  	27,789464  	28,969628  	28,628733  	31,710518  	30,642072  	33,082271  	59,300607  	25,339406  	24,111734  	28,449287  	64,533206  	0,263412  	0,133473  	-3771,969115  	25599,643616  	-0,018549  	-0,050012  	0,386671  	0,195929  	-4,008412  	16608,095711  	101164,187923  	14,672625  	-0,047962  
56,583000  	23,936946  	30,706170  	23,184231  	1256,670793  	70,085794  	65,203646  	0,008647  	0,011771  	0,003963  	0,004328  	0,004428  	-0,000001  	-0,000000  	26,767018  	25,293719  	26,213534  	26,127759  	29,247363  	27,784468  	28,969601  	28,630145  	31,711065  	30,639352  	33,081161  	59,301637  	25,326389  	24,114640  	28,445615  	64,533948  	0,272695  	0,138177  	-3910,512635  	25598,230006  	-0,018548  	-0,050009  	0,365389  	0,185146  	-3,784856  	16732,797242  	101060,721723  	14,657618  	-0,047959  
57,582000  	23,927516  	30,699583  	23,184139  	1256,670793  	70,081869  	65,201282  	0,008649  	0,011756  	0,003967  	0,004341  	0,004513  	-0,000000  	-0,000000  	26,768301  	25,290798  	26,217126  	26,120264  	29,244246  	27,786716  	28,969199  	28,636681  	31,721350  	30,643094  	33,081282  	59,297607  	25,332793  	24,098198  	28,442288  	64,526725  	0,283284  	0,143542  	-4064,064596  	25595,093639  	-0,018546  	-0,050002  	0,432168  	0,218983  	-4,475143  	16700,384890  	101096,352000  	14,662786  	-0,047953  
58,581000  	23,921986  	30,690227  	23,182849  	1256,670793  	70,078380  	65,197550  	0,008648  	0,011745  	0,003963  	0,004307  	0,004397  	-0,000000  	-0,000000  	26,774902  	25,299585  	26,224076  	26,129242  	29,251176  	27,785139  	28,985346  	28,644682  	31,716492  	30,647372  	33,089430  	59,302617  	25,337348  	24,093709  	28,445874  	64,534882  	0,255201  	0,129312  	-3659,122138  	25594,273364  	-0,018546  	-0,050000  	0,341071  	0,172823  	-3,531998  	16678,149150  	101080,337440  	14,660463  	-0,047952  
59,582000  	23,915628  	30,683578  	23,182296  	1256,670793  	70,081900  	65,195529  	0,008650  	0,011760  	0,003961  	0,004360  	0,004479  	0,000001  	-0,000000  	26,766509  	25,300026  	26,219332  	26,126784  	29,254450  	27,786352  	28,978754  	28,641310  	31,711828  	30,643703  	33,079925  	59,305211  	25,329811  	24,066504  	28,441606  	64,535346  	0,298357  	0,151180  	-4277,714140  	25590,735863  	-0,018543  	-0,049993  	0,405590  	0,205515  	-4,204896  	16709,095674  	101124,066791  	14,666806  	-0,047945  
60,583000  	23,905860  	30,678408  	23,182357  	1256,670793  	70,080841  	65,188997  	0,008649  	0,011727  	0,003964  	0,004346  	0,004514  	0,000001  	-0,000000  	26,775890  	25,295363  	26,216178  	26,124680  	29,246122  	27,788656  	28,973004  	28,643844  	31,714850  	30,647390  	33,082275  	59,303530  	25,326590  	24,051921  	28,441484  	64,529634  	0,286805  	0,145326  	-4114,883172  	25587,866269  	-0,018541  	-0,049986  	0,433665  	0,219741  	-4,500998  	16637,908199  	101101,139421  	14,663481  	-0,047940  
61,582000  	23,901989  	30,671390  	23,181989  	1256,670793  	70,082679  	65,183524  	0,008655  	0,011753  	0,003964  	0,004296  	0,004464  	0,000000  	-0,000000  	26,778348  	25,296856  	26,212708  	26,132122  	29,244233  	27,793026  	28,976854  	28,639941  	31,714947  	30,648716  	33,077717  	59,306665  	25,334624  	24,045117  	28,441420  	64,536905  	0,246329  	0,124817  	-3532,515581  	25593,870205  	-0,018545  	-0,049999  	0,393434  	0,199356  	-4,089538  	16695,360607  	101223,458740  	14,681221  	-0,047951  
62,583000  	23,913048  	30,664434  	23,182173  	657,183579  	70,083738  	65,184830  	0,008654  	0,011747  	0,003961  	0,004351  	0,004476  	-0,000000  	-0,000000  	26,778724  	25,295683  	26,211319  	26,125129  	29,248950  	27,794507  	28,973994  	28,637820  	31,713418  	30,643882  	33,082077  	59,302176  	25,336729  	24,046707  	28,442415  	64,536225  	0,290995  	0,147450  	-4161,955404  	18531,280428  	-0,027610  	-0,050002  	0,403314  	0,204362  	-4,192031  	16681,889418  	101211,066522  	14,679424  	-0,047953  
63,581000  	23,925857  	30,657602  	23,183739  	657,183579  	70,083644  	65,185047  	0,008643  	0,011758  	0,003965  	0,004287  	0,004496  	0,000001  	-0,000000  	26,767169  	25,291888  	26,211053  	26,123176  	29,249401  	27,788870  	28,963290  	28,635734  	31,713346  	30,640506  	33,082732  	59,301525  	25,331661  	24,038059  	28,441169  	64,531865  	0,238989  	0,121097  	-3408,183229  	18526,168367  	-0,027602  	-0,049987  	0,419417  	0,212522  	-4,359128  	16706,272257  	100971,914352  	14,644738  	-0,047940  
64,584000  	23,945086  	30,652000  	23,182634  	57,696365  	70,081215  	65,187473  	0,008650  	0,011791  	0,003964  	0,004297  	0,004443  	-0,000000  	-0,000000  	26,772093  	25,299936  	26,213023  	26,130068  	29,250741  	27,790918  	28,968406  	28,640053  	31,714609  	30,644157  	33,081788  	59,310066  	25,335212  	24,029554  	28,451110  	64,526764  	0,246886  	0,125099  	-3507,810269  	1874,531337  	-0,053999  	-0,050000  	0,377010  	0,191034  	-3,914496  	16776,762190  	101106,152797  	14,664208  	-0,047952  
65,583000  	23,961398  	30,653631  	23,181958  	57,696365  	70,081090  	65,188064  	0,008648  	0,011738  	0,003963  	0,004323  	0,004542  	0,000000  	-0,000000  	26,778691  	25,306100  	26,213931  	26,129963  	29,247411  	27,794390  	28,974797  	28,642100  	31,717346  	30,646557  	33,084335  	59,304822  	25,340212  	24,027006  	28,450955  	64,526316  	0,267923  	0,135759  	-3798,379357  	1874,484846  	-0,053996  	-0,049998  	0,455527  	0,230819  	-4,729045  	16662,403521  	101079,242971  	14,660305  	-0,047949  
66,583000  	23,930065  	30,659417  	23,183678  	1256,670793  	70,078100  	65,190801  	0,008642  	0,011779  	0,003965  	0,004329  	0,004430  	0,000000  	-0,000000  	26,771303  	25,298038  	26,214694  	26,124643  	29,245083  	27,791978  	28,968196  	28,634475  	31,711174  	30,643242  	33,083305  	59,299825  	25,333309  	24,019430  	28,446941  	64,526600  	0,272941  	0,138301  	-3890,987933  	25593,071291  	-0,018545  	-0,049998  	0,366721  	0,185820  	-3,802647  	16751,410150  	100950,766378  	14,641671  	-0,047950  
67,585000  	23,905921  	30,668374  	23,184968  	1256,670793  	70,078754  	65,187784  	0,008652  	0,011732  	0,003964  	0,004315  	0,004508  	-0,000000  	-0,000000  	26,772597  	25,297738  	26,216847  	26,120916  	29,248425  	27,788818  	28,965563  	28,632062  	31,706797  	30,641495  	33,082432  	59,303180  	25,330538  	24,022271  	28,445448  	64,527815  	0,261768  	0,132640  	-3750,064240  	25595,479050  	-0,018546  	-0,050003  	0,428221  	0,216983  	-4,443698  	16650,219884  	101167,323049  	14,673080  	-0,047954  
68,581000  	23,879504  	30,676069  	23,185213  	1256,670793  	70,085794  	65,184114  	0,008650  	0,011796  	0,003963  	0,004327  	0,004517  	0,000000  	-0,000000  	26,772427  	25,302087  	26,216519  	26,119058  	29,245249  	27,787175  	28,964400  	28,633740  	31,714521  	30,639204  	33,081339  	59,298139  	25,332979  	24,035131  	28,438483  	64,530367  	0,271637  	0,137640  	-3911,084613  	25592,397317  	-0,018544  	-0,049996  	0,435469  	0,220656  	-4,528809  	16786,844713  	101117,033942  	14,665786  	-0,047948  
69,583000  	23,863623  	30,669297  	23,185582  	1256,670793  	70,088223  	65,181689  	0,008649  	0,011736  	0,003964  	0,004313  	0,004430  	0,000000  	-0,000000  	26,766880  	25,292935  	26,213261  	26,120168  	29,238554  	27,788811  	28,959692  	28,628779  	31,716065  	30,635464  	33,078417  	59,296189  	25,327518  	24,046479  	28,440211  	64,525274  	0,259932  	0,131709  	-3747,569957  	25592,576526  	-0,018544  	-0,049997  	0,366867  	0,185894  	-3,819135  	16658,353392  	101088,464758  	14,661642  	-0,047949  
70,584000  	23,863193  	30,658463  	23,184722  	1256,670793  	70,087538  	65,192076  	0,008646  	0,011726  	0,003962  	0,004359  	0,004466  	-0,000001  	-0,000000  	26,772054  	25,291770  	26,211806  	26,122547  	29,238353  	27,788606  	28,963899  	28,627768  	31,712197  	30,638567  	33,078398  	59,300193  	25,328679  	24,065740  	28,439677  	64,522746  	0,297186  	0,150586  	-4278,132842  	25599,910240  	-0,018550  	-0,050013  	0,395432  	0,200368  	-4,107210  	16636,444493  	101035,464192  	14,653955  	-0,047962  
71,581000  	23,884112  	30,647475  	23,184354  	357,439972  	70,082492  	65,187909  	0,008648  	0,011737  	0,003963  	0,004320  	0,004496  	0,000001  	-0,000000  	26,765661  	25,295072  	26,214948  	26,122621  	29,240310  	27,783029  	28,962309  	28,630159  	31,711317  	30,638943  	33,071160  	59,295743  	25,329181  	24,071267  	28,436435  	64,521584  	0,266197  	0,134884  	-3814,038066  	12584,683229  	-0,036531  	-0,049991  	0,419231  	0,212427  	-4,353621  	16659,391216  	101070,127099  	14,658983  	-0,047944  
72,581000  	23,908071  	30,635472  	23,186319  	-242,047242  	70,078256  	65,189775  	0,008655  	0,011771  	0,003964  	0,004333  	0,004432  	-0,000000  	-0,000000  	26,772450  	25,293790  	26,217625  	26,123086  	29,239892  	27,785615  	28,960645  	28,635644  	31,715025  	30,639296  	33,076757  	59,291157  	25,325468  	24,082342  	28,442057  	64,520396  	0,276163  	0,139934  	-3935,778117  	-27039,116419  	-0,103437  	-0,050004  	0,368631  	0,186788  	-3,823384  	16732,781678  	101228,041390  	14,681886  	-0,047955  
73,581000  	23,928406  	30,626362  	23,187517  	57,696365  	70,077290  	65,185670  	0,008646  	0,011813  	0,003961  	0,004325  	0,004474  	0,000000  	-0,000000  	26,774492  	25,307937  	26,225900  	26,127472  	29,245505  	27,799867  	28,970690  	28,651374  	31,723027  	30,644921  	33,094095  	59,308046  	25,328858  	24,088810  	28,461135  	64,539135  	0,269605  	0,136611  	-3825,504736  	1874,183745  	-0,053996  	-0,049998  	0,401544  	0,203466  	-4,167426  	16823,402699  	101024,921980  	14,652426  	-0,047950  
74,584000  	23,955561  	30,630240  	23,188561  	657,183579  	70,073490  	65,185296  	0,008652  	0,011744  	0,003963  	0,004364  	0,004451  	0,000001  	-0,000000  	26,778074  	25,298795  	26,214224  	26,128735  	29,240295  	27,794869  	28,976764  	28,638953  	31,713942  	30,644049  	33,083643  	59,312200  	25,324896  	24,090126  	28,450675  	64,529476  	0,301217  	0,152629  	-4259,195254  	18524,633036  	-0,027600  	-0,049983  	0,383192  	0,194166  	-3,974166  	16674,684786  	101152,685402  	14,670957  	-0,047936  
75,584000  	23,952889  	30,639012  	23,189851  	657,183579  	70,074331  	65,191859  	0,008645  	0,011752  	0,003964  	0,004363  	0,004516  	-0,000000  	-0,000000  	26,775289  	25,299188  	26,213077  	26,118796  	29,243508  	27,794792  	28,963451  	28,630913  	31,712169  	30,643513  	33,081089  	59,309290  	25,307132  	24,079267  	28,446591  	64,522512  	0,300820  	0,152428  	-4260,869020  	18530,798422  	-0,027609  	-0,050001  	0,434918  	0,220376  	-4,505349  	16693,610386  	101013,631292  	14,650789  	-0,047953  
76,589000  	23,941523  	30,649599  	23,189789  	57,696365  	70,075078  	65,194222  	0,008649  	0,011714  	0,003962  	0,004323  	0,004460  	0,000001  	-0,000000  	26,765165  	25,291984  	26,211032  	26,113949  	29,237572  	27,781273  	28,964287  	28,629203  	31,706449  	30,633419  	33,071786  	59,302141  	25,303203  	24,071769  	28,438259  	64,520916  	0,268557  	0,136080  	-3816,387964  	1873,711849  	-0,053986  	-0,049988  	0,390295  	0,197765  	-4,041764  	16609,991667  	101095,730624  	14,662696  	-0,047941  
77,582000  	23,941554  	30,665727  	23,190219  	1256,670793  	70,073708  	65,191765  	0,008649  	0,011725  	0,003963  	0,004362  	0,004490  	-0,000000  	-0,000000  	26,760825  	25,297332  	26,225065  	26,119909  	29,246336  	27,786361  	28,964543  	28,642248  	31,715706  	30,633893  	33,084101  	59,307512  	25,319953  	24,084032  	28,444458  	64,535348  	0,299570  	0,151794  	-4267,314167  	25594,886840  	-0,018546  	-0,050002  	0,413962  	0,209757  	-4,287802  	16633,710213  	101097,622997  	14,662971  	-0,047953  
78,586000  	23,927915  	30,669728  	23,189666  	1256,670793  	70,077072  	65,186478  	0,008642  	0,011786  	0,003963  	0,004309  	0,004517  	0,000000  	-0,000000  	26,760232  	25,279914  	26,207359  	26,122109  	29,230004  	27,778259  	28,957332  	28,621934  	31,711734  	30,621547  	33,070824  	59,297075  	25,309013  	24,051583  	28,450545  	64,519983  	0,257077  	0,130263  	-3671,618663  	25593,086784  	-0,018545  	-0,049998  	0,435950  	0,220899  	-4,523552  	16765,434563  	100950,589850  	14,641645  	-0,047950  
79,581000  	23,916027  	30,669082  	23,188192  	357,439972  	70,081993  	65,180724  	0,008652  	0,011749  	0,003964  	0,004339  	0,004476  	0,000000  	-0,000000  	26,754669  	25,283336  	26,199416  	26,115779  	29,233801  	27,777302  	28,958905  	28,614009  	31,696498  	30,636811  	33,070498  	59,299001  	25,309838  	24,055179  	28,444470  	64,538936  	0,280958  	0,142363  	-4019,385169  	12585,621678  	-0,036534  	-0,049996  	0,403497  	0,204455  	-4,195943  	16686,992227  	101151,287306  	14,670754  	-0,047948  
80,582000  	23,939311  	30,667851  	23,190219  	-242,047242  	70,088161  	65,180538  	0,008647  	0,011778  	0,003964  	0,004342  	0,004475  	0,000001  	-0,000000  	26,776217  	25,300929  	26,218426  	26,118643  	29,245699  	27,786020  	28,966510  	28,632314  	31,711889  	30,644068  	33,080630  	59,305490  	25,322700  	24,055867  	28,444714  	64,528848  	0,283777  	0,143792  	-4044,968079  	-27032,781255  	-0,103411  	-0,049991  	0,402081  	0,203738  	-4,186647  	16747,732138  	101043,782160  	14,655162  	-0,047943  
81,582000  	23,958264  	30,663911  	23,192768  	1256,670793  	70,087600  	65,181937  	0,008648  	0,011747  	0,003964  	0,004285  	0,004466  	0,000000  	-0,000000  	26,758416  	25,284423  	26,211231  	26,113954  	29,236750  	27,783576  	28,965291  	28,619186  	31,705005  	30,621640  	33,069481  	59,305978  	25,318368  	24,043376  	28,445159  	64,529469  	0,237888  	0,120540  	-3379,331247  	25592,470672  	-0,018544  	-0,049997  	0,395114  	0,200207  	-4,112459  	16682,285588  	101068,954958  	14,658813  	-0,047949  
82,582000  	23,932461  	30,660649  	23,192952  	1256,670793  	70,084672  	65,187287  	0,008648  	0,011748  	0,003967  	0,004326  	0,004475  	0,000000  	-0,000000  	26,771668  	25,299852  	26,216778  	26,122617  	29,248016  	27,791920  	28,970298  	28,633309  	31,715805  	30,636783  	33,080667  	59,306496  	25,323125  	24,053568  	28,459870  	64,537355  	0,270636  	0,137134  	-3857,467205  	25591,418873  	-0,018544  	-0,049995  	0,402811  	0,204107  	-4,185498  	16684,622990  	101080,436295  	14,660478  	-0,047947  
83,585000  	23,903249  	30,667481  	23,194427  	1256,670793  	70,078038  	65,195031  	0,008642  	0,011752  	0,003963  	0,004348  	0,004495  	-0,000000  	-0,000000  	26,767212  	25,295860  	26,212048  	26,113434  	29,236959  	27,787772  	28,967230  	28,628093  	31,705846  	30,633173  	33,072776  	59,304738  	25,319437  	24,038490  	28,450345  	64,525300  	0,288894  	0,146385  	-4139,766688  	25595,336867  	-0,018546  	-0,050003  	0,417930  	0,211768  	-4,329853  	16693,613215  	100946,000140  	14,640979  	-0,047954  
84,582000  	23,929236  	30,676653  	23,194488  	57,696365  	70,075546  	65,198950  	0,008656  	0,011736  	0,003963  	0,004306  	0,004475  	-0,000001  	-0,000000  	26,772996  	25,300582  	26,214826  	26,123955  	29,239472  	27,787146  	28,971679  	28,627775  	31,713157  	30,630727  	33,076209  	59,303076  	25,330163  	24,044132  	28,457471  	64,532067  	0,254792  	0,129105  	-3642,014775  	1874,113665  	-0,054005  	-0,050008  	0,402493  	0,203946  	-4,164450  	16659,175445  	101243,907667  	14,684187  	-0,047958  
85,583000  	23,969292  	30,669420  	23,196177  	57,696365  	70,075390  	65,198079  	0,008646  	0,011767  	0,003963  	0,004372  	0,004433  	0,000001  	-0,000000  	26,758485  	25,289104  	26,195383  	26,109302  	29,236248  	27,771516  	28,959183  	28,618168  	31,695236  	30,628214  	33,066910  	59,293874  	25,318859  	24,028964  	28,443202  	64,518885  	0,308210  	0,156172  	-4374,680097  	1873,312652  	-0,053985  	-0,049987  	0,369324  	0,187139  	-3,821818  	16724,788245  	101025,903472  	14,652568  	-0,047940  
86,583000  	23,987416  	30,662218  	23,196730  	1256,670793  	70,075764  	65,198141  	0,008637  	0,011745  	0,003963  	0,004311  	0,004536  	0,000002  	-0,000000  	26,757004  	25,282198  	26,197513  	26,111101  	29,232473  	27,775503  	28,961952  	28,623770  	31,698345  	30,628629  	33,070169  	59,299334  	25,316055  	24,021169  	28,447248  	64,516751  	0,258578  	0,131023  	-3656,332956  	25584,880811  	-0,018539  	-0,049981  	0,450588  	0,228316  	-4,663046  	16677,638374  	100839,095187  	14,625474  	-0,047935  
87,582000  	23,975528  	30,666558  	23,197743  	357,439972  	70,072867  	65,191361  	0,008646  	0,011771  	0,003964  	0,004350  	0,004485  	-0,000000  	-0,000000  	26,769453  	25,289323  	26,212968  	26,119056  	29,238171  	27,784214  	28,961194  	28,633783  	31,716599  	30,634576  	33,078228  	59,308999  	25,332114  	24,028789  	28,457623  	64,524874  	0,290057  	0,146974  	-4111,431292  	12586,727099  	-0,036538  	-0,050003  	0,410764  	0,208137  	-4,254301  	16734,470352  	101028,170083  	14,652897  	-0,047954  
88,582000  	23,977125  	30,678131  	23,197743  	-242,047242  	70,073614  	65,185576  	0,008648  	0,011711  	0,003965  	0,004373  	0,004445  	-0,000000  	-0,000000  	26,770213  	25,297021  	26,208366  	26,120425  	29,231303  	27,783722  	28,963055  	28,633679  	31,713341  	30,630287  	33,078444  	59,311582  	25,321485  	24,028342  	28,447246  	64,529603  	0,309078  	0,156612  	-4387,572166  	-27039,350015  	-0,103433  	-0,050004  	0,378798  	0,191940  	-3,928470  	16603,972007  	101078,734572  	14,660231  	-0,047955  
89,584000  	23,977740  	30,691027  	23,196423  	1256,670793  	70,077539  	65,185390  	0,008646  	0,011765  	0,003964  	0,004335  	0,004502  	-0,000001  	-0,000000  	26,764181  	25,284975  	26,199251  	26,115153  	29,228858  	27,772587  	28,956401  	28,627178  	31,701193  	30,627240  	33,065489  	59,305583  	25,307190  	24,013697  	28,439255  	64,517539  	0,278288  	0,141011  	-3957,735515  	25597,802244  	-0,018548  	-0,050009  	0,423608  	0,214645  	-4,396888  	16720,519515  	101027,824089  	14,652847  	-0,047959  
90,581000  	23,973869  	30,694351  	23,193229  	1256,670793  	70,076979  	65,181720  	0,008649  	0,011716  	0,003963  	0,004331  	0,004433  	-0,000001  	-0,000000  	26,759668  	25,283039  	26,201420  	26,117819  	29,230450  	27,768245  	28,957634  	28,620311  	31,700984  	30,627270  	33,062692  	59,298942  	25,309869  	24,009177  	28,444631  	64,514693  	0,274909  	0,139299  	-3913,872785  	25597,326821  	-0,018548  	-0,050008  	0,369215  	0,187084  	-3,834747  	16614,855359  	101095,970701  	14,662731  	-0,047958  
91,582000  	23,960691  	30,697306  	23,190833  	1256,670793  	70,075141  	65,179294  	0,008654  	0,011768  	0,003961  	0,004336  	0,004457  	0,000001  	-0,000000  	26,764828  	25,288022  	26,206109  	26,124703  	29,239887  	27,777357  	28,967453  	28,624476  	31,708428  	30,631444  	33,072491  	59,299375  	25,315110  	24,023345  	28,451511  	64,520664  	0,279250  	0,141498  	-3985,217344  	25590,666753  	-0,018543  	-0,049993  	0,388357  	0,196783  	-4,034039  	16727,583364  	101204,386727  	14,678455  	-0,047945  
92,582000  	23,928867  	30,699645  	23,189114  	1256,670793  	70,075826  	65,190615  	0,008649  	0,011745  	0,003964  	0,004355  	0,004490  	0,000001  	-0,000000  	26,768517  	25,289723  	26,202058  	26,122421  	29,246213  	27,782698  	28,967493  	28,631247  	31,710889  	30,634128  	33,079916  	59,303317  	25,313956  	24,038479  	28,450471  	64,521049  	0,294653  	0,149303  	-4226,367864  	25589,363763  	-0,018542  	-0,049990  	0,413950  	0,209751  	-4,290546  	16676,829763  	101099,557736  	14,663251  	-0,047943  
93,582000  	23,901836  	30,697829  	23,188438  	57,696365  	70,071901  	65,192947  	0,008641  	0,011719  	0,003962  	0,004329  	0,004413  	0,000001  	-0,000000  	26,766334  	25,293578  	26,202178  	26,115370  	29,240672  	27,786048  	28,961757  	28,623974  	31,710421  	30,633238  	33,078532  	59,298727  	25,319711  	24,050326  	28,452852  	64,517140  	0,273575  	0,138622  	-3938,653689  	1873,789068  	-0,053986  	-0,049988  	0,353272  	0,179005  	-3,656938  	16620,768194  	100922,359599  	14,637551  	-0,047941  
94,581000  	23,917256  	30,692412  	23,186411  	657,183579  	70,069659  	65,188406  	0,008647  	0,011748  	0,003965  	0,004324  	0,004490  	0,000000  	-0,000000  	26,763902  	25,294888  	26,209879  	26,116104  	29,238811  	27,788367  	28,961592  	28,617644  	31,711536  	30,635345  	33,077310  	59,295444  	25,325231  	24,054615  	28,454623  	64,518848  	0,269037  	0,136323  	-3861,447486  	18529,478158  	-0,027607  	-0,049997  	0,414252  	0,209904  	-4,290196  	16684,959027  	101040,802379  	14,654729  	-0,047949  
95,583000  	23,920021  	30,681055  	23,183739  	657,183579  	70,063709  	65,177365  	0,008641  	0,011734  	0,003963  	0,004312  	0,004499  	-0,000001  	-0,000000  	26,766096  	25,296200  	26,213617  	26,123686  	29,243228  	27,788516  	28,969904  	28,627635  	31,710084  	30,639260  	33,081989  	59,305502  	25,325904  	24,049915  	28,449472  	64,529398  	0,259207  	0,131342  	-3712,602788  	18534,792039  	-0,027615  	-0,050013  	0,421506  	0,213580  	-4,369871  	16653,036935  	100931,496654  	14,638876  	-0,047962  
96,582000  	23,928069  	30,670282  	23,182634  	1256,670793  	70,062775  	65,177054  	0,008647  	0,011736  	0,003966  	0,004316  	0,004441  	-0,000000  	-0,000000  	26,772930  	25,294041  	26,210839  	26,122898  	29,244428  	27,792840  	28,972091  	28,631778  	31,708127  	30,639063  	33,075809  	59,305979  	25,335174  	24,044051  	28,445252  	64,526862  	0,262310  	0,132914  	-3746,576860  	25595,448000  	-0,018546  	-0,050003  	0,375823  	0,190432  	-3,895764  	16658,431919  	101044,806019  	14,655310  	-0,047954  
97,582000  	23,910713  	30,664342  	23,180546  	57,696365  	70,062245  	65,175873  	0,008647  	0,011728  	0,003962  	0,004338  	0,004480  	0,000000  	-0,000000  	26,762666  	25,288725  	26,196351  	26,113755  	29,238905  	27,779899  	28,955974  	28,624771  	31,709979  	30,631987  	33,065935  	59,297229  	25,328152  	24,021923  	28,429808  	64,513924  	0,280868  	0,142318  	-4018,439710  	1874,618306  	-0,053998  	-0,049999  	0,406628  	0,206041  	-4,215651  	16641,866360  	101049,904128  	14,656049  	-0,047951  
98,609000  	23,901498  	30,661818  	23,179563  	657,183579  	70,064612  	65,173571  	0,008652  	0,011716  	0,003965  	0,004265  	0,004445  	0,000001  	-0,000000  	26,766517  	25,298614  	26,205914  	26,115688  	29,239674  	27,783747  	28,960093  	28,631775  	31,713607  	30,636720  	33,071493  	59,302410  	25,330319  	24,011238  	28,447363  	64,517751  	0,221512  	0,112242  	-3172,366727  	18527,148365  	-0,027603  	-0,049989  	0,379022  	0,192053  	-3,933201  	16614,723066  	101153,546856  	14,671082  	-0,047942  
99,585000  	23,912003  	30,661541  	23,178273  	657,183579  	70,067540  	65,176432  	0,008653  	0,011765  	0,003961  	0,004313  	0,004483  	-0,000001  	-0,000000  	26,764183  	25,293048  	26,210791  	26,117384  	29,236229  	27,778709  	28,966193  	28,628024  	31,710014  	30,635932  	33,071354  	59,303253  	25,326287  	23,997957  	28,447859  	64,514586  	0,260232  	0,131861  	-3720,940064  	18534,711662  	-0,027615  	-0,050012  	0,409145  	0,207317  	-4,245862  	16719,745568  	101171,955126  	14,673751  	-0,047961  
100,583000  	23,948988  	30,657109  	23,174833  	1256,670793  	70,072275  	65,173384  	0,008648  	0,011769  	0,003966  	0,004309  	0,004481  	-0,000000  	-0,000000  	26,775066  	25,294168  	26,220150  	26,123021  	29,239901  	27,783398  	28,972935  	28,643247  	31,715877  	30,635120  	33,080745  	59,305962  	25,338035  	23,994870  	28,455599  	64,521485  	0,256923  	0,130185  	-3651,075618  	25594,617945  	-0,018546  	-0,050001  	0,407537  	0,206502  	-4,235899  	16729,759469  	101072,238366  	14,659289  	-0,047952  
101,581000  	23,972087  	30,651138  	23,171118  	-242,047242  	70,076480  	65,174846  	0,008653  	0,011734  	0,003964  	0,004302  	0,004471  	-0,000000  	-0,000000  	26,773352  	25,291484  	26,218219  	26,114343  	29,249168  	27,784695  	28,967751  	28,639362  	31,712389  	30,642999  	33,081282  	59,307431  	25,345825  	23,992447  	28,437211  	64,530158  	0,251454  	0,127414  	-3557,873761  	-27038,665007  	-0,103441  	-0,050004  	0,399146  	0,202250  	-4,151012  	16653,041887  	101183,175203  	14,675379  	-0,047955  
102,581000  	23,964162  	30,652923  	23,171732  	357,439972  	70,080592  	65,180693  	0,008652  	0,011775  	0,003966  	0,004337  	0,004464  	-0,000000  	-0,000000  	26,775236  	25,300787  	26,221002  	26,126675  	29,241761  	27,791730  	28,975458  	28,635703  	31,716679  	30,641897  	33,090309  	59,305509  	25,342429  	23,980625  	28,445083  	64,535320  	0,279265  	0,141505  	-3957,114538  	12588,508174  	-0,036541  	-0,050005  	0,394120  	0,199704  	-4,097292  	16742,601031  	101168,382213  	14,673233  	-0,047956  
103,581000  	23,960200  	30,666035  	23,171271  	1256,670793  	70,085451  	65,187287  	0,008649  	0,011760  	0,003966  	0,004324  	0,004498  	0,000000  	-0,000000  	26,758844  	25,287397  	26,200045  	26,115375  	29,233858  	27,775878  	28,960617  	28,624723  	31,699214  	30,627397  	33,061512  	59,296124  	25,325855  	23,960059  	28,434580  	64,507712  	0,268880  	0,136244  	-3819,694353  	25594,259416  	-0,018545  	-0,049999  	0,421032  	0,213340  	-4,375521  	16710,023136  	101094,629093  	14,662536  	-0,047951  
104,586000  	23,962657  	30,678531  	23,171578  	1256,670793  	70,089127  	65,188282  	0,008654  	0,011767  	0,003963  	0,004357  	0,004479  	-0,000000  	-0,000000  	26,766837  	25,281455  	26,195342  	26,113547  	29,226522  	27,771054  	28,959328  	28,624886  	31,689694  	30,618528  	33,074269  	59,300230  	25,331622  	23,952092  	28,437682  	64,514392  	0,296007  	0,149989  	-4211,357600  	25596,912788  	-0,018547  	-0,050005  	0,405582  	0,205512  	-4,217272  	16724,551250  	101198,349493  	14,677580  	-0,047956  
105,581000  	23,964224  	30,680408  	23,170012  	57,696365  	70,085513  	65,191983  	0,008648  	0,011762  	0,003964  	0,004339  	0,004470  	-0,000001  	-0,000000  	26,751433  	25,287475  	26,202557  	26,111546  	29,221540  	27,779361  	28,962110  	28,614614  	31,701914  	30,621354  	33,070366  	59,297749  	25,325154  	23,956236  	28,452154  	64,515725  	0,281496  	0,142636  	-4005,079408  	1875,479124  	-0,054006  	-0,050007  	0,398534  	0,201940  	-4,137804  	16713,618377  	101070,225954  	14,658997  	-0,047957  
106,582000  	23,961398  	30,680716  	23,169521  	1256,670793  	70,086822  	65,186136  	0,008645  	0,011741  	0,003960  	0,004328  	0,004491  	0,000000  	-0,000000  	26,769374  	25,284854  	26,210368  	26,115155  	29,243885  	27,783150  	28,964130  	28,627042  	31,707265  	30,630454  	33,073153  	59,299405  	25,326191  	23,958160  	28,461796  	64,528565  	0,272719  	0,138189  	-3882,017372  	25593,131705  	-0,018544  	-0,049997  	0,414908  	0,210237  	-4,314097  	16669,559339  	101008,427266  	14,650034  	-0,047949  
107,586000  	23,939834  	30,683578  	23,170258  	1256,670793  	70,083862  	65,192543  	0,008649  	0,011726  	0,003963  	0,004342  	0,004450  	0,000001  	-0,000000  	26,765695  	25,292192  	26,211162  	26,113231  	29,240845  	27,785447  	28,960431  	28,634372  	31,705423  	30,640587  	33,072870  	59,297843  	25,335378  	23,946368  	28,458413  	64,526235  	0,283738  	0,143772  	-4053,551073  	25589,964614  	-0,018542  	-0,049990  	0,382461  	0,193796  	-3,969122  	16637,275035  	101083,804437  	14,660966  	-0,047943  
108,581000  	23,931847  	30,687395  	23,168169  	1256,670793  	70,084236  	65,188375  	0,008653  	0,011773  	0,003962  	0,004392  	0,004453  	-0,000000  	-0,000000  	26,767891  	25,289133  	26,201695  	26,121588  	29,248810  	27,787199  	28,960251  	28,633974  	31,717569  	30,641861  	33,080384  	59,305698  	25,334849  	23,950308  	28,445028  	64,518191  	0,324439  	0,164395  	-4643,131970  	25595,930768  	-0,018547  	-0,050003  	0,385187  	0,195177  	-4,001128  	16738,367673  	101174,927846  	14,674183  	-0,047954  
109,581000  	23,945762  	30,687641  	23,166327  	1256,670793  	70,083551  	65,194378  	0,008638  	0,011771  	0,003966  	0,004314  	0,004485  	-0,000000  	-0,000000  	26,770289  	25,282154  	26,207111  	26,123465  	29,243900  	27,789457  	28,968104  	28,625475  	31,719766  	30,632221  	33,079329  	59,298331  	25,341091  	23,950241  	28,449459  	64,528076  	0,260832  	0,132166  	-3725,289576  	25596,577248  	-0,018547  	-0,050004  	0,410171  	0,207837  	-4,254830  	16733,738853  	100857,595252  	14,628157  	-0,047955  
110,583000  	23,969599  	30,681055  	23,166327  	1256,670793  	70,081246  	65,192076  	0,008651  	0,011744  	0,003961  	0,004371  	0,004439  	-0,000000  	-0,000000  	26,762263  	25,283009  	26,204189  	26,117004  	29,234516  	27,779966  	28,962117  	28,624656  	31,705784  	30,630964  	33,073110  	59,296399  	25,332392  	23,944597  	28,439461  	64,525717  	0,306820  	0,155468  	-4362,312551  	25596,417934  	-0,018547  	-0,050004  	0,373886  	0,189451  	-3,878426  	16676,289274  	101147,029466  	14,670136  	-0,047955  
111,582000  	23,985358  	30,678654  	23,166695  	357,439972  	70,079003  	65,192419  	0,008650  	0,011742  	0,003962  	0,004351  	0,004498  	0,000000  	-0,000000  	26,756254  	25,281723  	26,203950  	26,115640  	29,232569  	27,779889  	28,964034  	28,629502  	31,700981  	30,629652  	33,073120  	59,291272  	25,333840  	23,942067  	28,440933  	64,519228  	0,291128  	0,147517  	-4128,014147  	12586,493196  	-0,036534  	-0,049995  	0,420494  	0,213067  	-4,359605  	16671,381720  	101118,199022  	14,665955  	-0,047947  
112,582000  	23,961582  	30,681178  	23,165713  	956,927186  	70,079190  	65,192045  	0,008645  	0,011733  	0,003964  	0,004298  	0,004422  	0,000001  	-0,000000  	26,764689  	25,289174  	26,204643  	26,116499  	29,227911  	27,775230  	28,963297  	28,628428  	31,708436  	30,636894  	33,071379  	59,299641  	25,342158  	23,940976  	28,446689  	64,520052  	0,248180  	0,125755  	-3532,869182  	22546,797852  	-0,022183  	-0,049988  	0,360230  	0,182531  	-3,735225  	16650,742687  	101018,228063  	14,651455  	-0,047941  
113,582000  	23,937714  	30,689765  	23,163010  	956,927186  	70,076792  	65,191641  	0,008648  	0,011773  	0,003961  	0,004333  	0,004501  	0,000000  	-0,000000  	26,771606  	25,290436  	26,208449  	26,121531  	29,240492  	27,782536  	28,965851  	28,629973  	31,702174  	30,638363  	33,074307  	59,297151  	25,331946  	23,949378  	28,450329  	64,520928  	0,276038  	0,139871  	-3948,413796  	22551,283615  	-0,022187  	-0,049999  	0,422747  	0,214209  	-4,381678  	16738,001924  	101071,454585  	14,659175  	-0,047951  
114,582000  	23,955899  	30,693335  	23,162396  	357,439972  	70,069191  	65,180880  	0,008648  	0,011732  	0,003964  	0,004377  	0,004499  	0,000000  	-0,000000  	26,770190  	25,293594  	26,215189  	26,125249  	29,244051  	27,785833  	28,964365  	28,629268  	31,701471  	30,633401  	33,077816  	59,300161  	25,330537  	23,957276  	28,447819  	64,524865  	0,311859  	0,158021  	-4451,129765  	12586,841536  	-0,036535  	-0,049996  	0,421647  	0,213652  	-4,373101  	16649,453720  	101077,710713  	14,660082  	-0,047948  
115,581000  	23,961336  	30,689088  	23,162304  	1256,670793  	70,069316  	65,180476  	0,008647  	0,011765  	0,003963  	0,004293  	0,004420  	0,000000  	-0,000000  	26,772340  	25,294114  	26,216832  	26,123795  	29,240644  	27,789665  	28,964773  	28,628949  	31,710614  	30,637267  	33,081512  	59,307424  	25,333015  	23,957181  	28,448911  	64,526413  	0,244148  	0,123712  	-3479,685123  	25594,038879  	-0,018545  	-0,049998  	0,358918  	0,181867  	-3,722912  	16720,557717  	101060,990044  	14,657657  	-0,047950  
116,588000  	23,949479  	30,683425  	23,160523  	1256,670793  	70,070562  	65,185141  	0,008650  	0,011763  	0,003964  	0,004335  	0,004470  	0,000001  	-0,000000  	26,769214  	25,292717  	26,214004  	26,123068  	29,232660  	27,790351  	28,971489  	28,631019  	31,709451  	30,638122  	33,082938  	59,302841  	25,331869  	23,955294  	28,453746  	64,528077  	0,277655  	0,140690  	-3960,882003  	25590,887907  	-0,018543  	-0,049991  	0,398355  	0,201849  	-4,129081  	16717,043124  	101118,410855  	14,665986  	-0,047944  
117,584000  	23,927362  	30,685764  	23,157728  	1256,670793  	70,071372  	65,186634  	0,008643  	0,011776  	0,003963  	0,004324  	0,004467  	0,000001  	-0,000000  	26,771728  	25,295060  	26,215291  	26,124190  	29,238943  	27,787959  	28,971241  	28,629398  	31,712593  	30,633622  	33,079511  	59,304069  	25,333664  	23,957120  	28,456419  	64,527510  	0,268872  	0,136239  	-3849,530164  	25588,285249  	-0,018541  	-0,049985  	0,396136  	0,200725  	-4,105508  	16744,690119  	100954,628796  	14,642231  	-0,047939  
118,583000  	23,945731  	30,686379  	23,156930  	1256,670793  	70,072057  	65,183524  	0,008647  	0,011777  	0,003965  	0,004315  	0,004462  	-0,000001  	-0,000000  	26,774742  	25,293982  	26,211770  	26,120447  	29,240835  	27,788540  	28,964762  	28,626326  	31,706119  	30,635292  	33,080893  	59,306825  	25,334282  	23,955522  	28,449199  	64,521764  	0,261617  	0,132563  	-3735,816160  	25597,961982  	-0,018548  	-0,050007  	0,391830  	0,198543  	-4,064041  	16747,444207  	101061,540810  	14,657737  	-0,047957  
119,582000  	23,956145  	30,683240  	23,156561  	1256,670793  	70,075795  	65,187193  	0,008656  	0,011781  	0,003961  	0,004306  	0,004447  	-0,000001  	-0,000000  	26,773615  	25,293057  	26,208151  	26,119795  	29,238789  	27,791408  	28,968555  	28,625492  	31,699356  	30,635606  	33,081810  	59,302085  	25,337843  	23,950869  	28,445908  	64,515239  	0,254496  	0,128955  	-3626,821792  	25600,496769  	-0,018550  	-0,050012  	0,380371  	0,192737  	-3,945239  	16755,577008  	101240,871397  	14,683747  	-0,047962  
120,581000  	23,947175  	30,677330  	23,155885  	1256,670793  	70,079782  	65,193663  	0,008635  	0,011764  	0,003964  	0,004331  	0,004518  	0,000001  	-0,000000  	26,774332  	25,289791  	26,208414  	26,123855  	29,245116  	27,789217  	28,974804  	28,623952  	31,706824  	30,631959  	33,077202  	59,299918  	25,339972  	23,945815  	28,452629  	64,511929  	0,274639  	0,139162  	-3915,660512  	25590,054431  	-0,018542  	-0,049989  	0,436720  	0,221289  	-4,527399  	16719,475324  	100795,973090  	14,619220  	-0,047942  
121,583000  	23,918208  	30,679423  	23,156592  	-242,047242  	70,080934  	65,190863  	0,008648  	0,011771  	0,003962  	0,004326  	0,004471  	-0,000000  	-0,000000  	26,771735  	25,281323  	26,208194  	26,122889  	29,241506  	27,785324  	28,975163  	28,627926  	31,704928  	30,633832  	33,081391  	59,301468  	25,337302  	23,941230  	28,454354  	64,513100  	0,270825  	0,137229  	-3879,100640  	-27038,849423  	-0,103447  	-0,050005  	0,399092  	0,202223  	-4,140665  	16732,710934  	101066,490636  	14,658455  	-0,047956  
122,584000  	23,927362  	30,682563  	23,157206  	357,439972  	70,079875  	65,189060  	0,008652  	0,011752  	0,003962  	0,004361  	0,004463  	0,000000  	-0,000000  	26,772274  	25,289021  	26,213584  	26,121127  	29,243719  	27,789028  	28,978348  	28,633156  	31,709849  	30,633106  	33,084888  	59,303892  	25,344957  	23,942467  	28,454040  	64,514085  	0,298861  	0,151435  	-4276,864856  	12586,717404  	-0,036534  	-0,049994  	0,393345  	0,199311  	-4,081658  	16693,400982  	101167,873814  	14,673160  	-0,047946  
123,582000  	23,933536  	30,679516  	23,155548  	1256,670793  	70,075016  	65,185203  	0,008646  	0,011749  	0,003964  	0,004276  	0,004475  	-0,000000  	-0,000000  	26,771915  	25,298245  	26,210032  	26,120478  	29,247639  	27,792581  	28,973477  	28,627405  	31,715117  	30,630202  	33,079099  	59,298123  	25,348099  	23,944856  	28,451425  	64,516431  	0,230612  	0,116853  	-3295,679002  	25596,201894  	-0,018547  	-0,050003  	0,402297  	0,203847  	-4,173690  	16686,182201  	101028,572565  	14,652956  	-0,047954  
124,582000  	23,912034  	30,673729  	23,155548  	1256,670793  	70,071403  	65,187256  	0,008648  	0,011739  	0,003964  	0,004351  	0,004456  	-0,000001  	-0,000000  	26,778902  	25,296110  	26,219147  	26,128986  	29,254247  	27,799561  	28,972783  	28,635617  	31,718849  	30,635204  	33,083089  	59,299990  	25,356324  	23,958189  	28,453888  	64,524747  	0,290674  	0,147287  	-4163,705741  	25598,059337  	-0,018548  	-0,050007  	0,387097  	0,196145  	-4,011350  	16664,580333  	101075,295819  	14,659732  	-0,047957  
125,583000  	23,877354  	30,671082  	23,156254  	1256,670793  	70,072368  	65,184643  	0,008651  	0,011752  	0,003963  	0,004306  	0,004489  	-0,000000  	-0,000000  	26,774691  	25,293885  	26,207024  	26,118641  	29,237389  	27,781201  	28,966660  	28,626657  	31,704983  	30,633970  	33,079204  	59,296179  	25,348260  	23,957808  	28,444662  	64,507346  	0,254192  	0,128801  	-3658,378115  	25596,923061  	-0,018547  	-0,050004  	0,413804  	0,209678  	-4,291245  	16693,271519  	101144,706367  	14,669799  	-0,047955  
126,585000  	23,889211  	30,668743  	23,154718  	1256,670793  	70,075608  	65,178547  	0,008651  	0,011775  	0,003963  	0,004297  	0,004436  	0,000001  	-0,000000  	26,768575  	25,288536  	26,204129  	26,117294  	29,239061  	27,788416  	28,964343  	28,624983  	31,702874  	30,628151  	33,077685  	59,288187  	25,352412  	23,968688  	28,452369  	64,499835  	0,247176  	0,125246  	-3549,973579  	25587,100908  	-0,018540  	-0,049983  	0,371602  	0,188293  	-3,860954  	16741,943106  	101143,774302  	14,669664  	-0,047937  
127,582000  	23,944687  	30,660710  	23,153060  	357,439972  	70,076231  	65,180382  	0,008645  	0,011733  	0,003962  	0,004379  	0,004534  	0,000001  	-0,000000  	26,764440  	25,279719  	26,209662  	26,119786  	29,236500  	27,777217  	28,961375  	28,622834  	31,703179  	30,626392  	33,070273  	59,283477  	25,334154  	23,997615  	28,435792  	64,504062  	0,313858  	0,159034  	-4465,422576  	12584,703690  	-0,036528  	-0,049984  	0,448823  	0,227422  	-4,662134  	16650,907522  	100998,492308  	14,648593  	-0,047938  
128,584000  	23,975835  	30,647845  	23,153981  	956,927186  	70,075733  	65,183617  	0,008653  	0,011776  	0,003962  	0,004349  	0,004434  	0,000000  	-0,000000  	26,772757  	25,289265  	26,214128  	26,127828  	29,240421  	27,788140  	28,967359  	28,630674  	31,711124  	30,641210  	33,080580  	59,299352  	25,352266  	24,018593  	28,441859  	64,520068  	0,289539  	0,146712  	-4092,424988  	22551,475763  	-0,022187  	-0,049999  	0,370342  	0,187655  	-3,843976  	16745,540470  	101178,197132  	14,674657  	-0,047950  
129,582000  	23,961275  	30,644952  	23,154166  	57,696365  	70,077601  	65,187722  	0,008656  	0,011755  	0,003964  	0,004310  	0,004434  	0,000001  	-0,000000  	26,762974  	25,295214  	26,205467  	26,122678  	29,239375  	27,784910  	28,963461  	28,623541  	31,710136  	30,633090  	33,074471  	59,287594  	25,348611  	24,024880  	28,440367  	64,519107  	0,257515  	0,130485  	-3646,149426  	1875,799646  	-0,053991  	-0,049989  	0,369840  	0,187401  	-3,837014  	16698,184732  	101254,195680  	14,685679  	-0,047942  
130,586000  	23,950646  	30,660772  	23,155271  	657,183579  	70,074175  	65,184363  	0,008647  	0,011733  	0,003964  	0,004324  	0,004505  	0,000000  	-0,000000  	26,764219  	25,282293  	26,210997  	26,120909  	29,239375  	27,780632  	28,963380  	28,624644  	31,711456  	30,630447  	33,064848  	59,293459  	25,337811  	24,028472  	28,440634  	64,521304  	0,268871  	0,136239  	-3822,008132  	18531,413612  	-0,027609  	-0,049999  	0,426540  	0,216131  	-4,425206  	16651,803856  	101060,884128  	14,657642  	-0,047950  
131,583000  	23,967510  	30,675453  	23,156653  	657,183579  	70,075203  	65,187473  	0,008650  	0,011765  	0,003967  	0,004378  	0,004413  	0,000001  	-0,000000  	26,763892  	25,285193  	26,207407  	26,112480  	29,236485  	27,779385  	28,963283  	28,613707  	31,701239  	30,634673  	33,074137  	59,290670  	25,334947  	24,056540  	28,446056  	64,499920  	0,313277  	0,158740  	-4451,786890  	18526,902135  	-0,027602  	-0,049985  	0,353362  	0,179051  	-3,664446  	16720,105659  	101106,025698  	14,664189  	-0,047939  
132,586000  	23,965176  	30,679639  	23,156223  	1256,670793  	70,075328  	65,187971  	0,008645  	0,011737  	0,003965  	0,004298  	0,004488  	-0,000000  	-0,000000  	26,771967  	25,292836  	26,205533  	26,122772  	29,239027  	27,792090  	28,960972  	28,627946  	31,717197  	30,634349  	33,077757  	59,296161  	25,347448  	24,073044  	28,445277  	64,513360  	0,248394  	0,125863  	-3533,211889  	25595,370255  	-0,018546  	-0,050001  	0,412868  	0,209203  	-4,281213  	16660,618635  	101012,706288  	14,650654  	-0,047952  
133,582000  	23,964899  	30,678746  	23,159816  	-242,047242  	70,071154  	65,183492  	0,008646  	0,011755  	0,003964  	0,004323  	0,004454  	0,000001  	-0,000000  	26,776440  	25,297297  	26,212985  	26,124796  	29,243894  	27,783206  	28,969232  	28,629497  	31,712279  	30,646900  	33,086775  	59,301575  	25,352870  	24,085223  	28,453939  	64,523426  	0,268023  	0,135809  	-3812,070376  	-27031,462798  	-0,103418  	-0,049989  	0,386225  	0,195703  	-4,005184  	16698,740785  	101037,109427  	14,654194  	-0,047942  
134,581000  	23,956790  	30,683671  	23,162396  	357,439972  	70,071777  	65,184177  	0,008645  	0,011761  	0,003964  	0,004354  	0,004445  	0,000001  	-0,000000  	26,777077  	25,294891  	26,215881  	26,118457  	29,246138  	27,790358  	28,972865  	28,630400  	31,717856  	30,651032  	33,084842  	59,298387  	25,356052  	24,097513  	28,458454  	64,525550  	0,293048  	0,148490  	-4176,092377  	12585,949236  	-0,036532  	-0,049992  	0,378409  	0,191743  	-3,924087  	16711,510895  	101017,190083  	14,651305  	-0,047944  
135,583000  	23,940479  	30,688749  	23,163317  	1256,670793  	70,074985  	65,184363  	0,008653  	0,011734  	0,003964  	0,004299  	0,004511  	0,000000  	-0,000000  	26,766476  	25,294514  	26,209474  	26,113570  	29,236028  	27,787580  	28,964188  	28,625166  	31,706614  	30,637245  	33,074374  	59,294208  	25,365235  	24,103410  	28,447085  	64,520922  	0,248651  	0,125993  	-3554,672315  	25594,182160  	-0,018545  	-0,049999  	0,431057  	0,218420  	-4,472810  	16654,013210  	101188,612245  	14,676167  	-0,047950  
136,581000  	23,933291  	30,691150  	23,164914  	57,696365  	70,076231  	65,185545  	0,008653  	0,011746  	0,003965  	0,004334  	0,004478  	0,000002  	-0,000000  	26,770209  	25,293271  	26,213715  	26,117775  	29,234412  	27,784867  	28,969862  	28,628552  	31,705039  	30,635449  	33,078667  	59,294215  	25,365058  	24,110694  	28,452169  	64,525375  	0,277283  	0,140501  	-3969,630816  	1874,881120  	-0,053981  	-0,049980  	0,404953  	0,205193  	-4,201998  	16679,012942  	101179,058586  	14,674782  	-0,047935  
137,582000  	23,933966  	30,686256  	23,169521  	57,696365  	70,078349  	65,187536  	0,008642  	0,011736  	0,003961  	0,004401  	0,004460  	0,000000  	-0,000000  	26,773749  	25,286126  	26,209510  	26,115708  	29,239409  	27,778953  	28,962107  	28,623906  	31,713948  	30,639704  	33,071980  	59,289040  	25,366633  	24,123997  	28,452194  	64,524951  	0,331768  	0,168110  	-4745,739919  	1875,162252  	-0,053996  	-0,049997  	0,390287  	0,197762  	-4,049928  	16657,926802  	100933,473760  	14,639163  	-0,047949  
138,583000  	23,947175  	30,680100  	23,171916  	657,183579  	70,082274  	65,193258  	0,008654  	0,011766  	0,003965  	0,004311  	0,004496  	0,000000  	-0,000000  	26,781567  	25,292959  	26,213116  	26,120033  	29,239200  	27,786378  	28,957942  	28,627448  	31,710494  	30,641533  	33,072284  	59,307982  	25,380331  	24,136602  	28,447919  	64,521269  	0,258742  	0,131106  	-3690,522553  	18529,235718  	-0,027606  	-0,049994  	0,419362  	0,212494  	-4,350032  	16723,660575  	101200,277171  	14,677859  	-0,047947  
139,582000  	23,916672  	30,674837  	23,173666  	657,183579  	70,081589  	65,184768  	0,008649  	0,011749  	0,003962  	0,004332  	0,004464  	0,000001  	-0,000000  	26,771024  	25,286247  	26,203998  	26,118435  	29,240153  	27,785534  	28,962798  	28,628512  	31,706750  	30,631370  	33,075536  	59,299613  	25,377353  	24,137813  	28,442200  	64,513597  	0,275631  	0,139664  	-3946,167001  	18528,701069  	-0,027605  	-0,049993  	0,393904  	0,199594  	-4,092475  	16685,251909  	101091,515151  	14,662085  	-0,047945  
140,583000  	23,883374  	30,673791  	23,173544  	1256,670793  	70,082648  	65,188313  	0,008647  	0,011737  	0,003964  	0,004367  	0,004459  	-0,000001  	-0,000000  	26,779172  	25,296620  	26,216854  	26,124951  	29,246355  	27,789479  	28,968797  	28,633467  	31,717265  	30,634114  	33,080467  	59,304522  	25,390067  	24,144706  	28,451493  	64,518855  	0,304192  	0,154137  	-4375,864850  	25601,915119  	-0,018551  	-0,050016  	0,389931  	0,197581  	-4,049137  	16660,576188  	101052,022456  	14,656357  	-0,047965  
141,581000  	23,895139  	30,676007  	23,175632  	1256,670793  	70,082243  	65,187847  	0,008647  	0,011749  	0,003966  	0,004325  	0,004502  	0,000000  	-0,000000  	26,779110  	25,299187  	26,215418  	26,123210  	29,246219  	27,785248  	28,966473  	28,633193  	31,709208  	30,641824  	33,077973  	59,303638  	25,396409  	24,143050  	28,459748  	64,513939  	0,270129  	0,136877  	-3880,393646  	25593,077615  	-0,018545  	-0,049997  	0,424009  	0,214848  	-4,403067  	16685,656569  	101046,189993  	14,655511  	-0,047949  
142,583000  	23,937161  	30,666650  	23,176430  	1256,670793  	70,079190  	65,185981  	0,008651  	0,011758  	0,003962  	0,004322  	0,004447  	0,000000  	-0,000000  	26,770457  	25,290319  	26,214588  	26,121754  	29,243793  	27,783284  	28,970321  	28,635694  	31,704495  	30,639567  	33,079471  	59,300850  	25,400924  	24,140406  	28,454080  	64,515477  	0,267427  	0,135507  	-3812,459284  	25591,895272  	-0,018544  	-0,049995  	0,380277  	0,192689  	-3,947979  	16706,156235  	101127,110122  	14,667247  	-0,047947  
143,584000  	23,939926  	30,653908  	23,178181  	1256,670793  	70,074113  	65,186820  	0,008646  	0,011744  	0,003962  	0,004371  	0,004477  	-0,000000  	-0,000000  	26,773429  	25,292696  	26,220314  	26,129149  	29,249695  	27,786907  	28,971633  	28,639926  	31,711915  	30,636284  	33,086996  	59,302682  	25,407527  	24,138854  	28,449067  	64,524342  	0,307204  	0,155662  	-4369,423383  	25595,433272  	-0,018546  	-0,050003  	0,404056  	0,204738  	-4,189780  	16675,692190  	101032,555022  	14,653533  	-0,047954  
144,582000  	23,945455  	30,650707  	23,177935  	57,696365  	70,069877  	65,186509  	0,008645  	0,011734  	0,003962  	0,004315  	0,004556  	0,000001  	-0,000000  	26,777856  	25,299122  	26,213621  	26,128980  	29,247652  	27,790778  	28,966124  	28,631593  	31,715378  	30,636557  	33,084672  	59,299109  	25,408395  	24,137728  	28,447946  	64,520883  	0,261815  	0,132663  	-3719,003175  	1874,408224  	-0,053988  	-0,049988  	0,466545  	0,236402  	-4,833862  	16653,019956  	101012,663922  	14,650648  	-0,047942  
145,583000  	23,956176  	30,661203  	23,177229  	57,696365  	70,068631  	65,186727  	0,008650  	0,011746  	0,003963  	0,004305  	0,004417  	0,000000  	-0,000000  	26,776497  	25,299706  	26,209522  	26,127747  	29,238180  	27,795152  	28,965879  	28,625977  	31,714188  	30,640899  	33,081105  	59,301044  	25,411591  	24,145203  	28,451675  	64,525754  	0,254114  	0,128762  	-3609,497450  	1874,685833  	-0,053995  	-0,049996  	0,356599  	0,180692  	-3,693612  	16678,910362  	101126,566418  	14,667168  	-0,047948  
146,583000  	23,938605  	30,666189  	23,177290  	1256,670793  	70,071932  	65,179947  	0,008649  	0,011762  	0,003965  	0,004394  	0,004427  	-0,000001  	-0,000000  	26,775798  	25,299191  	26,214336  	26,125999  	29,236272  	27,787185  	28,964134  	28,628574  	31,710470  	30,643822  	33,081293  	59,302719  	25,413864  	24,152816  	28,452324  	64,532249  	0,326005  	0,165189  	-4646,231162  	25601,077472  	-0,018550  	-0,050015  	0,364286  	0,184587  	-3,781021  	16714,909467  	101098,512694  	14,663100  	-0,047964  
147,583000  	23,911235  	30,669974  	23,175356  	1256,670793  	70,074954  	65,179885  	0,008644  	0,011736  	0,003965  	0,004291  	0,004500  	0,000000  	-0,000000  	26,774523  	25,294234  	26,213143  	26,116926  	29,237343  	27,778429  	28,959304  	28,625673  	31,707302  	30,635778  	33,075788  	59,294571  	25,406299  	24,157624  	28,443483  	64,517958  	0,242600  	0,122927  	-3473,557046  	25592,588034  	-0,018544  	-0,049996  	0,422360  	0,214013  	-4,386546  	16658,883977  	100991,487703  	14,647577  	-0,047948  
148,583000  	23,900115  	30,672929  	23,173144  	1256,670793  	70,072773  	65,181378  	0,008653  	0,011756  	0,003963  	0,004329  	0,004460  	0,000000  	-0,000000  	26,773232  	25,287038  	26,207586  	26,120217  	29,240404  	27,785384  	28,959707  	28,624837  	31,707715  	30,631493  	33,077870  	59,293452  	25,400059  	24,162235  	28,447487  	64,512682  	0,273536  	0,138603  	-3924,659882  	25592,159388  	-0,018544  	-0,049995  	0,390849  	0,198046  	-4,056232  	16701,675272  	101171,764476  	14,673724  	-0,047947  
149,581000  	23,904201  	30,669420  	23,171640  	1256,670793  	70,071154  	65,181689  	0,008650  	0,011738  	0,003963  	0,004369  	0,004440  	-0,000000  	-0,000001  	26,774277  	25,290381  	26,203826  	26,120466  	29,239962  	27,778736  	28,959298  	28,623908  	31,711144  	30,637981  	33,081331  	59,293389  	25,403011  	24,154387  	28,455636  	64,511831  	0,305669  	0,154885  	-4380,780984  	25595,735624  	-0,018546  	-0,050003  	0,375099  	0,190065  	-3,891245  	16662,600191  	101111,907588  	14,665042  	-0,047954  
150,582000  	23,896706  	30,659756  	23,170780  	1256,670793  	70,071839  	65,183119  	0,008637  	0,011741  	0,003964  	0,004341  	0,004502  	0,000000  	-0,000000  	26,769690  	25,295694  	26,206862  	26,118635  	29,241501  	27,779895  	28,966468  	28,632729  	31,715649  	30,637810  	33,076991  	59,302657  	25,409983  	24,152614  	28,457457  	64,514789  	0,282510  	0,143150  	-4047,583944  	25594,500282  	-0,018546  	-0,050000  	0,424215  	0,214953  	-4,400100  	16668,043282  	100829,280267  	14,624051  	-0,047951  
151,586000  	23,912188  	30,653385  	23,168845  	1256,670793  	70,073770  	65,183803  	0,008651  	0,011791  	0,003962  	0,004310  	0,004459  	-0,000000  	-0,000000  	26,769174  	25,298553  	26,208627  	26,122456  	29,246156  	27,779738  	28,963314  	28,631107  	31,711345  	30,636576  	33,080623  	59,307675  	25,415311  	24,138613  	28,450915  	64,516355  	0,257590  	0,130523  	-3678,620859  	25594,671806  	-0,018546  	-0,050000  	0,390083  	0,197658  	-4,047098  	16777,300557  	101137,828862  	14,668802  	-0,047952  
152,582000  	23,922877  	30,649445  	23,170381  	1256,670793  	70,073023  	65,185607  	0,008647  	0,011735  	0,003961  	0,004347  	0,004478  	0,000001  	-0,000000  	26,765418  	25,298075  	26,209733  	26,120023  	29,239723  	27,780366  	28,961441  	28,628385  	31,706541  	30,629822  	33,073788  	59,301078  	25,410639  	24,126956  	28,445632  	64,510488  	0,287450  	0,145653  	-4096,134417  	25591,295111  	-0,018543  	-0,049993  	0,404573  	0,205000  	-4,195250  	16656,072586  	101060,333363  	14,657562  	-0,047945  
153,585000  	23,928622  	30,646275  	23,171701  	1256,670793  	70,070437  	65,179854  	0,008651  	0,011733  	0,003964  	0,004347  	0,004486  	-0,000000  	-0,000000  	26,772573  	25,300841  	26,203163  	26,114033  	29,240808  	27,786604  	28,967341  	28,628092  	31,707954  	30,628896  	33,078319  	59,303232  	25,407179  	24,119974  	28,446182  	64,514278  	0,287822  	0,145842  	-4096,001575  	25594,835853  	-0,018546  	-0,050001  	0,411384  	0,208451  	-4,268637  	16652,480882  	101142,439756  	14,669471  	-0,047952  
154,581000  	23,922171  	30,649230  	23,170534  	1256,670793  	70,066886  	65,177676  	0,008646  	0,011737  	0,003960  	0,004369  	0,004423  	-0,000000  	-0,000000  	26,769710  	25,281574  	26,207101  	26,116128  	29,230564  	27,771964  	28,960696  	28,627313  	31,706792  	30,623456  	33,076420  	59,294185  	25,411649  	24,118650  	28,452975  	64,511612  	0,305440  	0,154768  	-4352,798210  	25595,044302  	-0,018546  	-0,050001  	0,361084  	0,182964  	-3,745657  	16659,831955  	101022,387047  	14,652058  	-0,047952  
155,582000  	23,957650  	30,655232  	23,169521  	1256,670793  	70,059753  	65,173447  	0,008651  	0,011743  	0,003963  	0,004315  	0,004433  	-0,000000  	-0,000000  	26,771175  	25,286361  	26,209381  	26,113819  	29,239501  	27,780173  	28,958380  	28,633515  	31,695171  	30,629756  	33,073229  	59,290211  	25,423145  	24,131267  	28,447056  	64,521118  	0,261521  	0,132515  	-3710,576801  	25597,052696  	-0,018547  	-0,050005  	0,369403  	0,187179  	-3,829674  	16674,258196  	101139,678868  	14,669070  	-0,047956  
156,584000  	23,999918  	30,657140  	23,170135  	1256,670793  	70,062993  	65,173696  	0,008653  	0,011739  	0,003963  	0,004332  	0,004462  	-0,000001  	-0,000000  	26,769394  	25,298082  	26,208159  	26,119453  	29,235856  	27,782812  	28,962339  	28,630088  	31,704737  	30,634045  	33,084691  	59,301022  	25,426278  	24,135513  	28,449298  	64,513838  	0,275338  	0,139516  	-3883,065063  	25599,639872  	-0,018549  	-0,050011  	0,392143  	0,198702  	-4,067918  	16665,695268  	101174,786624  	14,674162  	-0,047961  
157,583000  	23,983484  	30,659202  	23,173083  	1256,670793  	70,065827  	65,173198  	0,008643  	0,011782  	0,003964  	0,004308  	0,004441  	-0,000001  	-0,000000  	26,757287  	25,277195  	26,204218  	26,108369  	29,232386  	27,771866  	28,950946  	28,605008  	31,709068  	30,626679  	33,063221  	59,288721  	25,418949  	24,128175  	28,441300  	64,511420  	0,256207  	0,129822  	-3623,313241  	25598,487045  	-0,018548  	-0,050009  	0,375829  	0,190435  	-3,901339  	16756,541965  	100966,159561  	14,643903  	-0,047959  
158,583000  	23,970705  	30,672129  	23,172960  	1256,670793  	70,067260  	65,177676  	0,008648  	0,011751  	0,003967  	0,004328  	0,004508  	-0,000001  	-0,000000  	26,769585  	25,287075  	26,216034  	26,129255  	29,238654  	27,789673  	28,968293  	28,640189  	31,719502  	30,632719  	33,084109  	59,304035  	25,442422  	24,150347  	28,458527  	64,531008  	0,272338  	0,137996  	-3866,268026  	25598,346715  	-0,018548  	-0,050009  	0,428369  	0,217058  	-4,443964  	16690,699952  	101071,143897  	14,659130  	-0,047959  
159,585000  	23,977340  	30,687734  	23,173974  	1256,670793  	70,066637  	65,178361  	0,008656  	0,011774  	0,003962  	0,004301  	0,004471  	0,000000  	-0,000000  	26,764723  	25,279772  	26,211171  	26,116926  	29,229348  	27,772347  	28,957310  	28,622565  	31,703645  	30,622572  	33,078573  	59,287442  	25,423796  	24,140138  	28,455349  	64,510296  	0,250192  	0,126774  	-3556,621391  	25592,085613  	-0,018544  	-0,049995  	0,399104  	0,202229  	-4,139260  	16739,266130  	101246,555577  	14,684571  	-0,047947  
160,582000  	23,977955  	30,691119  	23,173912  	57,696365  	70,062650  	65,185265  	0,008645  	0,011777  	0,003962  	0,004356  	0,004475  	-0,000000  	-0,000000  	26,773844  	25,289514  	26,203332  	26,111446  	29,242392  	27,774686  	28,964243  	28,617594  	31,697716  	30,621997  	33,076776  	59,297767  	25,429364  	24,143607  	28,461857  	64,514703  	0,295232  	0,149596  	-4198,633409  	1875,164709  	-0,054003  	-0,050004  	0,402363  	0,203880  	-4,163765  	16746,303804  	101003,074957  	14,649257  	-0,047955  
161,583000  	23,962258  	30,693797  	23,173452  	1256,670793  	70,058632  	65,185421  	0,008647  	0,011759  	0,003965  	0,004308  	0,004481  	0,000001  	-0,000000  	26,763057  	25,287926  	26,207195  	26,111273  	29,231771  	27,783814  	28,959627  	28,621614  	31,700789  	30,623807  	33,069543  	59,293771  	25,425565  	24,139803  	28,441404  	64,512786  	0,255999  	0,129717  	-3650,648950  	25589,733485  	-0,018542  	-0,049990  	0,407489  	0,206478  	-4,213204  	16707,588106  	101056,499189  	14,657006  	-0,047943  
162,582000  	23,966865  	30,696936  	23,174680  	1256,670793  	70,059878  	65,182995  	0,008648  	0,011758  	0,003958  	0,004339  	0,004442  	0,000001  	-0,000000  	26,770934  	25,293121  	26,210402  	26,110683  	29,220265  	27,777586  	28,956752  	28,628787  	31,695875  	30,622375  	33,077585  	59,290774  	25,427836  	24,118144  	28,447495  	64,517862  	0,281117  	0,142444  	-4007,958144  	25590,827541  	-0,018543  	-0,049992  	0,376271  	0,190659  	-3,893362  	16706,686113  	101076,503266  	14,659907  	-0,047945  
163,581000  	23,991932  	30,697860  	23,176154  	1256,670793  	70,061498  	65,183772  	0,008648  	0,011750  	0,003962  	0,004316  	0,004490  	0,000000  	-0,000000  	26,767832  	25,287507  	26,211359  	26,108276  	29,225879  	27,775398  	28,959402  	28,624114  	31,703914  	30,625458  	33,072918  	59,296893  	25,426825  	24,094112  	28,447885  	64,510353  	0,262400  	0,132960  	-3727,682234  	25591,769298  	-0,018544  	-0,049994  	0,414510  	0,210035  	-4,289766  	16687,638125  	101073,459935  	14,659466  	-0,047947  
164,585000  	23,985849  	30,694843  	23,177137  	57,696365  	70,062993  	65,178236  	0,008640  	0,011737  	0,003964  	0,004334  	0,004439  	0,000000  	-0,000000  	26,764182  	25,280254  	26,205580  	26,112284  	29,228441  	27,776113  	28,955042  	28,624526  	31,700365  	30,626310  	33,072802  	59,291014  	25,419072  	24,080975  	28,452293  	64,524761  	0,276910  	0,140313  	-3935,620416  	1874,775946  	-0,053997  	-0,049998  	0,373924  	0,189470  	-3,875314  	16660,861289  	100908,682262  	14,635567  	-0,047950  
165,581000  	23,960353  	30,695428  	23,178150  	57,696365  	70,065111  	65,169030  	0,008644  	0,011745  	0,003963  	0,004356  	0,004501  	-0,000000  	-0,000000  	26,772480  	25,286239  	26,207976  	26,114109  	29,237833  	27,778864  	28,961034  	28,626853  	31,708415  	30,626668  	33,078149  	59,303353  	25,418647  	24,078038  	28,462262  	64,527056  	0,295377  	0,149670  	-4214,403584  	1874,831696  	-0,054000  	-0,050002  	0,422952  	0,214313  	-4,393598  	16677,537209  	100988,303150  	14,647115  	-0,047953  
166,586000  	23,965329  	30,703184  	23,179194  	1256,670793  	70,066108  	65,174193  	0,008649  	0,011739  	0,003963  	0,004316  	0,004451  	0,000001  	-0,000000  	26,771251  	25,287295  	26,206777  	26,114680  	29,242078  	27,782347  	28,962160  	28,626466  	31,708249  	30,629953  	33,079988  	59,300702  	25,406186  	24,073836  	28,456310  	64,512506  	0,263055  	0,133292  	-3754,787289  	25591,321986  	-0,018543  	-0,049994  	0,383419  	0,194281  	-3,979542  	16664,580333  	101091,938816  	14,662146  	-0,047946  
167,582000  	23,963671  	30,703646  	23,179286  	1256,670793  	70,062214  	65,174255  	0,008650  	0,011774  	0,003964  	0,004355  	0,004442  	-0,000001  	-0,000000  	26,766258  	25,289545  	26,210449  	26,113817  	29,243974  	27,785199  	28,963576  	28,625247  	31,709398  	30,631599  	33,078681  	59,297103  	25,399059  	24,090440  	28,452183  	64,515126  	0,294260  	0,149104  	-4201,525327  	25601,752976  	-0,018551  	-0,050016  	0,376280  	0,190664  	-3,902294  	16739,844821  	101111,314456  	14,664956  	-0,047965  
168,584000  	23,946039  	30,699768  	23,179901  	1256,670793  	70,059598  	65,173447  	0,008649  	0,011786  	0,003966  	0,004285  	0,004509  	0,000001  	-0,000000  	26,765390  	25,289746  	26,212666  	26,112680  	29,236335  	27,781737  	28,961423  	28,627183  	31,708157  	30,629145  	33,078716  	59,295808  	25,399039  	24,112526  	28,449239  	64,520197  	0,237682  	0,120435  	-3400,619289  	25591,008547  	-0,018543  	-0,049993  	0,429538  	0,217650  	-4,452967  	16765,285291  	101086,134598  	14,661304  	-0,047945  
169,582000  	23,945854  	30,698014  	23,179102  	956,927186  	70,059286  	65,173789  	0,008649  	0,011767  	0,003961  	0,004337  	0,004453  	-0,000001  	-0,000000  	26,771502  	25,290498  	26,210574  	26,119886  	29,236628  	27,782083  	28,961712  	28,633509  	31,699750  	30,629576  	33,082580  	59,296815  	25,397223  	24,132231  	28,448641  	64,520789  	0,279537  	0,141643  	-3998,517327  	22558,403033  	-0,022194  	-0,050018  	0,385051  	0,195108  	-3,991235  	16724,457160  	101103,413093  	14,663810  	-0,047967  
170,582000  	23,954517  	30,694689  	23,179225  	357,439972  	70,057542  	65,172420  	0,008642  	0,011731  	0,003965  	0,004341  	0,004523  	-0,000000  	-0,000000  	26,775859  	25,287557  	26,205993  	26,117407  	29,237464  	27,778154  	28,959553  	28,633462  	31,695743  	30,624353  	33,076780  	59,294359  	25,390716  	24,133694  	28,443919  	64,513605  	0,282995  	0,143396  	-4040,793590  	12587,916667  	-0,036540  	-0,050004  	0,440302  	0,223104  	-4,563591  	16647,472871  	100947,885452  	14,641253  	-0,047955  
171,582000  	23,956268  	30,685733  	23,180054  	1256,670793  	70,057417  	65,168564  	0,008643  	0,011746  	0,003960  	0,004318  	0,004461  	0,000001  	-0,000000  	26,772911  	25,285508  	26,202077  	26,107988  	29,232585  	27,775539  	28,955875  	28,627560  	31,701996  	30,623483  	33,071896  	59,290915  	25,386322  	24,118446  	28,443474  	64,504960  	0,264065  	0,133804  	-3764,514190  	25589,556638  	-0,018542  	-0,049990  	0,391752  	0,198504  	-4,063488  	16680,415808  	100961,809928  	14,643273  	-0,047943  
172,583000  	23,921126  	30,682101  	23,179256  	1256,670793  	70,057479  	65,174162  	0,008644  	0,011755  	0,003962  	0,004334  	0,004425  	0,000000  	-0,000000  	26,769426  	25,288014  	26,203234  	26,108444  	29,233150  	27,780819  	28,957177  	28,622921  	31,705842  	30,630930  	33,076590  	59,288765  	25,376570  	24,107907  	28,449163  	64,503084  	0,277273  	0,140496  	-3971,326742  	25592,225258  	-0,018544  	-0,049996  	0,363244  	0,184058  	-3,763516  	16698,710365  	100991,551253  	14,647586  	-0,047948  
173,585000  	23,938451  	30,684071  	23,179010  	956,927186  	70,055922  	65,182279  	0,008645  	0,011756  	0,003964  	0,004329  	0,004518  	0,000001  	-0,000000  	26,770453  	25,285057  	26,209121  	26,108802  	29,233865  	27,780547  	28,958974  	28,622506  	31,704355  	30,628478  	33,079034  	59,281329  	25,361850  	24,093308  	28,446128  	64,504939  	0,273266  	0,138466  	-3905,031445  	22547,426219  	-0,022184  	-0,049991  	0,436718  	0,221288  	-4,515815  	16702,271649  	101007,791767  	14,649942  	-0,047944  
174,583000  	23,969599  	30,683578  	23,179256  	357,439972  	70,057168  	65,175375  	0,008644  	0,011757  	0,003961  	0,004373  	0,004433  	0,000000  	-0,000000  	26,772310  	25,287803  	26,214751  	26,113327  	29,236907  	27,782624  	28,961416  	28,629742  	31,706950  	30,626816  	33,080846  	59,281526  	25,362495  	24,066991  	28,450229  	64,512235  	0,308536  	0,156337  	-4388,363961  	12586,797061  	-0,036537  	-0,049999  	0,369382  	0,187168  	-3,825917  	16702,832654  	100996,875317  	14,648358  	-0,047951  
175,583000  	23,965913  	30,676192  	23,178427  	1256,670793  	70,056358  	65,171705  	0,008645  	0,011756  	0,003966  	0,004343  	0,004488  	0,000000  	-0,000000  	26,765136  	25,291927  	26,210122  	26,117462  	29,232759  	27,777821  	28,952436  	28,631596  	31,702710  	30,625859  	33,071866  	59,282111  	25,354113  	24,033980  	28,447021  	64,508435  	0,284360  	0,144087  	-4042,277398  	25592,735735  	-0,018544  	-0,049997  	0,412575  	0,209055  	-4,275804  	16700,442193  	101007,135086  	14,649846  	-0,047949  
176,582000  	23,950370  	30,676315  	23,177137  	1256,670793  	70,053056  	65,169030  	0,008650  	0,011753  	0,003966  	0,004321  	0,004500  	0,000001  	-0,000000  	26,765677  	25,291804  	26,212363  	26,117491  	29,236703  	27,778085  	28,957444  	28,633721  	31,707855  	30,632606  	33,080797  	59,285968  	25,350050  	24,018000  	28,439438  	64,519707  	0,266395  	0,134985  	-3795,749067  	25588,434948  	-0,018541  	-0,049987  	0,422059  	0,213860  	-4,373527  	16693,969768  	101111,667511  	14,665008  	-0,047940  
177,576000  	23,947789  	30,682809  	23,174987  	1256,670793  	70,048446  	65,170026  	0,008643  	0,011758  	0,003963  	0,004343  	0,004462  	-0,000001  	-0,000000  	26,778761  	25,296623  	26,217360  	26,127872  	29,247421  	27,783289  	28,967826  	28,631545  	31,716549  	30,634995  	33,082751  	59,294360  	25,352894  	24,011761  	28,452316  	64,522382  	0,284772  	0,144296  	-4063,068930  	25599,969611  	-0,018550  	-0,050012  	0,392068  	0,198664  	-4,058082  	16706,340171  	100974,039741  	14,645046  	-0,047962  
178,590000  	23,927147  	30,685333  	23,176400  	1256,670793  	70,048696  	65,170337  	0,008652  	0,011747  	0,003965  	0,004329  	0,004506  	-0,000000  	-0,000000  	26,787386  	25,303010  	26,210939  	26,125173  	29,244178  	27,787305  	28,974043  	28,634480  	31,716285  	30,635721  	33,081997  	59,299979  	25,346416  	24,010816  	28,451633  	64,522289  	0,273450  	0,138559  	-3914,948406  	25594,375919  	-0,018545  	-0,050000  	0,427249  	0,216490  	-4,422165  	16681,537110  	101156,350110  	14,671488  	-0,047952  
179,581000  	23,935717  	30,684871  	23,172899  	357,439972  	70,046204  	65,167195  	0,008657  	0,011748  	0,003964  	0,004258  	0,004426  	0,000000  	-0,000000  	26,768776  	25,292095  	26,204188  	26,120219  	29,245635  	27,782295  	28,965620  	28,622669  	31,712485  	30,635689  	33,073761  	59,291496  	25,325032  	24,000404  	28,444906  	64,517803  	0,215728  	0,109311  	-3084,420957  	12585,836459  	-0,036533  	-0,049994  	0,363601  	0,184239  	-3,763894  	16683,015672  	101272,420361  	14,688323  	-0,047946  
180,582000  	23,939956  	30,681301  	23,173574  	956,927186  	70,046515  	65,164956  	0,008646  	0,011747  	0,003963  	0,004386  	0,004511  	-0,000001  	-0,000000  	26,755166  	25,278779  	26,199807  	26,112096  	29,229210  	27,775728  	28,949059  	28,623870  	31,691239  	30,624609  	33,074027  	59,280585  	25,315781  	23,972488  	28,440151  	64,506392  	0,319702  	0,161996  	-4565,728307  	22555,350081  	-0,022191  	-0,050010  	0,431290  	0,218538  	-4,466919  	16682,094577  	101022,182276  	14,652029  	-0,047960  
181,582000  	23,943673  	30,671483  	23,176400  	1256,670793  	70,046079  	65,161162  	0,008641  	0,011773  	0,003965  	0,004298  	0,004522  	-0,000000  	-0,000000  	26,775601  	25,289161  	26,220250  	26,117988  	29,250302  	27,790466  	28,974315  	28,631927  	31,710348  	30,637643  	33,075895  	59,298466  	25,330631  	23,990394  	28,449440  	64,516028  	0,247691  	0,125507  	-3530,216415  	25595,944676  	-0,018547  	-0,050004  	0,439956  	0,222929  	-4,559808  	16736,990276  	100931,793220  	14,638919  	-0,047954  
182,582000  	23,968678  	30,669451  	23,178119  	1256,670793  	70,050564  	65,160104  	0,008646  	0,011743  	0,003965  	0,004324  	0,004415  	-0,000001  	-0,000000  	26,777660  	25,298750  	26,214756  	26,124438  	29,241515  	27,783247  	28,966222  	28,634831  	31,715884  	30,638779  	33,091196  	59,292136  	25,316161  	23,982555  	28,465029  	64,510571  	0,269366  	0,136490  	-3823,710714  	25597,781837  	-0,018548  	-0,050008  	0,355176  	0,179970  	-3,685304  	16673,547921  	101020,325208  	14,651759  	-0,047958  
183,582000  	23,968954  	30,670097  	23,179870  	357,439972  	70,053524  	65,166262  	0,008648  	0,011741  	0,003960  	0,004355  	0,004508  	0,000001  	-0,000000  	26,769467  	25,298386  	26,215847  	26,126451  	29,237779  	27,781274  	28,959884  	28,627874  	31,705051  	30,630918  	33,087534  	59,294830  	25,323078  	23,972859  	28,451695  	64,513484  	0,293961  	0,148952  	-4173,062747  	12584,917263  	-0,036531  	-0,049991  	0,428836  	0,217294  	-4,446695  	16669,600371  	101068,594842  	14,658760  	-0,047944  
184,582000  	23,966865  	30,674406  	23,181774  	-242,047242  	70,048291  	65,168937  	0,008640  	0,011772  	0,003963  	0,004335  	0,004463  	0,000001  	-0,000000  	26,782452  	25,296556  	26,209212  	26,124017  	29,248145  	27,782320  	28,964238  	28,633612  	31,717813  	30,634442  	33,085348  	59,293979  	25,311137  	23,960237  	28,438243  	64,509623  	0,278001  	0,140865  	-3950,273389  	-27030,016469  	-0,103404  	-0,049985  	0,393138  	0,199206  	-4,069942  	16735,846335  	100896,042905  	14,633734  	-0,047939  
185,581000  	23,983453  	30,684379  	23,182603  	1256,670793  	70,049786  	65,162686  	0,008656  	0,011761  	0,003965  	0,004342  	0,004443  	-0,000001  	-0,000000  	26,778176  	25,292717  	26,211836  	26,118126  	29,243014  	27,779668  	28,961727  	28,630824  	31,707102  	30,623124  	33,072433  	59,287562  	25,312571  	23,956760  	28,451241  	64,507834  	0,283825  	0,143816  	-4029,039379  	25601,583410  	-0,018551  	-0,050016  	0,377149  	0,191104  	-3,910604  	16713,159952  	101241,210329  	14,683796  	-0,047965  
186,581000  	23,984498  	30,687026  	23,182112  	657,183579  	70,050097  	65,163557  	0,008645  	0,011752  	0,003964  	0,004330  	0,004507  	-0,000000  	-0,000000  	26,774621  	25,292903  	26,208823  	26,118412  	29,241499  	27,783386  	28,958970  	28,633371  	31,713768  	30,637046  	33,075633  	59,288869  	25,315868  	23,960652  	28,458171  	64,511917  	0,273869  	0,138771  	-3888,641859  	18532,015824  	-0,027611  	-0,050004  	0,427809  	0,216774  	-4,435392  	16693,752582  	101010,114867  	14,650279  	-0,047955  
187,585000  	23,987539  	30,689519  	23,182849  	657,183579  	70,050564  	65,166387  	0,008643  	0,011746  	0,003965  	0,004339  	0,004433  	0,000001  	-0,000000  	26,769928  	25,296449  	26,220957  	26,120842  	29,241358  	27,784302  	28,967110  	28,628541  	31,708457  	30,640430  	33,081797  	59,289500  	25,311065  	23,957339  	28,451809  	64,505528  	0,281625  	0,142701  	-3998,436232  	18528,320520  	-0,027605  	-0,049993  	0,369449  	0,187203  	-3,828484  	16679,868952  	100956,330519  	14,642478  	-0,047945  
188,582000  	24,000932  	30,694443  	23,183217  	1256,670793  	70,054427  	65,168999  	0,008639  	0,011756  	0,003965  	0,004342  	0,004483  	-0,000001  	-0,000000  	26,774991  	25,290820  	26,212246  	26,119761  	29,243699  	27,782698  	28,959146  	28,629706  	31,709032  	30,629993  	33,083515  	59,284826  	25,301690  	23,934728  	28,443933  	64,506995  	0,283692  	0,143749  	-4022,697357  	25599,852276  	-0,018550  	-0,050013  	0,408520  	0,207000  	-4,234441  	16701,932782  	100874,612486  	14,630626  	-0,047962  
189,582000  	24,000748  	30,701061  	23,186411  	1256,670793  	70,054552  	65,176992  	0,008657  	0,011734  	0,003969  	0,004278  	0,004504  	0,000001  	-0,000000  	26,781121  	25,295491  	26,216316  	26,122901  	29,249366  	27,789208  	28,959482  	28,635156  	31,712980  	30,628210  	33,080016  	59,287726  	25,291875  	23,924162  	28,446664  	64,504448  	0,231917  	0,117514  	-3291,871857  	25589,785105  	-0,018542  	-0,049991  	0,425410  	0,215559  	-4,402423  	16654,826773  	101273,112349  	14,688423  	-0,047944  
190,586000  	23,992515  	30,704569  	23,187332  	1256,670793  	70,056171  	65,167040  	0,008650  	0,011741  	0,003962  	0,004359  	0,004486  	-0,000001  	-0,000000  	26,785219  	25,301256  	26,223848  	26,137346  	29,254836  	27,793523  	28,970576  	28,646367  	31,713652  	30,643584  	33,100233  	59,308040  	25,293203  	23,926489  	28,461065  	64,514505  	0,297250  	0,150619  	-4226,623164  	25601,857142  	-0,018551  	-0,050017  	0,411529  	0,208525  	-4,268871  	16668,455016  	101110,657775  	14,664861  	-0,047966  
191,582000  	23,992699  	30,709925  	23,187517  	357,439972  	70,056701  	65,165765  	0,008641  	0,011759  	0,003966  	0,004342  	0,004483  	0,000000  	-0,000000  	26,775972  	25,288684  	26,215464  	26,123911  	29,241367  	27,786908  	28,959776  	28,634517  	31,709300  	30,632473  	33,093692  	59,294458  	25,278608  	23,900479  	28,454339  	64,508998  	0,283509  	0,143656  	-4034,346402  	12585,275815  	-0,036533  	-0,049995  	0,409140  	0,207314  	-4,245648  	16706,771006  	100912,015098  	14,636050  	-0,047947  
192,585000  	23,993314  	30,710725  	23,187332  	956,927186  	70,053897  	65,165080  	0,008650  	0,011786  	0,003964  	0,004306  	0,004453  	0,000002  	-0,000000  	26,769232  	25,289609  	26,216589  	26,119580  	29,237269  	27,785179  	28,958417  	28,631447  	31,707045  	30,633300  	33,080334  	59,290264  	25,270537  	23,885823  	28,452988  	64,506032  	0,254205  	0,128807  	-3617,441534  	22541,579364  	-0,022178  	-0,049977  	0,385255  	0,195212  	-3,996066  	16765,902184  	101125,182444  	14,666968  	-0,047932  
193,581000  	23,983269  	30,710694  	23,186565  	1256,670793  	70,053835  	65,167755  	0,008654  	0,011738  	0,003960  	0,004341  	0,004476  	0,000000  	-0,000000  	26,775619  	25,295507  	26,218401  	26,120618  	29,240509  	27,782313  	28,963220  	28,639295  	31,710525  	30,632268  	33,079527  	59,285405  	25,264882  	23,876863  	28,447653  	64,504570  	0,282993  	0,143395  	-4033,117905  	25592,334707  	-0,018544  	-0,049996  	0,403160  	0,204284  	-4,179448  	16662,181383  	101198,780219  	14,677642  	-0,047948  
194,582000  	23,949663  	30,710879  	23,186135  	1256,670793  	70,051406  	65,169932  	0,008646  	0,011736  	0,003963  	0,004319  	0,004504  	0,000002  	-0,000000  	26,781557  	25,294996  	26,214704  	26,122174  	29,239580  	27,779668  	28,970561  	28,637335  	31,708534  	30,629890  	33,075920  	59,283231  	25,257614  	23,867184  	28,441546  	64,503404  	0,265489  	0,134525  	-3802,670191  	25585,410231  	-0,018539  	-0,049981  	0,425602  	0,215656  	-4,407940  	16658,789887  	101033,331742  	14,653646  	-0,047935  
195,582000  	23,945332  	30,711433  	23,185951  	1256,670793  	70,050533  	65,175530  	0,008649  	0,011775  	0,003961  	0,004369  	0,004407  	0,000000  	-0,000000  	26,783467  	25,298597  	26,217893  	26,127741  	29,239920  	27,783997  	28,971355  	28,636637  	31,707077  	30,636993  	33,074745  	59,285294  	25,261568  	23,865593  	28,443429  	64,510169  	0,305346  	0,154721  	-4376,710205  	25593,704099  	-0,018545  	-0,049999  	0,348238  	0,176455  	-3,601903  	16743,364365  	101086,487652  	14,661355  	-0,047951  
196,583000  	23,949878  	30,707678  	23,186135  	1256,670793  	70,050409  	65,168937  	0,008650  	0,011731  	0,003963  	0,004361  	0,004466  	-0,000001  	-0,000000  	26,785399  	25,302966  	26,220605  	26,134656  	29,244719  	27,787141  	28,971408  	28,641108  	31,714946  	30,644209  	33,087779  	59,286117  	25,270493  	23,867769  	28,451886  	64,513249  	0,299063  	0,151538  	-4281,398979  	25597,414733  	-0,018548  	-0,050007  	0,395609  	0,200458  	-4,097301  	16647,651147  	101117,019820  	14,665784  	-0,047958  
197,585000  	23,933721  	30,694997  	23,184507  	956,927186  	70,048384  	65,160042  	0,008641  	0,011753  	0,003966  	0,004325  	0,004463  	0,000000  	-0,000000  	26,783202  	25,302731  	26,218178  	26,135316  	29,249835  	27,787892  	28,976587  	28,640636  	31,716409  	30,642554  	33,098813  	59,290545  	25,275566  	23,877984  	28,450534  	64,507127  	0,269996  	0,136809  	-3867,263140  	22550,823834  	-0,022187  	-0,050000  	0,392849  	0,199059  	-4,074433  	16694,421826  	100917,120268  	14,636791  	-0,047951  
198,581000  	23,921249  	30,689211  	23,185306  	357,439972  	70,051873  	65,158114  	0,008644  	0,011739  	0,003963  	0,004340  	0,004444  	-0,000000  	-0,000000  	26,782377  	25,303565  	26,223683  	26,136269  	29,254644  	27,792607  	28,975525  	28,641715  	31,714038  	30,642713  	33,100745  	59,296248  	25,277771  	23,897203  	28,447123  	64,503784  	0,281775  	0,142777  	-4039,973533  	12587,499256  	-0,036539  	-0,050004  	0,378181  	0,191627  	-3,926646  	16665,448370  	100975,889748  	14,645315  	-0,047955  
199,582000  	23,905491  	30,684963  	23,184384  	1256,670793  	70,051250  	65,155470  	0,008649  	0,011749  	0,003964  	0,004348  	0,004476  	-0,000001  	-0,000000  	26,787719  	25,305677  	26,233223  	26,138261  	29,255666  	27,797806  	28,972500  	28,643868  	31,722428  	30,649818  	33,097396  	59,296465  	25,273262  	23,907622  	28,450959  	64,505023  	0,288717  	0,146295  	-4146,544115  	25597,837052  	-0,018548  	-0,050008  	0,402969  	0,204187  	-4,185747  	16687,137253  	101093,139202  	14,662320  	-0,047958  
200,584000  	23,923307  	30,679423  	23,184077  	1256,670793  	70,050502  	65,156154  	0,008652  	0,011759  	0,003964  	0,004276  	0,004437  	-0,000001  	-0,000000  	26,789456  	25,306532  	26,228927  	26,130647  	29,249912  	27,797554  	28,974823  	28,641863  	31,722922  	30,646054  	33,087842  	59,290831  	25,269837  	23,914167  	28,441438  	64,506642  	0,230627  	0,116860  	-3300,846172  	25598,428039  	-0,018549  	-0,050010  	0,372722  	0,188861  	-3,870432  	16707,254192  	101150,856579  	14,670691  	-0,047960  
201,582000  	23,920021  	30,669051  	23,184016  	57,696365  	70,058912  	65,160322  	0,008647  	0,011736  	0,003963  	0,004394  	0,004428  	-0,000000  	-0,000000  	26,791070  	25,306210  	26,220765  	26,136106  	29,250447  	27,793102  	28,979475  	28,647299  	31,716278  	30,642744  	33,092794  	59,290137  	25,279391  	23,933559  	28,451028  	64,508173  	0,325472  	0,164919  	-4653,428191  	1874,547058  	-0,054001  	-0,050003  	0,364902  	0,184898  	-3,792515  	16658,633541  	101060,460462  	14,657581  	-0,047954  
202,581000  	23,912648  	30,660864  	23,183954  	1256,670793  	70,062089  	65,158332  	0,008644  	0,011716  	0,003963  	0,004287  	0,004503  	0,000000  	-0,000000  	26,791878  	25,307297  	26,231276  	26,136886  	29,256629  	27,796670  	28,983481  	28,647029  	31,720739  	30,653377  	33,098964  	59,296621  	25,289315  	23,952361  	28,467047  	64,507168  	0,239213  	0,121211  	-3419,738228  	25592,689344  	-0,018544  	-0,049997  	0,424711  	0,215204  	-4,418781  	16614,112540  	100989,312886  	14,647261  	-0,047949  
203,585000  	23,916519  	30,660310  	23,184784  	1256,670793  	70,061342  	65,165454  	0,008650  	0,011730  	0,003964  	0,004310  	0,004419  	-0,000001  	-0,000000  	26,792007  	25,307260  	26,224059  	26,137198  	29,256076  	27,797075  	28,982470  	28,647929  	31,723488  	30,648732  	33,102102  	59,298432  	25,291544  	23,966635  	28,460211  	64,505740  	0,258189  	0,130827  	-3688,594394  	25597,987147  	-0,018548  	-0,050009  	0,358023  	0,181413  	-3,718974  	16644,193150  	101113,849389  	14,665324  	-0,047959  
204,581000  	23,943428  	30,660125  	23,184906  	1256,670793  	70,058725  	65,173913  	0,008647  	0,011767  	0,003961  	0,004361  	0,004513  	0,000001  	-0,000000  	26,786890  	25,306747  	26,225582  	26,137799  	29,254654  	27,799140  	28,980415  	28,651508  	31,712535  	30,638685  	33,094266  	59,289201  	25,290144  	23,974653  	28,454732  	64,507140  	0,298971  	0,151491  	-4254,044957  	25589,953905  	-0,018542  	-0,049991  	0,432502  	0,219152  	-4,482462  	16725,485786  	101056,181440  	14,656960  	-0,047944  
205,583000  	23,965145  	30,656063  	23,185551  	1256,670793  	70,056607  	65,171612  	0,008648  	0,011745  	0,003965  	0,004307  	0,004468  	0,000001  	-0,000000  	26,783280  	25,306149  	26,223178  	26,130059  	29,250134  	27,790813  	28,976178  	28,633800  	31,718725  	30,643174  	33,084914  	59,284797  	25,283268  	23,989461  	28,447270  	64,503013  	0,255704  	0,129567  	-3624,434466  	25587,024148  	-0,018540  	-0,049985  	0,396740  	0,201031  	-4,111982  	16677,358933  	101062,472874  	14,657872  	-0,047938  
206,582000  	23,984805  	30,658217  	23,186780  	1256,670793  	70,055361  	65,164023  	0,008651  	0,011756  	0,003960  	0,004349  	0,004459  	0,000000  	-0,000000  	26,784620  	25,313596  	26,227858  	26,131071  	29,246603  	27,792041  	28,974831  	28,644869  	31,729046  	30,648642  	33,097335  	59,300591  	25,300080  	24,010540  	28,433462  	64,506963  	0,289199  	0,146539  	-4088,475410  	25591,418722  	-0,018543  	-0,049994  	0,389990  	0,197611  	-4,047261  	16700,505156  	101135,322174  	14,668438  	-0,047947  
207,586000  	23,980289  	30,666527  	23,188899  	1256,670793  	70,054178  	65,162064  	0,008649  	0,011774  	0,003963  	0,004297  	0,004448  	0,000000  	-0,000000  	26,796746  	25,304691  	26,231234  	26,134299  	29,253305  	27,793500  	28,976895  	28,645157  	31,723466  	30,649333  	33,094916  	59,287423  	25,312058  	24,042147  	28,454400  	64,509407  	0,246957  	0,125135  	-3498,001450  	25591,110030  	-0,018543  	-0,049994  	0,380801  	0,192955  	-3,952524  	16739,501709  	101086,056926  	14,661293  	-0,047946  
208,582000  	23,982194  	30,677053  	23,190066  	1256,670793  	70,058227  	65,167724  	0,008644  	0,011745  	0,003962  	0,004330  	0,004533  	-0,000000  	-0,000000  	26,809195  	25,310959  	26,237019  	26,141634  	29,257972  	27,804170  	28,986892  	28,653136  	31,732302  	30,646725  	33,108135  	59,299096  	25,325154  	24,082517  	28,465029  	64,509226  	0,273741  	0,138707  	-3882,377227  	25595,009902  	-0,018546  	-0,050002  	0,448015  	0,227012  	-4,648643  	16678,450522  	100985,210391  	14,646666  	-0,047954  
209,582000  	23,989751  	30,689734  	23,189390  	57,696365  	70,061155  	65,168377  	0,008640  	0,011732  	0,003962  	0,004329  	0,004442  	0,000001  	-0,000000  	26,801778  	25,302148  	26,235806  	26,131896  	29,260668  	27,796530  	28,985924  	28,651007  	31,731554  	30,654924  	33,101822  	59,300313  	25,325943  	24,093925  	28,457999  	64,502374  	0,273381  	0,138524  	-3880,237315  	1873,899629  	-0,053991  	-0,049993  	0,375992  	0,190518  	-3,903146  	16649,812395  	100898,648448  	14,634112  	-0,047945  
210,583000  	23,982132  	30,694474  	23,190496  	1256,670793  	70,062962  	65,174846  	0,008652  	0,011772  	0,003965  	0,004317  	0,004453  	-0,000001  	-0,000000  	26,799393  	25,303301  	26,229986  	26,138683  	29,257952  	27,803423  	28,975161  	28,643875  	31,726644  	30,648908  	33,088765  	59,298282  	25,311904  	24,103361  	28,452609  	64,492387  	0,263594  	0,133565  	-3748,227296  	25600,455571  	-0,018550  	-0,050014  	0,384670  	0,194915  	-3,989428  	16735,237224  	101151,153145  	14,670734  	-0,047964  
211,581000  	23,985911  	30,697152  	23,192062  	1256,670793  	70,058632  	65,184270  	0,008636  	0,011740  	0,003964  	0,004318  	0,004496  	-0,000000  	-0,000000  	26,792213  	25,308988  	26,221377  	26,134202  	29,259641  	27,795578  	28,971875  	28,625291  	31,719591  	30,651512  	33,091490  	59,286533  	25,308248  	24,111299  	28,451227  	64,500326  	0,264450  	0,133999  	-3759,789669  	25595,374287  	-0,018546  	-0,050003  	0,418926  	0,212273  	-4,332484  	16666,593725  	100821,788447  	14,622964  	-0,047954  
212,581000  	24,003052  	30,700476  	23,194089  	1256,670793  	70,053088  	65,185203  	0,008653  	0,011754  	0,003965  	0,004322  	0,004427  	-0,000000  	-0,000000  	26,789347  	25,310269  	26,219209  	26,130117  	29,248455  	27,795255  	28,979089  	28,638042  	31,721597  	30,645884  	33,095931  	59,295325  	25,326778  	24,126710  	28,453682  	64,498022  	0,267309  	0,135448  	-3792,608470  	25594,279530  	-0,018546  	-0,050001  	0,364427  	0,184658  	-3,763850  	16696,042585  	101179,785878  	14,674887  	-0,047952  
213,585000  	23,996662  	30,700476  	23,195041  	57,696365  	70,047979  	65,177863  	0,008649  	0,011777  	0,003965  	0,004366  	0,004524  	-0,000001  	-0,000000  	26,781161  	25,296288  	26,222903  	26,129249  	29,247314  	27,790140  	28,968769  	28,642141  	31,720432  	30,640092  	33,081378  	59,283529  	25,322633  	24,123170  	28,451591  	64,499749  	0,302860  	0,153461  	-4301,097333  	1874,127073  	-0,054006  	-0,050009  	0,441436  	0,223679  	-4,561292  	16745,573720  	101100,708694  	14,663418  	-0,047959  
214,581000  	23,973009  	30,705154  	23,194549  	1256,670793  	70,044677  	65,169404  	0,008643  	0,011767  	0,003967  	0,004250  	0,004407  	0,000000  	-0,000000  	26,785400  	25,309682  	26,230774  	26,139444  	29,257442  	27,796363  	28,975278  	28,647273  	31,722101  	30,648811  	33,101042  	59,297212  	25,332443  	24,141707  	28,462917  	64,501430  	0,209484  	0,106147  	-2987,584017  	25592,373487  	-0,018544  	-0,049997  	0,348724  	0,176701  	-3,607123  	16725,567850  	100964,888564  	14,643719  	-0,047949  
215,583000  	23,946284  	30,710048  	23,195194  	1256,670793  	70,039756  	65,166573  	0,008650  	0,011735  	0,003963  	0,004324  	0,004475  	0,000000  	-0,000000  	26,794130  	25,309265  	26,223184  	26,133337  	29,245546  	27,794438  	28,974072  	28,637006  	31,721977  	30,647475  	33,097677  	59,296696  	25,340868  	24,145950  	28,461717  	64,501964  	0,269498  	0,136557  	-3861,544972  	25592,084536  	-0,018544  	-0,049996  	0,402788  	0,204095  	-4,164561  	16656,418527  	101122,880527  	14,666634  	-0,047948  
216,583000  	23,932707  	30,712203  	23,195256  	1256,670793  	70,038635  	65,166573  	0,008640  	0,011749  	0,003964  	0,004323  	0,004517  	0,000000  	-0,000000  	26,793423  	25,317633  	26,230719  	26,142255  	29,249971  	27,803504  	28,981088  	28,643200  	31,721826  	30,646499  	33,097810  	59,300437  	25,345983  	24,143591  	28,465878  	64,502040  	0,268336  	0,135968  	-3853,843822  	25591,094829  	-0,018543  	-0,049994  	0,435843  	0,220845  	-4,505295  	16686,853568  	100897,349207  	14,633923  	-0,047947  
217,582000  	23,940356  	30,706231  	23,196208  	57,696365  	70,039974  	65,158954  	0,008650  	0,011748  	0,003965  	0,004333  	0,004435  	0,000000  	-0,000000  	26,798639  	25,311207  	26,227363  	26,139663  	29,256356  	27,804013  	28,980135  	28,638187  	31,717093  	30,641358  	33,096813  	59,294537  	25,348243  	24,126925  	28,463810  	64,501153  	0,276103  	0,139903  	-3957,419072  	1873,653520  	-0,053995  	-0,049997  	0,370429  	0,187699  	-3,836150  	16684,242384  	101105,926842  	14,664175  	-0,047949  
218,582000  	23,952397  	30,693120  	23,197375  	1256,670793  	70,041095  	65,155719  	0,008645  	0,011754  	0,003962  	0,004353  	0,004452  	-0,000001  	-0,000000  	26,795579  	25,303126  	26,221922  	26,127291  	29,247990  	27,795141  	28,973625  	28,630773  	31,713075  	30,637115  	33,087911  	59,292703  	25,341785  	24,123784  	28,451705  	64,494159  	0,292351  	0,148137  	-4174,735269  	25597,205318  	-0,018548  	-0,050008  	0,384377  	0,194767  	-3,984146  	16697,785025  	101001,387356  	14,649013  	-0,047958  
219,585000  	23,965944  	30,683240  	23,198296  	357,439972  	70,045487  	65,154351  	0,008650  	0,011763  	0,003963  	0,004307  	0,004499  	-0,000000  	-0,000000  	26,784117  	25,296961  	26,214254  	26,126839  	29,243266  	27,784407  	28,964393  	28,627066  	31,712680  	30,635480  	33,086091  	59,282727  	25,337350  	24,116934  	28,445187  	64,488451  	0,255129  	0,129276  	-3630,538331  	12586,572187  	-0,036538  	-0,050003  	0,421775  	0,213716  	-4,376938  	16715,860982  	101116,101878  	14,665651  	-0,047954  
220,582000  	23,979644  	30,678808  	23,199217  	956,927186  	70,047169  	65,159016  	0,008644  	0,011725  	0,003963  	0,004348  	0,004477  	0,000001  	-0,000000  	26,785741  	25,299528  	26,215940  	26,135603  	29,249946  	27,790042  	28,965003  	28,630587  	31,716044  	30,647401  	33,084172  	59,283216  	25,342206  	24,116366  	28,453707  	64,489800  	0,288609  	0,146240  	-4095,879155  	22544,421426  	-0,022181  	-0,049985  	0,404122  	0,204772  	-4,191190  	16633,843213  	100982,922597  	14,646335  	-0,047939  
221,584000  	23,990334  	30,680008  	23,200384  	1256,670793  	70,045425  	65,161131  	0,008642  	0,011789  	0,003961  	0,004343  	0,004508  	0,000000  	-0,000000  	26,796301  	25,311762  	26,226208  	26,140416  	29,257300  	27,798714  	28,975338  	28,637908  	31,720978  	30,654818  	33,086694  	59,296781  	25,349948  	24,123701  	28,459559  	64,499879  	0,284826  	0,144323  	-4036,455723  	25591,745490  	-0,018544  	-0,049996  	0,428233  	0,216989  	-4,437742  	16772,250806  	100941,961194  	14,640394  	-0,047948  
222,582000  	23,978108  	30,684256  	23,199586  	657,183579  	70,043432  	65,159451  	0,008647  	0,011763  	0,003963  	0,004348  	0,004456  	0,000000  	-0,000000  	26,794771  	25,310341  	26,230358  	26,140585  	29,255152  	27,796523  	28,979216  	28,642711  	31,723567  	30,647828  	33,091603  	59,295022  	25,348585  	24,124774  	28,461842  	64,500813  	0,288286  	0,146077  	-4095,563517  	18529,394190  	-0,027608  	-0,049998  	0,387220  	0,196207  	-4,012464  	16715,791652  	101060,968861  	14,657654  	-0,047950  
223,581000  	23,987416  	30,692012  	23,199217  	657,183579  	70,038448  	65,162530  	0,008647  	0,011774  	0,003963  	0,004354  	0,004487  	-0,000001  	-0,000000  	26,783685  	25,301859  	26,218135  	26,132545  	29,244701  	27,783874  	28,968447  	28,635270  	31,717339  	30,642062  	33,085108  	59,283775  	25,342282  	24,111058  	28,456412  	64,489551  	0,293786  	0,148864  	-4172,732711  	18533,148274  	-0,027613  	-0,050010  	0,411763  	0,208643  	-4,259745  	16739,251273  	101053,604141  	14,656586  	-0,047960  
224,585000  	23,985204  	30,700814  	23,200261  	1256,670793  	70,034897  	65,166200  	0,008649  	0,011743  	0,003964  	0,004330  	0,004470  	0,000001  	-0,000000  	26,788022  	25,305575  	26,214128  	26,130031  	29,244013  	27,784122  	28,963694  	28,630572  	31,716176  	30,643431  	33,086606  	59,284939  	25,342482  	24,103835  	28,449291  	64,487432  	0,273745  	0,138709  	-3894,470367  	25588,068538  	-0,018541  	-0,049988  	0,398146  	0,201744  	-4,112784  	16672,713134  	101098,194945  	14,663053  	-0,047941  
225,581000  	23,973931  	30,699737  	23,202442  	1256,670793  	70,035458  	65,166356  	0,008651  	0,011780  	0,003961  	0,004360  	0,004465  	-0,000000  	-0,000000  	26,797333  	25,308341  	26,230533  	26,141377  	29,251495  	27,798227  	28,974916  	28,639768  	31,724217  	30,648617  	33,098189  	59,290131  	25,348256  	24,109394  	28,459905  	64,493824  	0,298627  	0,151316  	-4254,904019  	25595,955617  	-0,018547  	-0,050005  	0,394201  	0,199745  	-4,072367  	16754,165653  	101136,748515  	14,668645  	-0,047956  
226,582000  	23,964592  	30,703184  	23,203670  	1256,670793  	70,037326  	65,153169  	0,008648  	0,011759  	0,003968  	0,004293  	0,004525  	0,000001  	-0,000000  	26,792966  	25,306698  	26,230447  	26,142029  	29,250527  	27,793496  	28,977544  	28,639904  	31,724719  	30,653377  	33,090456  	59,290161  	25,357436  	24,098049  	28,463246  	64,496149  	0,244053  	0,123664  	-3483,941096  	25584,994782  	-0,018539  	-0,049982  	0,441832  	0,223880  	-4,578537  	16708,253813  	101082,116836  	14,660722  	-0,047936  
227,586000  	23,954455  	30,703923  	23,205052  	1256,670793  	70,035925  	65,157772  	0,008651  	0,011761  	0,003961  	0,004350  	0,004425  	0,000001  	-0,000000  	26,802361  	25,308543  	26,226214  	26,141777  	29,256874  	27,801189  	28,976018  	28,645123  	31,731509  	30,656384  	33,087711  	59,291681  	25,362235  	24,097183  	28,454586  	64,497890  	0,290325  	0,147110  	-4151,181526  	25588,874492  	-0,018542  	-0,049990  	0,362720  	0,183793  	-3,754111  	16712,376809  	101145,440720  	14,669906  	-0,047943  
228,581000  	23,927055  	30,699860  	23,204868  	1256,670793  	70,038105  	65,160757  	0,008636  	0,011765  	0,003966  	0,004312  	0,004507  	-0,000001  	-0,000000  	26,796541  	25,311956  	26,225862  	26,137056  	29,254703  	27,799847  	28,977655  	28,644606  	31,722302  	30,656970  	33,093775  	59,291917  	25,357828  	24,093547  	28,453116  	64,502105  	0,259056  	0,131265  	-3716,888427  	25599,628980  	-0,018550  	-0,050014  	0,428042  	0,216892  	-4,429449  	16721,683971  	100809,198518  	14,621138  	-0,047963  
229,583000  	23,927208  	30,695736  	23,207571  	57,696365  	70,039258  	65,156994  	0,008644  	0,011746  	0,003966  	0,004340  	0,004452  	0,000000  	-0,000000  	26,795842  	25,308702  	26,227001  	26,132951  	29,249130  	27,787517  	28,980092  	28,637623  	31,721418  	30,647440  	33,090980  	59,287253  	25,362843  	24,088392  	28,459708  	64,499019  	0,281828  	0,142804  	-4041,064109  	1873,078989  	-0,053996  	-0,049999  	0,384623  	0,194891  	-3,984159  	16678,759676  	100992,172629  	14,647676  	-0,047951  
230,582000  	23,934151  	30,688288  	23,209597  	1256,670793  	70,039569  	65,163899  	0,008658  	0,011762  	0,003964  	0,004307  	0,004464  	-0,000000  	-0,000000  	26,795295  	25,317451  	26,227656  	26,134049  	29,254379  	27,788222  	28,975723  	28,644162  	31,717853  	30,647065  	33,091687  	59,280690  	25,355513  	24,080943  	28,456482  	64,496270  	0,255507  	0,129468  	-3655,873954  	25596,068130  	-0,018547  	-0,050006  	0,393369  	0,199323  	-4,069250  	16713,627574  	101278,944812  	14,689269  	-0,047957  
231,581000  	23,927884  	30,679239  	23,210795  	357,439972  	70,043338  	65,154133  	0,008645  	0,011741  	0,003963  	0,004348  	0,004489  	0,000000  	-0,000000  	26,793948  	25,315328  	26,232518  	26,137611  	29,258234  	27,796953  	28,978046  	28,641951  	31,725605  	30,657660  	33,094314  	59,284937  	25,359487  	24,083537  	28,455589  	64,503655  	0,288526  	0,146198  	-4126,616110  	12585,283643  	-0,036535  	-0,050000  	0,413847  	0,209699  	-4,292967  	16668,213069  	101017,013555  	14,651279  	-0,047951  
232,585000  	23,914553  	30,675361  	23,211041  	-242,047242  	70,046391  	65,150401  	0,008651  	0,011762  	0,003963  	0,004312  	0,004455  	0,000000  	-0,000000  	26,788137  	25,306501  	26,224734  	26,131173  	29,243048  	27,801361  	28,981255  	28,638084  	31,724683  	30,646311  	33,079965  	59,291303  	25,358591  	24,076120  	28,453003  	64,496904  	0,259748  	0,131616  	-3720,230882  	-27035,340221  	-0,103412  	-0,049995  	0,386445  	0,195814  	-4,014280  	16713,656579  	101132,921402  	14,668090  	-0,047947  
233,582000  	23,928744  	30,673083  	23,213743  	1256,670793  	70,049692  	65,154008  	0,008654  	0,011738  	0,003963  	0,004329  	0,004468  	-0,000000  	-0,000000  	26,802488  	25,303366  	26,234008  	26,135185  	29,251303  	27,800819  	28,969820  	28,636799  	31,729013  	30,649655  	33,091874  	59,286074  	25,365330  	24,075647  	28,458656  	64,488161  	0,273508  	0,138588  	-3907,754018  	25593,324663  	-0,018545  	-0,050000  	0,396942  	0,201134  	-4,123066  	16661,951463  	101195,164940  	14,677118  	-0,047952  
234,584000  	23,943919  	30,665819  	23,214235  	1256,670793  	70,055984  	65,160789  	0,008650  	0,011765  	0,003962  	0,004297  	0,004475  	-0,000000  	-0,000000  	26,787526  	25,306092  	26,219364  	26,126511  	29,253462  	27,794484  	28,976067  	28,633222  	31,718405  	30,650710  	33,089341  	59,289193  	25,358794  	24,069103  	28,446842  	64,485897  	0,247648  	0,125485  	-3526,510491  	25594,896134  	-0,018546  	-0,050004  	0,402131  	0,203763  	-4,176553  	16721,122966  	101121,496553  	14,666433  	-0,047955  
235,582000  	23,968524  	30,660095  	23,212761  	1256,670793  	70,055019  	65,161100  	0,008642  	0,011756  	0,003965  	0,004335  	0,004450  	0,000001  	-0,000000  	26,800554  	25,316602  	26,236825  	26,141901  	29,255711  	27,806580  	28,988149  	28,644667  	31,714231  	30,654791  	33,103907  	59,290233  	25,374389  	24,085870  	28,462162  	64,509568  	0,278091  	0,140911  	-3942,132791  	25588,879163  	-0,018542  	-0,049991  	0,382977  	0,194057  	-3,976578  	16701,454548  	100950,194429  	14,641588  	-0,047943  
236,584000  	23,960537  	30,660218  	23,211901  	57,696365  	70,050222  	65,167071  	0,008648  	0,011742  	0,003962  	0,004345  	0,004522  	0,000001  	-0,000000  	26,798052  	25,309891  	26,240876  	26,145288  	29,255780  	27,805185  	28,980359  	28,644516  	31,722222  	30,653980  	33,106590  	59,289632  	25,367131  	24,070182  	28,465077  	64,510474  	0,286445  	0,145144  	-4065,479522  	1872,487396  	-0,053985  	-0,049989  	0,439541  	0,222719  	-4,553868  	16670,993332  	101081,820270  	14,660679  	-0,047942  
237,582000  	23,934611  	30,668620  	23,211409  	57,696365  	70,050191  	65,168906  	0,008655  	0,011753  	0,003963  	0,004312  	0,004439  	-0,000000  	-0,000000  	26,795674  	25,309243  	26,222906  	26,135344  	29,247418  	27,802008  	28,975016  	28,647983  	31,717372  	30,640737  	33,097458  	59,282606  	25,358577  	24,057233  	28,459299  	64,498782  	0,259492  	0,131487  	-3701,822316  	1872,896890  	-0,053997  	-0,050001  	0,373611  	0,189312  	-3,869319  	16695,619533  	101223,430496  	14,681217  	-0,047952  
238,581000  	23,938789  	30,679269  	23,211471  	1256,670793  	70,051810  	65,165298  	0,008647  	0,011735  	0,003963  	0,004314  	0,004503  	0,000000  	-0,000000  	26,802888  	25,307502  	26,235819  	26,144093  	29,261342  	27,802259  	28,988245  	28,650808  	31,725690  	30,650183  	33,094894  	59,303387  	25,372117  	24,078360  	28,471989  	64,500180  	0,260724  	0,132111  	-3722,962833  	25592,208342  	-0,018544  	-0,049998  	0,424434  	0,215064  	-4,400369  	16656,589729  	101053,731240  	14,656605  	-0,047950  
239,586000  	23,942567  	30,679362  	23,211563  	1256,670793  	70,050128  	65,160073  	0,008649  	0,011756  	0,003961  	0,004369  	0,004430  	0,000001  	-0,000000  	26,798544  	25,311398  	26,232672  	26,128475  	29,255337  	27,797560  	28,972990  	28,646812  	31,724099  	30,648453  	33,092731  	59,290839  	25,363215  	24,074212  	28,459499  	64,496557  	0,305358  	0,154727  	-4357,924292  	25585,207168  	-0,018539  	-0,049983  	0,366636  	0,185777  	-3,803901  	16701,010272  	101095,405813  	14,662649  	-0,047936  
240,585000  	23,936854  	30,672960  	23,212054  	1256,670793  	70,050128  	65,156092  	0,008656  	0,011755  	0,003964  	0,004332  	0,004482  	0,000000  	-0,000000  	26,795769  	25,318544  	26,230347  	26,134777  	29,250997  	27,791769  	28,978457  	28,643353  	31,716359  	30,642100  	33,093666  	59,288092  	25,355819  	24,070464  	28,461027  	64,502994  	0,275491  	0,139593  	-3931,283665  	25591,499702  	-0,018544  	-0,049996  	0,408362  	0,206920  	-4,240256  	16698,805870  	101239,113184  	14,683492  	-0,047948  
241,583000  	23,922724  	30,671206  	23,213221  	1256,670793  	70,052371  	65,159202  	0,008645  	0,011769  	0,003964  	0,004325  	0,004480  	0,000001  	-0,000000  	26,790108  	25,310523  	26,223089  	26,139168  	29,245488  	27,790576  	28,983461  	28,637886  	31,715336  	30,648069  	33,092893  	59,283651  	25,347071  	24,060515  	28,457491  	64,491453  	0,270069  	0,136846  	-3860,991971  	25586,907571  	-0,018541  	-0,049986  	0,406234  	0,205842  	-4,217417  	16729,816064  	101015,453054  	14,651053  	-0,047940  
242,585000  	23,924014  	30,671329  	23,212300  	657,183579  	70,055735  	65,158643  	0,008637  	0,011740  	0,003966  	0,004330  	0,004435  	0,000000  	-0,000000  	26,793633  	25,309515  	26,215080  	26,132983  	29,238163  	27,795258  	28,974625  	28,637343  	31,712429  	30,637340  	33,084010  	59,277256  	25,342938  	24,054271  	28,452928  	64,491793  	0,273995  	0,138836  	-3916,448096  	18528,734159  	-0,027607  	-0,049998  	0,371108  	0,188043  	-3,855833  	16666,977161  	100826,364036  	14,623628  	-0,047950  
243,582000  	23,930188  	30,667635  	23,212300  	657,183579  	70,056389  	65,163588  	0,008656  	0,011768  	0,003962  	0,004372  	0,004530  	0,000000  	-0,000000  	26,800739  	25,305839  	26,214374  	26,127973  	29,244333  	27,797157  	28,970924  	28,640684  	31,712442  	30,640987  	33,085860  	59,281001  	25,349173  	24,062758  	28,454879  	64,493443  	0,307696  	0,155912  	-4391,727034  	18528,541479  	-0,027607  	-0,049997  	0,446053  	0,226018  	-4,630462  	16727,682407  	101236,408786  	14,683100  	-0,047949  
244,583000  	23,923430  	30,663942  	23,212239  	57,696365  	70,060065  	65,163463  	0,008648  	0,011743  	0,003963  	0,004321  	0,004448  	0,000000  	-0,000000  	26,797807  	25,302829  	26,218538  	26,129556  	29,249955  	27,793345  	28,966528  	28,634467  	31,711010  	30,644546  	33,088355  	59,286178  	25,347923  	24,085440  	28,456280  	64,487566  	0,266396  	0,134985  	-3803,983519  	1872,782982  	-0,053995  	-0,049999  	0,381353  	0,193234  	-3,961890  	16672,851086  	101083,599665  	14,660937  	-0,047950  
245,581000  	23,928222  	30,662834  	23,213405  	1256,670793  	70,055704  	65,170865  	0,008650  	0,011737  	0,003962  	0,004334  	0,004497  	-0,000001  	-0,000000  	26,799369  	25,311311  	26,227656  	26,138398  	29,252816  	27,796700  	28,974098  	28,637771  	31,719778  	30,650019  	33,096854  	59,292791  	25,353634  	24,111353  	28,454664  	64,490159  	0,277096  	0,140407  	-3953,307668  	25598,062299  	-0,018549  	-0,050011  	0,420104  	0,212870  	-4,353990  	16661,183884  	101110,911974  	14,664898  	-0,047961  
246,581000  	23,934857  	30,664065  	23,214143  	1256,670793  	70,056576  	65,170057  	0,008655  	0,011742  	0,003964  	0,004290  	0,004475  	0,000000  	-0,000000  	26,799497  	25,313357  	26,226472  	26,141436  	29,255091  	27,798373  	28,975071  	28,642916  	31,723771  	30,648951  	33,094104  	59,289662  	25,349776  	24,119974  	28,457935  	64,496395  	0,241232  	0,122234  	-3438,869910  	25592,070999  	-0,018544  	-0,049998  	0,402800  	0,204102  	-4,176090  	16671,456002  	101224,927448  	14,681434  	-0,047949  
247,582000  	23,926287  	30,661941  	23,214143  	1256,670793  	70,062650  	65,166791  	0,008647  	0,011752  	0,003965  	0,004311  	0,004426  	0,000000  	-0,000000  	26,804929  	25,310911  	26,227332  	26,141586  	29,252089  	27,796973  	28,976117  	28,639563  	31,722124  	30,647274  	33,088168  	59,290728  	25,344045  	24,123129  	28,458281  	64,497351  	0,258205  	0,130835  	-3684,369035  	25590,586655  	-0,018543  	-0,049994  	0,363923  	0,184403  	-3,780239  	16692,805312  	101060,156835  	14,657537  	-0,047947  
248,582000  	23,903617  	30,661141  	23,214020  	57,696365  	70,062214  	65,165298  	0,008647  	0,011757  	0,003965  	0,004365  	0,004492  	-0,000000  	-0,000000  	26,807657  	25,312647  	26,227862  	26,137250  	29,245670  	27,798042  	28,980384  	28,636671  	31,719020  	30,652207  	33,091036  	59,296774  	25,347045  	24,130010  	28,461272  	64,494996  	0,302666  	0,153363  	-4332,805199  	1872,906226  	-0,054001  	-0,050005  	0,415746  	0,210661  	-4,319474  	16704,002062  	101046,430070  	14,655546  	-0,047956  
249,584000  	23,900115  	30,663080  	23,215862  	1256,670793  	70,061466  	65,164365  	0,008652  	0,011756  	0,003967  	0,004316  	0,004480  	-0,000001  	-0,000000  	26,797891  	25,307036  	26,225372  	26,131313  	29,244979  	27,799999  	28,980427  	28,636918  	31,716727  	30,649562  	33,093968  	59,293597  	25,346826  	24,131600  	28,466728  	64,497337  	0,262541  	0,133032  	-3761,433508  	25596,395099  	-0,018547  	-0,050007  	0,406577  	0,206016  	-4,224377  	16700,675650  	101155,220335  	14,671324  	-0,047958  
250,583000  	23,905645  	30,661049  	23,215924  	657,183579  	70,062962  	65,168595  	0,008650  	0,011727  	0,003963  	0,004345  	0,004379  	0,000000  	-0,000000  	26,795510  	25,306570  	26,228199  	26,134932  	29,253404  	27,800436  	28,976268  	28,640382  	31,718805  	30,647256  	33,092196  	59,290153  	25,347144  	24,128539  	28,464102  	64,498776  	0,285941  	0,144889  	-4092,106166  	18527,450752  	-0,027605  	-0,049995  	0,326382  	0,165380  	-3,389248  	16637,942156  	101126,206302  	14,667116  	-0,047947  
251,581000  	23,889887  	30,654678  	23,217306  	-242,047242  	70,067385  	65,175157  	0,008650  	0,011762  	0,003965  	0,004338  	0,004511  	0,000001  	-0,000000  	26,797957  	25,313642  	26,224081  	26,131920  	29,253653  	27,796863  	28,969445  	28,641983  	31,716029  	30,648552  	33,087178  	59,287791  	25,353600  	24,126194  	28,459228  	64,493944  	0,280183  	0,141971  	-4015,270860  	-27031,531406  	-0,103395  	-0,049987  	0,431231  	0,218508  	-4,476072  	16714,528153  	101110,022276  	14,664769  	-0,047940  
252,585000  	23,892651  	30,648891  	23,217674  	-242,047242  	70,066513  	65,172172  	0,008648  	0,011758  	0,003963  	0,004304  	0,004437  	-0,000001  	-0,000000  	26,791527  	25,300858  	26,215350  	26,118544  	29,238846  	27,789409  	28,970087  	28,632758  	31,708884  	30,637434  	33,085436  	59,279687  	25,358780  	24,117640  	28,452328  	64,494892  	0,253093  	0,128244  	-3622,463749  	-27041,518172  	-0,103433  	-0,050008  	0,372011  	0,188501  	-3,863052  	16705,445252  	101079,807858  	14,660387  	-0,047958  
253,582000  	23,937929  	30,645598  	23,217859  	1256,670793  	70,061498  	65,169341  	0,008640  	0,011781  	0,003963  	0,004344  	0,004504  	-0,000001  	-0,000000  	26,794069  	25,298117  	26,213920  	26,124524  	29,238476  	27,786086  	28,966538  	28,630742  	31,708543  	30,641288  	33,090084  	59,282081  	25,363075  	24,101700  	28,447928  	64,495023  	0,285312  	0,144570  	-4054,235220  	25596,956252  	-0,018548  	-0,050009  	0,425604  	0,215657  	-4,417605  	16755,913752  	100911,188950  	14,635931  	-0,047959  
254,584000  	23,960415  	30,641351  	23,217244  	1256,670793  	70,058507  	65,173509  	0,008645  	0,011735  	0,003963  	0,004308  	0,004485  	0,000002  	-0,000000  	26,798853  	25,306727  	26,221248  	26,134617  	29,242972  	27,794344  	28,965412  	28,639929  	31,716658  	30,648365  	33,093163  	59,294747  	25,366398  	24,104971  	28,450028  	64,494273  	0,255771  	0,129601  	-3619,979986  	25583,991980  	-0,018539  	-0,049980  	0,410156  	0,207829  	-4,251030  	16657,075745  	101007,770584  	14,649939  	-0,047935  
255,584000  	23,963548  	30,643659  	23,218811  	1256,670793  	70,052620  	65,172420  	0,008646  	0,011771  	0,003965  	0,004343  	0,004450  	-0,000000  	-0,000000  	26,790521  	25,297332  	26,217851  	26,123155  	29,240374  	27,791127  	28,964809  	28,637735  	31,716212  	30,640301  	33,082115  	59,291670  	25,356819  	24,099444  	28,451402  	64,487383  	0,284382  	0,144098  	-4024,409690  	25594,653855  	-0,018546  	-0,050004  	0,382272  	0,193700  	-3,958142  	16732,894162  	101026,376565  	14,652637  	-0,047955  
256,582000  	23,954701  	30,654370  	23,217398  	1256,670793  	70,050689  	65,174908  	0,008639  	0,011744  	0,003963  	0,004349  	0,004523  	0,000001  	-0,000000  	26,789688  	25,296903  	26,223555  	26,117578  	29,244849  	27,789632  	28,973574  	28,633312  	31,714699  	30,636143  	33,092908  	59,285121  	25,357324  	24,091159  	28,455253  	64,492212  	0,289661  	0,146773  	-4111,126323  	25587,840279  	-0,018541  	-0,049989  	0,440221  	0,223063  	-4,554028  	16676,239753  	100882,704499  	14,631799  	-0,047942  
257,581000  	23,959923  	30,668189  	23,218073  	1256,670793  	70,054115  	65,173664  	0,008655  	0,011752  	0,003963  	0,004298  	0,004435  	0,000001  	-0,000000  	26,787782  	25,298842  	26,210835  	26,122885  	29,241649  	27,787149  	28,974292  	28,633420  	31,711672  	30,633664  	33,089178  	59,284291  	25,349582  	24,080028  	28,461411  	64,490658  	0,248010  	0,125668  	-3524,488970  	25589,433877  	-0,018542  	-0,049992  	0,371027  	0,188002  	-3,841901  	16692,121919  	101226,311422  	14,681635  	-0,047945  
258,585000  	23,959370  	30,675945  	23,216108  	1256,670793  	70,057417  	65,172545  	0,008652  	0,011756  	0,003963  	0,004371  	0,004481  	0,000001  	-0,000000  	26,788707  	25,311389  	26,212639  	26,122366  	29,238026  	27,788975  	28,978138  	28,629519  	31,707323  	30,636028  	33,092416  	59,296664  	25,367914  	24,091032  	28,466208  	64,495460  	0,306944  	0,155531  	-4367,408494  	25588,603701  	-0,018542  	-0,049990  	0,407475  	0,206471  	-4,223134  	16700,948724  	101149,910393  	14,670554  	-0,047943  
259,581000  	23,955960  	30,677607  	23,213805  	1256,670793  	70,058320  	65,161597  	0,008650  	0,011779  	0,003964  	0,004275  	0,004469  	0,000001  	-0,000000  	26,779722  	25,291674  	26,219351  	26,116471  	29,229556  	27,790019  	28,961358  	28,630764  	31,708078  	30,635399  	33,076561  	59,275535  	25,354304  	24,065799  	28,447221  	64,481353  	0,229791  	0,116437  	-3272,093617  	25589,430011  	-0,018542  	-0,049992  	0,397459  	0,201395  	-4,129313  	16751,437741  	101117,231653  	14,665815  	-0,047945  
260,585000  	23,969599  	30,680193  	23,212638  	1256,670793  	70,058134  	65,155750  	0,008649  	0,011745  	0,003961  	0,004367  	0,004452  	0,000000  	-0,000000  	26,779769  	25,299247  	26,218467  	26,118241  	29,245215  	27,781673  	28,971773  	28,620833  	31,701697  	30,636280  	33,080944  	59,279834  	25,344110  	24,067560  	28,454272  	64,504792  	0,304323  	0,154203  	-4326,264837  	25592,511556  	-0,018545  	-0,049999  	0,384358  	0,194757  	-3,997813  	16678,512070  	101103,766148  	14,663862  	-0,047950  
261,584000  	23,961029  	30,682101  	23,211501  	57,696365  	70,065080  	65,163121  	0,008652  	0,011771  	0,003963  	0,004304  	0,004495  	-0,000000  	-0,000000  	26,780533  	25,306699  	26,214477  	26,135679  	29,246062  	27,782436  	28,974604  	28,634783  	31,717440  	30,644237  	33,084884  	59,292904  	25,372059  	24,059067  	28,468345  	64,496323  	0,253323  	0,128361  	-3606,868752  	1873,080068  	-0,054002  	-0,050006  	0,418154  	0,211882  	-4,348964  	16733,412013  	101160,014817  	14,672020  	-0,047957  
262,584000  	23,975712  	30,681732  	23,209843  	1256,670793  	70,066326  	65,167973  	0,008650  	0,011788  	0,003962  	0,004345  	0,004472  	0,000000  	-0,000000  	26,776565  	25,290330  	26,211124  	26,125248  	29,231029  	27,778031  	28,958511  	28,613563  	31,705743  	30,629225  	33,081182  	59,282161  	25,358812  	24,050459  	28,446750  	64,487967  	0,286438  	0,145140  	-4069,224429  	25593,067083  	-0,018545  	-0,050000  	0,399908  	0,202636  	-4,156142  	16769,573830  	101126,262791  	14,667124  	-0,047951  
263,605000  	23,993498  	30,683486  	23,207724  	1256,670793  	70,066295  	65,173416  	0,008642  	0,011745  	0,003960  	0,004355  	0,004502  	0,000001  	-0,000000  	26,783391  	25,295163  	26,216663  	26,116502  	29,230781  	27,785890  	28,963549  	28,617075  	31,700151  	30,631299  	33,083300  	59,279191  	25,356519  	24,049843  	28,457862  	64,496441  	0,294461  	0,149206  	-4173,199729  	25586,602460  	-0,018540  	-0,049985  	0,423484  	0,214582  	-4,396248  	16676,717987  	100950,865233  	14,641685  	-0,047939  
264,584000  	23,994235  	30,683794  	23,205022  	57,696365  	70,065734  	65,172856  	0,008653  	0,011756  	0,003963  	0,004313  	0,004423  	0,000001  	-0,000000  	26,782996  	25,307626  	26,224925  	26,130442  	29,236539  	27,792269  	28,976189  	28,635525  	31,712881  	30,637655  	33,095775  	59,287062  	25,367111  	24,050623  	28,462335  	64,503705  	0,260170  	0,131830  	-3686,978457  	1872,933448  	-0,053988  	-0,049991  	0,361373  	0,183110  	-3,751466  	16700,522134  	101173,381467  	14,673958  	-0,047943  
265,586000  	23,983607  	30,689580  	23,202319  	57,696365  	70,065017  	65,175748  	0,008651  	0,011749  	0,003965  	0,004349  	0,004516  	-0,000001  	-0,000000  	26,778187  	25,292959  	26,208373  	26,114442  	29,238670  	27,784510  	28,969707  	28,625052  	31,697735  	30,630202  	33,080346  	59,287798  	25,344956  	24,039495  	28,461075  	64,493118  	0,289726  	0,146806  	-4115,908758  	1873,863001  	-0,054010  	-0,050014  	0,435189  	0,220514  	-4,514431  	16685,675670  	101127,194855  	14,667260  	-0,047963  
266,581000  	23,967265  	30,699183  	23,197160  	1256,670793  	70,066076  	65,184892  	0,008647  	0,011778  	0,003964  	0,004316  	0,004481  	0,000001  	-0,000000  	26,786042  	25,294369  	26,213080  	26,119628  	29,237960  	27,782419  	28,963832  	28,619229  	31,704178  	30,634449  	33,075469  	59,289373  	25,339195  	24,040523  	28,460039  	64,495085  	0,262538  	0,133030  	-3744,097905  	25589,072591  	-0,018542  	-0,049990  	0,407199  	0,206331  	-4,217098  	16749,540370  	101042,122803  	14,654921  	-0,047943  
267,582000  	23,972978  	30,704169  	23,194304  	1256,670793  	70,068631  	65,182342  	0,008646  	0,011735  	0,003965  	0,004340  	0,004437  	-0,000001  	-0,000000  	26,792106  	25,297803  	26,219703  	26,130768  	29,240043  	27,786877  	28,961730  	28,635740  	31,708915  	30,640843  	33,093505  	59,292344  	25,336777  	24,042895  	28,461959  	64,494079  	0,282036  	0,142910  	-4021,739385  	25596,857100  	-0,018548  	-0,050007  	0,372684  	0,188842  	-3,863682  	16656,332219  	101032,442044  	14,653517  	-0,047957  
268,583000  	23,967080  	30,704539  	23,193505  	57,696365  	70,071496  	65,177987  	0,008647  	0,011755  	0,003963  	0,004356  	0,004443  	-0,000000  	-0,000000  	26,795259  	25,303617  	26,214322  	26,140870  	29,243886  	27,795382  	28,967965  	28,634233  	31,711098  	30,638898  	33,089665  	59,290625  	25,334846  	24,046613  	28,462848  	64,492847  	0,295394  	0,149678  	-4216,139603  	1874,070630  	-0,054002  	-0,050005  	0,377150  	0,191105  	-3,915754  	16699,725550  	101052,255472  	14,656391  	-0,047956  
269,583000  	23,933321  	30,697613  	23,190250  	57,696365  	70,069036  	65,175095  	0,008651  	0,011760  	0,003968  	0,004286  	0,004480  	0,000001  	-0,000000  	26,791163  	25,300585  	26,211400  	26,128233  	29,242644  	27,790471  	28,971930  	28,630940  	31,712958  	30,640705  	33,082401  	59,291547  	25,335054  	24,041032  	28,458633  	64,491320  	0,238581  	0,120891  	-3418,819894  	1873,694033  	-0,053986  	-0,049988  	0,406232  	0,205841  	-4,218069  	16710,335120  	101138,852720  	14,668950  	-0,047941  
270,600000  	23,937315  	30,698598  	23,187118  	1256,670793  	70,067104  	65,177397  	0,008645  	0,011809  	0,003963  	0,004349  	0,004456  	0,000000  	-0,000000  	26,789372  	25,295913  	26,214132  	26,120422  	29,243163  	27,791037  	28,974113  	28,632930  	31,706874  	30,633734  	33,084552  	59,288412  	25,334196  	24,035297  	28,459690  	64,492996  	0,289128  	0,146503  	-4141,305897  	25592,048745  	-0,018544  	-0,049996  	0,387268  	0,196232  	-4,017683  	16815,743180  	101015,481298  	14,651057  	-0,047948  
271,584000  	23,942660  	30,695551  	23,183801  	357,439972  	70,069596  	65,178454  	0,008647  	0,011729  	0,003964  	0,004321  	0,004482  	-0,000001  	-0,000000  	26,783829  	25,292936  	26,212719  	26,123322  	29,239989  	27,784809  	28,967368  	28,632845  	31,699967  	30,626931  	33,075414  	59,279529  	25,325074  	24,018490  	28,456443  	64,492655  	0,266967  	0,135274  	-3819,133409  	12588,173843  	-0,036541  	-0,050007  	0,408077  	0,206776  	-4,234803  	16644,188198  	101048,336565  	14,655822  	-0,047957  
272,581000  	23,934366  	30,685641  	23,181283  	-242,047242  	70,069285  	65,182684  	0,008651  	0,011764  	0,003963  	0,004362  	0,004433  	-0,000001  	-0,000000  	26,777155  	25,293539  	26,217259  	26,118590  	29,237091  	27,779650  	28,962215  	28,627664  	31,703365  	30,624899  	33,072207  	59,281863  	25,321456  	24,004562  	28,449084  	64,490394  	0,300281  	0,152155  	-4294,691171  	-27041,842088  	-0,103449  	-0,050010  	0,369037  	0,186994  	-3,826115  	16719,032463  	101148,095692  	14,670291  	-0,047960  
273,583000  	23,934550  	30,679208  	23,177229  	57,696365  	70,068319  	65,182342  	0,008644  	0,011742  	0,003968  	0,004311  	0,004469  	-0,000001  	-0,000000  	26,784745  	25,292940  	26,216524  	26,119054  	29,240421  	27,784721  	28,967133  	28,625130  	31,711840  	30,628894  	33,077687  	59,286761  	25,311721  	23,997788  	28,451599  	64,497345  	0,258976  	0,131225  	-3700,296870  	1875,251207  	-0,054011  	-0,050012  	0,397656  	0,201495  	-4,122311  	16671,926454  	100994,432179  	14,648004  	-0,047962  
274,583000  	23,936270  	30,676746  	23,175141  	1256,670793  	70,065267  	65,178796  	0,008653  	0,011731  	0,003964  	0,004321  	0,004459  	0,000000  	-0,000000  	26,793983  	25,298649  	26,217805  	26,125312  	29,244785  	27,789644  	28,974146  	28,632917  	31,716854  	30,636447  	33,086281  	59,287107  	25,306653  	23,996593  	28,459899  	64,504575  	0,267004  	0,135293  	-3812,643881  	25594,296846  	-0,018545  	-0,050000  	0,389430  	0,197327  	-4,037437  	16648,182439  	101181,586457  	14,675148  	-0,047951  
275,582000  	23,951199  	30,674622  	23,174035  	357,439972  	70,062245  	65,175841  	0,008650  	0,011774  	0,003964  	0,004367  	0,004482  	0,000001  	-0,000000  	26,793185  	25,302010  	26,219420  	26,131019  	29,247498  	27,784163  	28,968460  	28,635392  	31,714115  	30,633163  	33,088387  	59,289192  	25,312409  	23,991496  	28,458272  	64,502882  	0,304005  	0,154041  	-4330,003449  	12585,367457  	-0,036532  	-0,049992  	0,408133  	0,206804  	-4,231284  	16739,916273  	101115,240424  	14,665526  	-0,047944  
276,582000  	23,952674  	30,673206  	23,173175  	956,927186  	70,059193  	65,171612  	0,008648  	0,011768  	0,003962  	0,004298  	0,004470  	-0,000001  	-0,000000  	26,793900  	25,297857  	26,212294  	26,136446  	29,248572  	27,782908  	28,960276  	28,632421  	31,709172  	30,630271  	33,083450  	59,287905  	25,315552  	23,984392  	28,454030  	64,501598  	0,248435  	0,125884  	-3536,987160  	22555,637272  	-0,022192  	-0,050011  	0,398738  	0,202044  	-4,134877  	16727,706460  	101067,578044  	14,658613  	-0,047961  
277,581000  	23,950032  	30,670344  	23,172868  	57,696365  	70,057137  	65,173913  	0,008649  	0,011753  	0,003963  	0,004327  	0,004450  	-0,000001  	-0,000000  	26,793384  	25,299526  	26,216158  	26,129747  	29,246883  	27,795174  	28,968585  	28,638538  	31,711585  	30,639377  	33,087269  	59,286209  	25,315664  	23,987912  	28,455576  	64,503293  	0,271444  	0,137543  	-3864,442440  	1875,440527  	-0,054010  	-0,050011  	0,382799  	0,193967  	-3,966050  	16694,505305  	101090,491292  	14,661936  	-0,047961  
278,585000  	23,957957  	30,675330  	23,173421  	1256,670793  	70,056389  	65,179387  	0,008650  	0,011749  	0,003963  	0,004304  	0,004522  	-0,000000  	-0,000000  	26,787571  	25,296287  	26,221350  	26,120193  	29,245002  	27,796286  	28,971681  	28,639598  	31,713669  	30,635663  	33,087879  	59,286160  	25,304988  	23,981213  	28,455967  	64,502527  	0,252836  	0,128114  	-3597,957873  	25595,259829  	-0,018546  	-0,050002  	0,439475  	0,222685  	-4,547450  	16685,445750  	101118,149595  	14,665948  	-0,047953  
279,582000  	23,938881  	30,677361  	23,173144  	1256,670793  	70,054271  	65,178205  	0,008651  	0,011751  	0,003963  	0,004339  	0,004443  	-0,000001  	-0,000000  	26,792399  	25,296279  	26,221204  	26,124951  	29,243856  	27,791733  	28,964541  	28,639702  	31,711811  	30,635454  	33,086921  	59,279464  	25,301229  	23,970754  	28,465085  	64,502791  	0,281010  	0,142390  	-4011,444362  	25598,027728  	-0,018548  	-0,050008  	0,377367  	0,191215  	-3,904043  	16690,528750  	101130,760707  	14,667777  	-0,047958  
280,581000  	23,923154  	30,676930  	23,172530  	1256,670793  	70,053461  	65,167817  	0,008639  	0,011725  	0,003964  	0,004340  	0,004546  	-0,000000  	-0,000000  	26,797504  	25,301114  	26,227464  	26,133921  	29,247782  	27,798710  	28,974820  	28,640541  	31,716828  	30,651380  	33,096194  	59,289206  	25,303707  	23,974731  	28,468384  	64,511170  	0,282374  	0,143081  	-4040,077313  	25595,442435  	-0,018546  	-0,050002  	0,458700  	0,232427  	-4,754786  	16633,826942  	100881,186364  	14,631579  	-0,047953  
281,585000  	23,934949  	30,677915  	23,170657  	1256,670793  	70,062993  	65,174349  	0,008647  	0,011768  	0,003965  	0,004304  	0,004418  	0,000000  	-0,000000  	26,783759  	25,298492  	26,221083  	26,131918  	29,250811  	27,802177  	28,974192  	28,635167  	31,718053  	30,634113  	33,095136  	59,288591  	25,299838  	23,969490  	28,457583  	64,508825  	0,252798  	0,128095  	-3611,128421  	25592,017106  	-0,018544  	-0,049995  	0,356987  	0,180888  	-3,702726  	16726,556860  	101054,663305  	14,656740  	-0,047947  
282,582000  	23,944718  	30,675576  	23,170473  	657,183579  	70,070282  	65,176277  	0,008649  	0,011703  	0,003963  	0,004305  	0,004473  	0,000000  	-0,000000  	26,791843  	25,302566  	26,216574  	26,127703  	29,240397  	27,792733  	28,978473  	28,629639  	31,720645  	30,638764  	33,084172  	59,286135  	25,289789  	23,962384  	28,458599  	64,512003  	0,254126  	0,128767  	-3623,568560  	18529,143900  	-0,027606  	-0,049994  	0,400977  	0,203178  	-4,163559  	16586,909821  	101103,540193  	14,663829  	-0,047946  
283,583000  	23,936608  	30,668928  	23,169551  	-242,047242  	70,071091  	65,176184  	0,008640  	0,011748  	0,003963  	0,004320  	0,004545  	-0,000001  	-0,000000  	26,804616  	25,307471  	26,226644  	26,139709  	29,253801  	27,797709  	28,976439  	28,640872  	31,716250  	30,648406  	33,099765  	59,294155  	25,309011  	23,984179  	28,461956  	64,506751  	0,266168  	0,134869  	-3796,106364  	-27041,425796  	-0,103452  	-0,050010  	0,458141  	0,232144  	-4,758004  	16685,134473  	100905,984924  	14,635176  	-0,047960  
284,583000  	23,932369  	30,670405  	23,166296  	-242,047242  	70,068662  	65,178796  	0,008646  	0,011784  	0,003965  	0,004377  	0,004486  	-0,000000  	-0,000000  	26,785120  	25,293630  	26,207527  	26,122139  	29,238433  	27,786661  	28,966323  	28,633844  	31,706969  	30,634582  	33,092226  	59,292903  	25,288836  	23,983428  	28,446898  	64,503458  	0,311975  	0,158080  	-4453,193575  	-27038,458967  	-0,103442  	-0,050004  	0,411027  	0,208271  	-4,264310  	16762,374151  	101034,030790  	14,653747  	-0,047954  
285,583000  	23,926133  	30,675484  	23,162488  	956,927186  	70,065204  	65,173353  	0,008649  	0,011773  	0,003964  	0,004348  	0,004469  	0,000000  	-0,000000  	26,783898  	25,303898  	26,217456  	26,117516  	29,235478  	27,789010  	28,967750  	28,633617  	31,712730  	30,639614  	33,087702  	59,273692  	25,284546  	23,987868  	28,449923  	64,498688  	0,288372  	0,146120  	-4123,192181  	22549,783507  	-0,022186  	-0,049995  	0,397727  	0,201531  	-4,127998  	16737,003717  	101093,944167  	14,662437  	-0,047947  
286,585000  	23,924597  	30,674068  	23,158619  	-242,047242  	70,063522  	65,176712  	0,008644  	0,011745  	0,003963  	0,004303  	0,004470  	0,000000  	-0,000000  	26,792822  	25,308629  	26,218527  	26,125444  	29,247573  	27,792183  	28,974229  	28,640203  	31,711155  	30,645747  	33,090582  	59,298718  	25,293867  	23,997865  	28,466941  	64,508177  	0,251873  	0,127626  	-3601,379256  	-27033,718508  	-0,103427  	-0,049994  	0,398371  	0,201858  	-4,130422  	16678,064257  	100994,622828  	14,648032  	-0,047946  
287,583000  	23,904508  	30,670652  	23,158434  	657,183579  	70,061280  	65,176059  	0,008641  	0,011760  	0,003962  	0,004329  	0,004498  	0,000001  	-0,000000  	26,776169  	25,289417  	26,216781  	26,117246  	29,241007  	27,782448  	28,953244  	28,626048  	31,702083  	30,622900  	33,074474  	59,275060  	25,286172  	23,983236  	28,448004  	64,495993  	0,273436  	0,138552  	-3919,357932  	18528,499485  	-0,027605  	-0,049990  	0,420997  	0,213322  	-4,363589  	16710,923715  	100913,349644  	14,636244  	-0,047943  
288,585000  	23,869060  	30,665973  	23,157636  	57,696365  	70,062526  	65,174877  	0,008651  	0,011741  	0,003964  	0,004304  	0,004484  	0,000000  	-0,000000  	26,781382  	25,294858  	26,214779  	26,122322  	29,238349  	27,780368  	28,963961  	28,622726  	31,706472  	30,625531  	33,074937  	59,275514  	25,291951  	23,972177  	28,450455  	64,496231  	0,252625  	0,128007  	-3637,539707  	1875,810396  	-0,053997  	-0,049996  	0,409498  	0,207496  	-4,246516  	16668,955888  	101139,996617  	14,669116  	-0,047948  
289,581000  	23,852319  	30,661633  	23,156285  	1256,670793  	70,063740  	65,171114  	0,008651  	0,011761  	0,003963  	0,004377  	0,004464  	0,000000  	-0,000000  	26,790374  	25,304084  	26,209218  	26,125323  	29,237426  	27,786085  	28,973165  	28,630023  	31,705845  	30,631796  	33,085353  	59,291514  	25,299695  	23,976043  	28,458673  	64,500027  	0,312342  	0,158266  	-4505,604579  	25593,426475  	-0,018545  	-0,049997  	0,393405  	0,199341  	-4,083780  	16711,155050  	101144,649878  	14,669791  	-0,047948  
290,586000  	23,867678  	30,653446  	23,156899  	1256,670793  	70,065734  	65,170430  	0,008645  	0,011767  	0,003965  	0,004281  	0,004459  	0,000001  	-0,000000  	26,791414  	25,304738  	26,221322  	26,127806  	29,256775  	27,797596  	28,974810  	28,636344  	31,714458  	30,644254  	33,101958  	59,299216  	25,305613  	23,973970  	28,465842  	64,508432  	0,233917  	0,118527  	-3362,634324  	25591,204222  	-0,018543  	-0,049992  	0,389938  	0,197584  	-4,050006  	16726,109046  	101018,927112  	14,651557  	-0,047944  
291,583000  	23,879566  	30,639412  	23,156715  	357,439972  	70,062588  	65,175251  	0,008643  	0,011750  	0,003960  	0,004324  	0,004451  	-0,000000  	-0,000000  	26,791350  	25,308686  	26,226715  	26,132951  	29,243791  	27,790299  	28,974828  	28,641752  	31,719108  	30,637978  	33,094040  	59,292285  	25,297166  	23,963491  	28,462800  	64,517944  	0,269207  	0,136409  	-3855,161781  	12588,898177  	-0,036540  	-0,050004  	0,383085  	0,194112  	-3,972360  	16687,914029  	100955,066584  	14,642294  	-0,047955  
292,582000  	23,891914  	30,628024  	23,156346  	956,927186  	70,059909  	65,172140  	0,008651  	0,011753  	0,003963  	0,004354  	0,004494  	0,000002  	-0,000000  	26,785814  	25,295801  	26,219412  	26,127896  	29,237244  	27,782928  	28,964156  	28,637592  	31,705572  	30,634376  	33,088172  	59,279021  	25,289226  	23,943905  	28,457164  	64,503487  	0,293782  	0,148861  	-4192,305946  	22544,188271  	-0,022180  	-0,049981  	0,417864  	0,211735  	-4,333379  	16694,781916  	101138,662071  	14,668923  	-0,047935  
293,581000  	23,917102  	30,626269  	23,156561  	1256,670793  	70,060127  	65,162623  	0,008649  	0,011770  	0,003962  	0,004318  	0,004482  	0,000001  	-0,000000  	26,791435  	25,289762  	26,219338  	26,125001  	29,233908  	27,774160  	28,956777  	28,628295  	31,705158  	30,624436  	33,082487  	59,273346  	25,270327  	23,933525  	28,456117  	64,503900  	0,264300  	0,133923  	-3756,502431  	25591,350139  	-0,018543  	-0,049992  	0,408135  	0,206805  	-4,240907  	16731,269159  	101101,711370  	14,663563  	-0,047945  
294,583000  	23,937192  	30,628239  	23,156868  	657,183579  	70,061622  	65,163743  	0,008636  	0,011734  	0,003961  	0,004334  	0,004463  	-0,000000  	-0,000000  	26,785487  	25,306661  	26,226738  	26,123721  	29,247849  	27,794499  	28,970310  	28,635513  	31,712576  	30,634835  	33,086252  	59,295737  	25,282421  	23,929953  	28,464588  	64,520117  	0,277352  	0,140536  	-3931,363050  	18532,564185  	-0,027611  	-0,050002  	0,393203  	0,199239  	-4,086061  	16654,505593  	100821,513065  	14,622924  	-0,047953  
295,582000  	23,934980  	30,630825  	23,157882  	-242,047242  	70,065017  	65,168626  	0,008652  	0,011739  	0,003964  	0,004329  	0,004469  	0,000001  	-0,000000  	26,780081  	25,294542  	26,223055  	26,117383  	29,234610  	27,794040  	28,966735  	28,630027  	31,706290  	30,627652  	33,087130  	59,284554  	25,271462  	23,911481  	28,453716  	64,513769  	0,273512  	0,138591  	-3879,710943  	-27032,556705  	-0,103423  	-0,049992  	0,397722  	0,201529  	-4,131770  	16665,321029  	101148,851229  	14,670401  	-0,047944  
296,583000  	23,922140  	30,639689  	23,158741  	956,927186  	70,067198  	65,170119  	0,008653  	0,011755  	0,003961  	0,004316  	0,004469  	0,000001  	-0,000000  	26,779006  	25,291916  	26,211302  	26,116541  	29,234285  	27,786562  	28,964339  	28,621464  	31,704719  	30,623950  	33,084153  	59,282138  	25,256214  	23,907740  	28,451389  	64,502824  	0,262988  	0,133258  	-3742,524517  	22548,973544  	-0,022185  	-0,049993  	0,397687  	0,201511  	-4,131987  	16698,864588  	101189,374843  	14,676278  	-0,047945  
297,585000  	23,943827  	30,652123  	23,160216  	1256,670793  	70,069939  	65,167755  	0,008652  	0,011776  	0,003962  	0,004368  	0,004446  	0,000000  	-0,000000  	26,778448  	25,288147  	26,209813  	26,118896  	29,237598  	27,782056  	28,969766  	28,630957  	31,707116  	30,630370  	33,078985  	59,280383  	25,250039  	23,918846  	28,460627  	64,510134  	0,304861  	0,154475  	-4332,428525  	25592,661593  	-0,018544  	-0,049995  	0,379814  	0,192455  	-3,950399  	16745,452039  	101153,808116  	14,671119  	-0,047947  
298,582000  	23,973070  	30,656309  	23,158250  	1256,670793  	70,069627  	65,169248  	0,008640  	0,011745  	0,003966  	0,004299  	0,004531  	-0,000001  	-0,000000  	26,788149  	25,283529  	26,219025  	26,119021  	29,238457  	27,775847  	28,965163  	28,632240  	31,707956  	30,632513  	33,072321  	59,283061  	25,243695  	23,924352  	28,462689  	64,517827  	0,248777  	0,126057  	-3522,196098  	25597,962211  	-0,018548  	-0,050007  	0,446855  	0,226425  	-4,645979  	16678,011906  	100889,815020  	14,632831  	-0,047957  
299,582000  	23,968647  	30,655755  	23,157789  	1256,670793  	70,068319  	65,174069  	0,008644  	0,011777  	0,003962  	0,004350  	0,004426  	0,000000  	-0,000000  	26,791262  	25,290925  	26,217331  	26,123207  	29,235096  	27,771806  	28,963002  	28,629493  	31,707701  	30,635223  	33,075849  	59,293302  	25,240146  	23,924096  	28,460374  	64,514406  	0,290026  	0,146959  	-4108,590057  	25594,395369  	-0,018545  	-0,049999  	0,363967  	0,184425  	-3,779454  	16745,580794  	100991,064037  	14,647515  	-0,047950  
300,585000  	23,959309  	30,663388  	23,159448  	57,696365  	70,065267  	65,176992  	0,008651  	0,011740  	0,003961  	0,004311  	0,004481  	-0,000001  	-0,000000  	26,788882  	25,299722  	26,212803  	26,123766  	29,234771  	27,779367  	28,960848  	28,631044  	31,707487  	30,632035  	33,080574  	59,293841  	25,228856  	23,918223  	28,457064  	64,513868  	0,258787  	0,131129  	-3675,349770  	1876,086926  	-0,054007  	-0,050007  	0,406981  	0,206220  	-4,220951  	16667,341496  	101139,784785  	14,669086  	-0,047957  
301,583000  	23,931355  	30,675945  	23,161659  	57,696365  	70,065921  	65,177925  	0,008652  	0,011719  	0,003964  	0,004348  	0,004420  	0,000001  	-0,000000  	26,787379  	25,293668  	26,215156  	26,113584  	29,235445  	27,779687  	28,955753  	28,630909  	31,701448  	30,625558  	33,073025  	59,284506  	25,210256  	23,896395  	28,456021  	64,512197  	0,288510  	0,146190  	-4122,245306  	1875,170429  	-0,053984  	-0,049983  	0,358629  	0,181720  	-3,719267  	16620,595577  	101164,442123  	14,672662  	-0,047937  
302,585000  	23,932277  	30,682717  	23,162150  	1256,670793  	70,067291  	65,178050  	0,008647  	0,011779  	0,003964  	0,004356  	0,004522  	0,000000  	-0,000000  	26,783456  	25,284907  	26,216931  	26,109056  	29,233943  	27,770725  	28,960699  	28,629829  	31,698611  	30,625252  	33,073426  	59,280588  	25,203760  	23,874173  	28,459366  	64,505454  	0,295073  	0,149516  	-4219,682464  	25593,562170  	-0,018545  	-0,049997  	0,440057  	0,222980  	-4,564905  	16750,869661  	101040,809440  	14,654730  	-0,047949  
