06/25/2020 15:23:10
Tempo T_f_e T_f_s AR AR T_q_e T_q_s Corrente_P_f Corrente_P_q Corrente_P_RESERVA Corrente_eletromag_f Corrente_eletromag_q AR AR T_1 T_2 T_3 T_4 T_5 T_6 T_7 T_8 T_9 T_10 T_11 T_12 T_13 T_14 T_15 T_16 Velocidade_f_(m/s) Vazao_f_(L/s) q_f_(W) AR AR AR Velocidade_q_(m/s) Vazao_q_(L/s) q_q_(W) DeltaP_q_(Pa) DeltaP_f_(Pa) DeltaP_f_(Psi) AR
0,009000  	23,862640  	29,257453  	26,203563  	-242,047242  	70,256057  	64,023023  	0,010641  	0,009011  	0,003963  	0,004417  	0,004331  	-0,000000  	-0,000000  	25,724028  	25,032770  	25,942318  	25,677726  	28,240452  	27,029012  	28,197420  	27,697387  	30,116609  	29,390528  	31,923836  	57,949543  	28,099415  	27,435466  	27,612191  	63,311891  	0,344478  	0,174550  	-3936,931169  	-27100,767792  	-0,102488  	-0,050002  	0,288678  	0,146275  	-3,817098  	10781,301877  	144020,138056  	20,888355  	-0,047953  
2,546000  	23,857050  	29,233149  	26,203317  	-242,047242  	70,254126  	64,045160  	0,010623  	0,008261  	0,003962  	0,004333  	0,004356  	0,000000  	-0,000000  	25,708083  	25,021687  	25,943127  	25,682297  	28,222936  	27,026790  	28,194538  	27,700623  	30,111244  	29,389129  	31,916657  	57,936251  	28,098834  	27,437535  	27,602111  	63,299703  	0,276669  	0,140190  	-3150,990555  	-27098,946889  	-0,102481  	-0,049998  	0,308208  	0,156171  	-4,059607  	9163,813999  	143617,782837  	20,829998  	-0,047950  
3,549000  	23,818991  	29,229549  	26,203593  	657,183579  	70,250824  	64,082376  	0,010633  	0,008405  	0,003963  	0,004374  	0,004383  	-0,000001  	-0,000000  	25,725835  	25,029680  	25,947886  	25,685517  	28,234538  	27,037466  	28,203059  	27,708651  	30,111926  	29,389765  	31,933556  	57,941396  	28,104010  	27,450235  	27,606047  	63,317464  	0,309445  	0,156798  	-3546,874028  	18405,241393  	-0,027546  	-0,050009  	0,329277  	0,166847  	-4,308830  	9475,726295  	143845,178286  	20,862979  	-0,047959  
4,549000  	23,816411  	29,238286  	26,204147  	1256,670793  	70,245653  	64,093755  	0,010638  	0,008733  	0,003962  	0,004342  	0,004366  	-0,000001  	-0,000001  	25,734253  	25,039469  	25,952551  	25,695108  	28,233178  	27,036296  	28,205957  	27,709738  	30,112607  	29,400737  	31,941315  	57,949614  	28,104271  	27,471999  	27,611095  	63,312553  	0,283759  	0,143783  	-3259,269301  	25500,253606  	-0,018518  	-0,050009  	0,315741  	0,159988  	-4,120630  	10181,888421  	143959,447959  	20,879553  	-0,047959  
5,549000  	23,818346  	29,230903  	26,203901  	57,696365  	70,241074  	64,065587  	0,010631  	0,008386  	0,003961  	0,004417  	0,004352  	-0,000000  	-0,000001  	25,721597  	25,023234  	25,942589  	25,686609  	28,229473  	27,036557  	28,202740  	27,712023  	30,109900  	29,391524  	31,936316  	57,948703  	28,091996  	27,467007  	27,604889  	63,302176  	0,344382  	0,174501  	-3948,781568  	1702,656703  	-0,053741  	-0,050001  	0,304877  	0,154484  	-3,994091  	9434,916557  	143795,538800  	20,855780  	-0,047952  
6,548000  	23,824981  	29,211275  	26,203778  	1256,670793  	70,239953  	64,052093  	0,010626  	0,008439  	0,003963  	0,004346  	0,004315  	0,000001  	-0,000000  	25,723907  	25,020932  	25,944151  	25,686106  	28,238832  	27,036396  	28,202175  	27,704968  	30,109620  	29,392125  	31,936563  	57,949664  	28,090293  	27,474434  	27,604216  	63,295781  	0,286665  	0,145255  	-3271,037433  	25491,574314  	-0,018511  	-0,049990  	0,275416  	0,139555  	-3,615354  	9547,788174  	143684,976201  	20,839744  	-0,047943  
7,549000  	23,847743  	29,198815  	26,203593  	1256,670793  	70,238239  	64,049046  	0,010633  	0,008484  	0,003961  	0,004413  	0,004395  	-0,000001  	-0,000000  	25,728226  	25,030946  	25,940685  	25,694875  	28,245023  	27,033997  	28,206860  	27,704867  	30,109878  	29,389663  	31,931695  	57,945233  	28,093788  	27,476505  	27,605963  	63,292606  	0,341627  	0,173105  	-3872,689592  	25501,178918  	-0,018518  	-0,050011  	0,338901  	0,171724  	-4,449669  	9645,014619  	143834,614890  	20,861447  	-0,047961  
8,549000  	23,876924  	29,194631  	26,203716  	1256,670793  	70,232134  	64,035366  	0,010634  	0,008335  	0,003963  	0,004409  	0,004352  	-0,000001  	-0,000000  	25,725802  	25,030126  	25,944727  	25,694990  	28,235700  	27,038979  	28,208085  	27,705369  	30,108890  	29,394243  	31,933496  	57,944680  	28,092008  	27,479749  	27,603962  	63,296305  	0,337642  	0,171086  	-3803,644259  	25503,312738  	-0,018520  	-0,050016  	0,305345  	0,154721  	-4,013993  	9324,987208  	143855,127366  	20,864422  	-0,047965  
9,550000  	23,880211  	29,196754  	26,204393  	57,696365  	70,228676  	64,023739  	0,010622  	0,008712  	0,003963  	0,004409  	0,004355  	-0,000000  	-0,000000  	25,714317  	25,028008  	25,949010  	25,694608  	28,233792  	27,036220  	28,198789  	27,711117  	30,110181  	29,391704  	31,929574  	57,944016  	28,086094  	27,487795  	27,603493  	63,298180  	0,338158  	0,171347  	-3808,624951  	1702,708643  	-0,053743  	-0,050004  	0,307800  	0,155965  	-4,051598  	10136,824809  	143595,844020  	20,826816  	-0,047955  
10,549000  	23,874804  	29,206906  	26,204577  	1256,670793  	70,227991  	64,017894  	0,010621  	0,008665  	0,003963  	0,004432  	0,004331  	0,000000  	-0,000000  	25,720959  	25,030742  	25,956895  	25,695562  	28,237540  	27,033498  	28,204532  	27,710817  	30,114436  	29,395741  	31,933748  	57,950049  	28,086235  	27,498246  	27,607169  	63,294013  	0,356669  	0,180727  	-4028,870174  	25494,630985  	-0,018514  	-0,049997  	0,288532  	0,146201  	-3,801116  	10034,916485  	143581,284045  	20,824705  	-0,047949  
11,552000  	23,860060  	29,215951  	26,204577  	357,439972  	70,221325  	64,036734  	0,010627  	0,008756  	0,003963  	0,004361  	0,004369  	-0,000000  	-0,000000  	25,725402  	25,031839  	25,957221  	25,693232  	28,244377  	27,032825  	28,209185  	27,708354  	30,116992  	29,394219  	31,943353  	57,950974  	28,081883  	27,502010  	27,611402  	63,293591  	0,299308  	0,151662  	-3396,018549  	12435,671746  	-0,036418  	-0,050000  	0,318418  	0,161345  	-4,177626  	10232,821006  	143714,124394  	20,843971  	-0,047951  
12,548000  	23,858708  	29,222042  	26,203778  	956,927186  	70,219082  	64,046746  	0,010628  	0,008384  	0,003962  	0,004395  	0,004355  	-0,000001  	-0,000000  	25,723543  	25,027543  	25,949298  	25,692315  	28,236692  	27,030176  	28,208361  	27,706794  	30,115197  	29,393672  	31,940425  	57,947977  	28,080103  	27,507943  	27,610707  	63,288843  	0,326553  	0,165467  	-3710,292865  	22444,457498  	-0,022148  	-0,050011  	0,307432  	0,155778  	-4,025499  	9430,176667  	143742,453500  	20,848080  	-0,047961  
13,550000  	23,865681  	29,224688  	26,204731  	57,696365  	70,212260  	64,067048  	0,010620  	0,008430  	0,003964  	0,004399  	0,004377  	-0,000001  	-0,000000  	25,720098  	25,021098  	25,940214  	25,689019  	28,224371  	27,025078  	28,203075  	27,699832  	30,108535  	29,391426  	31,927045  	57,943298  	28,082746  	27,510956  	27,605943  	63,280560  	0,330161  	0,167295  	-3748,263862  	1702,836862  	-0,053748  	-0,050009  	0,324597  	0,164476  	-4,231587  	9528,538564  	143558,843891  	20,821450  	-0,047959  
14,546000  	23,855729  	29,228626  	26,204423  	1256,670793  	70,207525  	64,073080  	0,010628  	0,008571  	0,003961  	0,004414  	0,004345  	0,000000  	-0,000000  	25,717155  	25,014499  	25,934591  	25,685165  	28,224390  	27,022690  	28,196275  	27,696538  	30,102164  	29,390232  	31,924236  	57,941515  	28,082687  	27,521831  	27,600140  	63,280072  	0,341694  	0,173139  	-3889,247908  	25493,961946  	-0,018513  	-0,049995  	0,299241  	0,151627  	-3,894197  	9833,790255  	143739,607880  	20,847668  	-0,047947  
15,547000  	23,860797  	29,231487  	26,204239  	357,439972  	70,206871  	64,037636  	0,010637  	0,008488  	0,003963  	0,004409  	0,004283  	0,000000  	-0,000000  	25,715012  	25,018499  	25,935239  	25,683259  	28,226600  	27,024123  	28,193622  	27,699614  	30,104737  	29,390666  	31,927299  	57,943161  	28,080168  	27,536054  	27,599009  	63,283867  	0,337988  	0,171261  	-3845,481343  	12435,356208  	-0,036417  	-0,049999  	0,250354  	0,126856  	-3,276465  	9653,229484  	143929,155869  	20,875159  	-0,047950  
16,548000  	23,874743  	29,222935  	26,205038  	956,927186  	70,206996  	64,002193  	0,010630  	0,008505  	0,003961  	0,004397  	0,004383  	0,000001  	-0,000000  	25,713289  	25,024285  	25,939728  	25,679653  	28,226921  	27,025239  	28,191811  	27,701610  	30,107555  	29,387165  	31,926597  	57,937962  	28,080660  	27,549523  	27,596096  	63,286480  	0,328064  	0,166233  	-3716,938514  	22435,751256  	-0,022139  	-0,049990  	0,329865  	0,167145  	-4,341931  	9691,695453  	143778,479198  	20,853305  	-0,047943  
17,545000  	23,865804  	29,210690  	26,204946  	1256,670793  	70,203818  	63,992648  	0,010627  	0,008310  	0,003964  	0,004435  	0,004380  	-0,000001  	-0,000000  	25,716217  	25,018718  	25,945899  	25,681096  	28,233218  	27,029600  	28,195919  	27,704707  	30,105246  	29,385212  	31,930171  	57,935211  	28,087309  	27,574014  	27,594024  	63,286533  	0,358837  	0,181826  	-4063,082330  	25500,573139  	-0,018518  	-0,050010  	0,327489  	0,165941  	-4,315071  	9270,173574  	143703,165577  	20,842382  	-0,047960  
18,547000  	23,855913  	29,213274  	26,204761  	657,183579  	70,201327  	64,002721  	0,010636  	0,008365  	0,003963  	0,004405  	0,004367  	-0,000000  	-0,000000  	25,722647  	25,024709  	25,951684  	25,689317  	28,238181  	27,037422  	28,208884  	27,704887  	30,109833  	29,385392  	31,933044  	57,947374  	28,098216  	27,590080  	27,603021  	63,283605  	0,334484  	0,169485  	-3796,170440  	18402,388850  	-0,027541  	-0,050001  	0,316806  	0,160528  	-4,165878  	9389,084658  	143908,650454  	20,872185  	-0,047952  
19,546000  	23,863930  	29,215951  	26,204669  	657,183579  	70,202012  	63,993612  	0,010631  	0,008571  	0,003962  	0,004473  	0,004332  	-0,000001  	-0,000000  	25,727783  	25,031103  	25,950521  	25,691675  	28,234398  	27,033609  	28,207081  	27,702539  	30,110290  	29,391849  	31,931909  	57,952570  	28,108318  	27,597472  	27,600390  	63,284118  	0,389979  	0,197605  	-4421,594786  	18404,792804  	-0,027545  	-0,050008  	0,289549  	0,146717  	-3,813463  	9833,106862  	143802,861154  	20,856842  	-0,047958  
20,545000  	23,855084  	29,211213  	26,204177  	1256,670793  	70,206124  	63,971662  	0,010626  	0,008458  	0,003961  	0,004410  	0,004328  	-0,000001  	-0,000000  	25,723135  	25,024680  	25,947716  	25,690529  	28,229502  	27,024878  	28,193171  	27,705260  	30,109039  	29,390046  	31,926950  	57,946575  	28,109689  	27,582332  	27,604964  	63,281687  	0,338582  	0,171562  	-3841,797575  	25499,782108  	-0,018517  	-0,050008  	0,285850  	0,144842  	-3,780537  	9590,051714  	143698,371095  	20,841687  	-0,047958  
21,551000  	23,828667  	29,207460  	26,205099  	956,927186  	70,209332  	63,984720  	0,010630  	0,008723  	0,003960  	0,004369  	0,004310  	-0,000001  	-0,000000  	25,722358  	25,035943  	25,947361  	25,697430  	28,230583  	27,034665  	28,205504  	27,701685  	30,115572  	29,394314  	31,938735  	57,952333  	28,119980  	27,583111  	27,600921  	63,290464  	0,305604  	0,154852  	-3482,285246  	22444,236442  	-0,022148  	-0,050011  	0,271650  	0,137647  	-3,587063  	10160,075734  	143771,227456  	20,852254  	-0,047961  
22,546000  	23,841814  	29,207214  	26,204608  	357,439972  	70,212073  	63,992804  	0,010631  	0,008540  	0,003963  	0,004432  	0,004364  	-0,000001  	-0,000000  	25,714476  	25,025989  	25,949661  	25,684020  	28,235233  	27,028192  	28,206729  	27,695625  	30,116027  	29,395283  	31,933594  	57,955021  	28,114121  	27,578022  	27,603232  	63,288626  	0,356588  	0,180686  	-4053,113748  	12438,263771  	-0,036426  	-0,050012  	0,314389  	0,159303  	-4,147872  	9766,946499  	143793,632305  	20,855503  	-0,047961  
23,548000  	23,880794  	29,201030  	26,204054  	357,439972  	70,218210  	63,994638  	0,010630  	0,008605  	0,003962  	0,004423  	0,004389  	-0,000001  	-0,000001  	25,717109  	25,022286  	25,946187  	25,678691  	28,229338  	27,028253  	28,201823  	27,696436  	30,104330  	29,387410  	31,925074  	57,946210  	28,104107  	27,564166  	27,600061  	63,290056  	0,349602  	0,177146  	-3940,255644  	12437,213131  	-0,036422  	-0,050007  	0,334014  	0,169247  	-4,409839  	9906,695410  	143782,496960  	20,853888  	-0,047957  
24,546000  	23,904692  	29,196415  	26,204792  	-242,047242  	70,217587  	64,016774  	0,010634  	0,008427  	0,003963  	0,004469  	0,004339  	0,000000  	-0,000000  	25,726835  	25,030634  	25,954394  	25,696969  	28,243101  	27,029569  	28,210146  	27,698169  	30,109383  	29,399909  	31,939752  	57,950661  	28,113024  	27,557735  	27,614137  	63,301062  	0,386209  	0,195695  	-4329,506329  	-27099,697700  	-0,102483  	-0,050000  	0,294582  	0,149267  	-3,875015  	9522,638463  	143872,314067  	20,866915  	-0,047951  
25,548000  	23,880364  	29,214536  	26,203778  	-242,047242  	70,213413  	64,025511  	0,010636  	0,008387  	0,003962  	0,004431  	0,004387  	0,000001  	-0,000000  	25,722881  	25,038699  	25,949242  	25,702309  	28,245908  	27,032176  	28,206854  	27,713861  	30,112570  	29,393285  	31,940105  	57,954808  	28,104878  	27,548839  	27,609217  	63,297094  	0,356164  	0,180471  	-4024,722564  	-27095,882384  	-0,102469  	-0,049992  	0,332670  	0,168566  	-4,366938  	9436,484965  	143896,399457  	20,870408  	-0,047944  
26,546000  	23,868876  	29,231395  	26,203655  	-242,047242  	70,209799  	64,022277  	0,010628  	0,008437  	0,003962  	0,004378  	0,004397  	-0,000001  	-0,000000  	25,724050  	25,038097  	25,954381  	25,699704  	28,243751  	27,048372  	28,213539  	27,711040  	30,119673  	29,398188  	31,946429  	57,957989  	28,115421  	27,531332  	27,616009  	63,308661  	0,312666  	0,158430  	-3551,970101  	-27103,807988  	-0,102499  	-0,050008  	0,340466  	0,172517  	-4,469000  	9543,972209  	143732,010143  	20,846566  	-0,047958  
27,546000  	23,862610  	29,232503  	26,203563  	-242,047242  	70,208460  	63,997250  	0,010631  	0,008356  	0,003962  	0,004449  	0,004348  	-0,000000  	-0,000000  	25,717005  	25,034738  	25,947632  	25,686729  	28,237706  	27,031437  	28,203061  	27,704992  	30,107440  	29,400189  	31,930022  	57,952912  	28,115053  	27,513476  	27,602296  	63,307631  	0,370666  	0,187819  	-4216,652822  	-27102,607438  	-0,102495  	-0,050006  	0,301551  	0,152798  	-3,973329  	9370,038793  	143807,895713  	20,857572  	-0,047956  
28,546000  	23,825811  	29,223765  	26,204239  	956,927186  	70,207961  	63,990845  	0,010635  	0,008439  	0,003961  	0,004382  	0,004371  	0,000000  	-0,000000  	25,714941  	25,026916  	25,947215  	25,691623  	28,237732  	27,032470  	28,197912  	27,695520  	30,118704  	29,395583  	31,924717  	57,948358  	28,103326  	27,510358  	27,602713  	63,306745  	0,316379  	0,160312  	-3617,911794  	22439,538721  	-0,022143  	-0,049999  	0,319945  	0,162118  	-4,219701  	9548,528162  	143888,321566  	20,869237  	-0,047951  
29,547000  	23,784128  	29,216689  	26,203470  	1256,670793  	70,210578  	63,976139  	0,010625  	0,008607  	0,003961  	0,004424  	0,004307  	-0,000000  	-0,000000  	25,712156  	25,024101  	25,944262  	25,691647  	28,220628  	27,030240  	28,202409  	27,697486  	30,099143  	29,398382  	31,929658  	57,942067  	28,107595  	27,502073  	27,599233  	63,301858  	0,350447  	0,177574  	-4033,189870  	25499,022692  	-0,018517  	-0,050006  	0,269384  	0,136499  	-3,562751  	9910,952113  	143678,352895  	20,838783  	-0,047957  
30,547000  	23,787998  	29,198661  	26,203224  	657,183579  	70,211388  	63,967434  	0,010620  	0,008449  	0,003962  	0,004443  	0,004359  	-0,000000  	-0,000000  	25,722979  	25,018713  	25,947677  	25,680495  	28,226244  	27,026906  	28,198067  	27,692245  	30,100048  	29,395226  	31,924359  	57,946182  	28,097787  	27,501668  	27,597815  	63,309820  	0,365220  	0,185060  	-4186,261111  	18403,666898  	-0,027543  	-0,050004  	0,310865  	0,157518  	-4,117639  	9569,368111  	143564,316238  	20,822244  	-0,047955  
31,548000  	23,809469  	29,178910  	26,203409  	657,183579  	70,204223  	63,979155  	0,010629  	0,008427  	0,003962  	0,004415  	0,004403  	-0,000001  	-0,000000  	25,720572  	25,021451  	25,946264  	25,688099  	28,234961  	27,031269  	28,203363  	27,696936  	30,103516  	29,394010  	31,930305  	57,956245  	28,106046  	27,506341  	27,602875  	63,306437  	0,342836  	0,173718  	-3899,751927  	18406,267995  	-0,027547  	-0,050012  	0,345816  	0,175228  	-4,566744  	9521,447831  	143756,441526  	20,850109  	-0,047962  
32,546000  	23,866111  	29,165681  	26,202548  	57,696365  	70,202292  	63,982264  	0,010635  	0,008499  	0,003963  	0,004408  	0,004386  	-0,000001  	-0,000000  	25,719005  	25,018518  	25,940528  	25,687599  	28,236044  	27,025469  	28,197422  	27,698314  	30,107388  	29,387043  	31,923637  	57,942338  	28,101193  	27,507892  	27,606561  	63,297618  	0,337071  	0,170796  	-3784,263733  	1702,961608  	-0,053748  	-0,050009  	0,332041  	0,168248  	-4,381283  	9678,275199  	143892,522916  	20,869846  	-0,047959  
33,546000  	23,909822  	29,165127  	26,202395  	1256,670793  	70,205843  	63,978533  	0,010635  	0,008372  	0,003963  	0,004373  	0,004370  	-0,000001  	-0,000000  	25,726266  	25,027371  	25,950138  	25,689061  	28,234118  	27,027048  	28,204675  	27,696396  	30,115106  	29,396430  	31,937920  	57,949925  	28,107984  	27,511107  	27,606434  	63,313761  	0,309111  	0,156629  	-3441,361673  	25499,197554  	-0,018517  	-0,050007  	0,319507  	0,161897  	-4,220834  	9403,907070  	143878,880884  	20,867867  	-0,047957  
34,547000  	23,895446  	29,182602  	26,203317  	1256,670793  	70,209893  	63,980896  	0,010629  	0,008711  	0,003960  	0,004419  	0,004350  	-0,000001  	-0,000001  	25,730505  	25,035487  	25,958310  	25,688439  	28,236919  	27,042553  	28,210064  	27,706431  	30,114376  	29,398015  	31,935017  	57,953927  	28,110702  	27,511948  	27,604403  	63,319691  	0,346331  	0,175488  	-3879,111911  	25499,740891  	-0,018517  	-0,050008  	0,303761  	0,153918  	-4,013909  	10134,979082  	143761,899751  	20,850901  	-0,047958  
35,549000  	23,878490  	29,206783  	26,203686  	1256,670793  	70,212478  	63,965724  	0,010639  	0,008637  	0,003960  	0,004371  	0,004299  	-0,000001  	-0,000000  	25,719428  	25,031591  	25,943016  	25,684768  	28,234434  	27,027310  	28,198801  	27,698489  	30,106957  	29,394100  	31,920096  	57,944798  	28,102635  	27,516330  	27,595937  	63,318141  	0,307385  	0,155754  	-3469,682155  	25499,934327  	-0,018517  	-0,050008  	0,263392  	0,133463  	-3,490387  	9975,256845  	143977,305464  	20,882143  	-0,047958  
36,548000  	23,883405  	29,218843  	26,203747  	1256,670793  	70,218833  	63,974554  	0,010628  	0,008634  	0,003962  	0,004378  	0,004431  	-0,000001  	-0,000000  	25,711166  	25,019042  	25,935468  	25,679357  	28,224915  	27,021562  	28,190926  	27,692866  	30,093781  	29,389589  	31,915284  	57,936558  	28,093831  	27,510467  	27,595523  	63,312071  	0,313018  	0,158609  	-3538,007899  	25502,826304  	-0,018520  	-0,050015  	0,367796  	0,186365  	-4,871994  	9967,757916  	143723,409732  	20,845318  	-0,047964  
37,547000  	23,899133  	29,219458  	26,203470  	956,927186  	70,223350  	64,009033  	0,010626  	0,008565  	0,003962  	0,004423  	0,004361  	0,000000  	-0,000000  	25,711061  	25,014813  	25,936688  	25,674907  	28,224118  	27,020020  	28,191290  	27,689695  	30,099156  	29,386891  	31,922252  	57,939453  	28,097733  	27,511196  	27,598958  	63,315901  	0,349738  	0,177215  	-3941,847960  	22439,790404  	-0,022143  	-0,050000  	0,312200  	0,158194  	-4,115713  	9819,617279  	143698,053346  	20,841641  	-0,047951  
38,547000  	23,909822  	29,222596  	26,204884  	-242,047242  	70,225779  	64,031791  	0,010627  	0,008550  	0,003962  	0,004396  	0,004371  	-0,000000  	-0,000000  	25,712892  	25,020428  	25,941594  	25,675111  	28,226769  	27,021831  	28,193209  	27,689641  	30,105181  	29,383291  	31,932567  	57,945396  	28,108178  	27,520119  	27,606131  	63,318478  	0,327682  	0,166039  	-3688,012761  	-27100,963740  	-0,102488  	-0,050002  	0,320343  	0,162320  	-4,209263  	9787,656985  	143713,976111  	20,843950  	-0,047953  
39,551000  	23,919314  	29,232841  	26,205345  	657,183579  	70,227524  	64,044352  	0,010639  	0,008575  	0,003961  	0,004436  	0,004352  	0,000001  	-0,000000  	25,712684  	25,020146  	25,944874  	25,675046  	28,225710  	27,020528  	28,191806  	27,692990  	30,101379  	29,377437  	31,925654  	57,943409  	28,104589  	27,521626  	27,598094  	63,320171  	0,359819  	0,182323  	-4050,277827  	18399,893954  	-0,027538  	-0,049993  	0,304884  	0,154487  	-3,999137  	9840,529387  	143960,535367  	20,879710  	-0,047946  
40,548000  	23,927485  	29,245147  	26,206821  	1256,670793  	70,229580  	64,028060  	0,010631  	0,008398  	0,003960  	0,004415  	0,004322  	-0,000001  	-0,000000  	25,711708  	25,018173  	25,942792  	25,676835  	28,226171  	27,018006  	28,189618  	27,697206  	30,099965  	29,376905  	31,915797  	57,941185  	28,099553  	27,519239  	27,596149  	63,320965  	0,342926  	0,173763  	-3863,126459  	25503,494138  	-0,018520  	-0,050016  	0,280942  	0,142355  	-3,696021  	9459,586618  	143809,103160  	20,857747  	-0,047965  
41,547000  	23,890163  	29,254407  	26,208050  	-242,047242  	70,226091  	64,029584  	0,010636  	0,008325  	0,003963  	0,004361  	0,004373  	0,000000  	-0,000000  	25,719349  	25,021870  	25,950019  	25,683392  	28,234395  	27,030020  	28,198335  	27,704183  	30,104447  	29,387932  	31,925354  	57,945325  	28,109743  	27,524574  	27,611000  	63,323500  	0,299373  	0,151694  	-3402,042609  	-27098,048293  	-0,102476  	-0,049996  	0,321362  	0,162837  	-4,224369  	9303,545223  	143896,710145  	20,870453  	-0,047948  
42,548000  	23,838497  	29,260007  	26,208972  	357,439972  	70,223723  	64,025728  	0,010632  	0,008497  	0,003962  	0,004355  	0,004341  	-0,000001  	-0,000001  	25,720881  	25,023440  	25,951952  	25,682890  	28,233232  	27,033834  	28,198650  	27,700240  	30,105270  	29,394342  	31,928732  	57,948188  	28,113759  	27,522904  	27,610803  	63,324617  	0,293897  	0,148920  	-3375,479879  	12438,709126  	-0,036427  	-0,050015  	0,296087  	0,150030  	-3,893058  	9673,914501  	143811,362710  	20,858075  	-0,047964  
43,548000  	23,827254  	29,254746  	26,209249  	1256,670793  	70,221418  	64,016215  	0,010625  	0,008673  	0,003961  	0,004395  	0,004359  	0,000000  	-0,000001  	25,714477  	25,023453  	25,942200  	25,680550  	28,222315  	27,024206  	28,188286  	27,691664  	30,098614  	29,388398  	31,921024  	57,945860  	28,110962  	27,517731  	27,603228  	63,318878  	0,326456  	0,165418  	-3753,574778  	25494,315446  	-0,018513  	-0,049996  	0,310235  	0,157198  	-4,083814  	10053,345457  	143673,967956  	20,838147  	-0,047948  
44,547000  	23,798565  	29,232841  	26,209987  	1256,670793  	70,217805  	64,010245  	0,010631  	0,008358  	0,003961  	0,004430  	0,004345  	-0,000000  	-0,000000  	25,719879  	25,021699  	25,948364  	25,684428  	28,223829  	27,026433  	28,197650  	27,699290  	30,096380  	29,386750  	31,924254  	57,940473  	28,115088  	27,522006  	27,603306  	63,317734  	0,355347  	0,180057  	-4090,871700  	25496,856908  	-0,018515  	-0,050002  	0,299269  	0,151642  	-3,940954  	9374,147641  	143809,032549  	20,857737  	-0,047953  
45,549000  	23,784558  	29,207491  	26,211001  	-242,047242  	70,216808  	64,013323  	0,010636  	0,008611  	0,003962  	0,004410  	0,004372  	0,000000  	-0,000000  	25,708923  	25,017241  	25,941172  	25,676875  	28,220921  	27,020289  	28,194860  	27,697614  	30,096948  	29,385573  	31,919945  	57,937784  	28,107138  	27,505943  	27,602338  	63,308891  	0,338504  	0,171522  	-3888,833149  	-27100,048036  	-0,102482  	-0,050000  	0,320530  	0,162415  	-4,218165  	9919,050956  	143908,996447  	20,872235  	-0,047951  
46,547000  	23,816135  	29,196538  	26,211186  	357,439972  	70,215500  	64,004307  	0,010633  	0,008616  	0,003964  	0,004387  	0,004408  	0,000000  	-0,000000  	25,713469  	25,027658  	25,943146  	25,682611  	28,234481  	27,030576  	28,196029  	27,701683  	30,098308  	29,389414  	31,927678  	57,943910  	28,114568  	27,516691  	27,606735  	63,313821  	0,320247  	0,162271  	-3650,229640  	12434,228655  	-0,036414  	-0,049995  	0,349427  	0,177057  	-4,604153  	9930,491775  	143841,647739  	20,862467  	-0,047947  
47,549000  	23,840739  	29,180664  	26,211278  	357,439972  	70,210703  	64,005333  	0,010623  	0,008403  	0,003961  	0,004377  	0,004386  	-0,000000  	-0,000000  	25,719618  	25,030802  	25,950428  	25,687959  	28,231206  	27,034691  	28,191318  	27,700007  	30,106966  	29,388734  	31,927691  	57,945145  	28,114185  	27,533916  	27,609435  	63,321177  	0,312281  	0,158235  	-3532,652402  	12436,195583  	-0,036420  	-0,050004  	0,331971  	0,168212  	-4,370057  	9469,726444  	143629,998528  	20,831770  	-0,047955  
48,547000  	23,861565  	29,176234  	26,212015  	956,927186  	70,214565  	64,011800  	0,010639  	0,008422  	0,003961  	0,004394  	0,004322  	-0,000001  	-0,000000  	25,717230  	25,024243  	25,945867  	25,681700  	28,232725  	27,029986  	28,197546  	27,701086  	30,103634  	29,391648  	31,927821  	57,942684  	28,121123  	27,529849  	27,604375  	63,320013  	0,325627  	0,164998  	-3666,201459  	22446,036650  	-0,022150  	-0,050016  	0,281082  	0,142426  	-3,698598  	9511,124777  	143981,393837  	20,882736  	-0,047965  
49,551000  	23,875664  	29,186632  	26,212415  	1256,670793  	70,217774  	64,019262  	0,010629  	0,008492  	0,003961  	0,004422  	0,004293  	0,000001  	-0,000000  	25,726769  	25,024267  	25,951341  	25,682861  	28,236588  	27,033905  	28,202482  	27,709754  	30,110685  	29,396030  	31,938301  	57,947675  	28,132000  	27,544350  	27,616058  	63,317111  	0,348220  	0,176446  	-3917,843174  	25492,190944  	-0,018512  	-0,049992  	0,258563  	0,131016  	-3,399951  	9661,718130  	143750,220703  	20,849207  	-0,047944  
50,547000  	23,869214  	29,201215  	26,212907  	657,183579  	70,218334  	64,009002  	0,010626  	0,008426  	0,003961  	0,004439  	0,004414  	-0,000001  	-0,000000  	25,728383  	25,032118  	25,959741  	25,697201  	28,234355  	27,041649  	28,214118  	27,709894  	30,113121  	29,393690  	31,933572  	57,954756  	28,130142  	27,552910  	27,613923  	63,319263  	0,362203  	0,183531  	-4091,308992  	18405,951086  	-0,027547  	-0,050013  	0,354382  	0,179568  	-4,668054  	9519,309929  	143695,560780  	20,841279  	-0,047962  
51,549000  	23,876309  	29,210905  	26,214198  	657,183579  	70,217244  	63,993208  	0,010625  	0,008532  	0,003964  	0,004378  	0,004367  	0,000000  	-0,000000  	25,712460  	25,024931  	25,937707  	25,682205  	28,224666  	27,030608  	28,195454  	27,697283  	30,099391  	29,387686  	31,925232  	57,938205  	28,124771  	27,541921  	27,603229  	63,291879  	0,313211  	0,158706  	-3539,631100  	18400,895526  	-0,027539  	-0,049997  	0,316568  	0,160407  	-4,179816  	9748,474373  	143663,376316  	20,836611  	-0,047949  
52,548000  	23,884665  	29,210905  	26,213952  	1256,670793  	70,214005  	63,978285  	0,010626  	0,008477  	0,003963  	0,004424  	0,004337  	0,000001  	-0,000000  	25,706413  	25,019988  	25,943935  	25,674272  	28,216310  	27,014181  	28,203993  	27,690028  	30,100085  	29,386397  	31,923671  	57,939047  	28,124088  	27,548748  	27,606964  	63,299176  	0,350157  	0,177427  	-3950,955543  	25492,445528  	-0,018512  	-0,049993  	0,292939  	0,148434  	-3,875078  	9629,696288  	143695,800857  	20,841314  	-0,047945  
53,548000  	23,872255  	29,213982  	26,214167  	1256,670793  	70,207432  	63,985187  	0,010630  	0,008446  	0,003961  	0,004401  	0,004336  	-0,000000  	-0,000000  	25,710446  	25,030481  	25,946240  	25,684645  	28,234707  	27,024885  	28,189848  	27,699921  	30,107201  	29,379965  	31,923076  	57,944305  	28,135450  	27,544009  	27,614649  	63,303077  	0,331442  	0,167944  	-3750,673544  	25496,170798  	-0,018515  	-0,050001  	0,292466  	0,148195  	-3,860475  	9562,709628  	143779,969089  	20,853521  	-0,047952  
54,546000  	23,864883  	29,218843  	26,215212  	1256,670793  	70,207868  	63,997187  	0,010630  	0,008470  	0,003960  	0,004395  	0,004351  	-0,000001  	-0,000000  	25,717470  	25,029317  	25,959424  	25,696948  	28,230865  	27,034774  	28,206349  	27,705133  	30,106892  	29,390461  	31,933157  	57,950306  	28,147775  	27,557887  	27,618587  	63,305623  	0,326663  	0,165523  	-3705,054359  	25500,866199  	-0,018518  	-0,050011  	0,304441  	0,154262  	-4,011067  	9614,258398  	143776,841025  	20,853068  	-0,047961  
55,550000  	23,860367  	29,221335  	26,215212  	1256,670793  	70,209644  	64,004898  	0,010625  	0,008564  	0,003960  	0,004418  	0,004381  	-0,000001  	-0,000000  	25,706804  	25,027428  	25,952541  	25,682180  	28,222019  	27,028901  	28,195469  	27,697930  	30,112147  	29,384335  	31,923340  	57,941347  	28,134418  	27,557289  	27,608260  	63,299838  	0,345563  	0,175099  	-3924,555326  	25501,777318  	-0,018519  	-0,050013  	0,328132  	0,166267  	-4,319083  	9818,566014  	143676,926554  	20,838576  	-0,047963  
56,546000  	23,855391  	29,220227  	26,215888  	57,696365  	70,210890  	63,993581  	0,010626  	0,008432  	0,003963  	0,004399  	0,004336  	0,000000  	-0,000000  	25,703631  	25,014289  	25,942948  	25,681031  	28,221645  	27,026745  	28,185975  	27,678229  	30,096623  	29,379900  	31,917021  	57,933444  	28,137477  	27,553355  	27,599669  	63,287110  	0,329823  	0,167124  	-3748,499653  	1701,895490  	-0,053737  	-0,049998  	0,292540  	0,148232  	-3,858382  	9533,085320  	143684,552535  	20,839682  	-0,047950  
57,550000  	23,837698  	29,214966  	26,216964  	956,927186  	70,209768  	63,990752  	0,010625  	0,008452  	0,003962  	0,004428  	0,004368  	0,000002  	-0,000000  	25,707512  	25,016318  	25,940943  	25,677752  	28,225356  	27,021035  	28,194787  	27,692047  	30,109666  	29,382450  	31,918157  	57,939788  	28,135692  	27,563221  	27,606498  	63,288975  	0,353162  	0,178950  	-4023,054306  	22431,632848  	-0,022135  	-0,049981  	0,317495  	0,160877  	-4,188671  	9577,324050  	143674,123300  	20,838170  	-0,047935  
58,546000  	23,822032  	29,211951  	26,217395  	357,439972  	70,210890  	63,990379  	0,010633  	0,008399  	0,003962  	0,004425  	0,004407  	-0,000002  	-0,000000  	25,716877  	25,018418  	25,945093  	25,679765  	28,223169  	27,029835  	28,199530  	27,690632  	30,108585  	29,382176  	31,924349  	57,951754  	28,139809  	27,564248  	27,612016  	63,292127  	0,351126  	0,177918  	-4009,276417  	12439,891013  	-0,036432  	-0,050022  	0,348783  	0,176731  	-4,602562  	9462,878365  	143845,404241  	20,863012  	-0,047970  
59,548000  	23,835947  	29,207983  	26,216380  	357,439972  	70,210671  	63,977756  	0,010632  	0,008690  	0,003963  	0,004385  	0,004329  	-0,000000  	-0,000000  	25,719532  	25,016121  	25,937351  	25,678613  	28,223437  	27,020912  	28,193588  	27,689611  	30,097411  	29,377537  	31,921688  	57,943016  	28,138565  	27,568093  	27,604512  	63,280539  	0,318360  	0,161315  	-3623,081115  	12436,392918  	-0,036421  	-0,050006  	0,286675  	0,145261  	-3,790521  	10088,882599  	143828,090440  	20,860501  	-0,047956  
60,547000  	23,860889  	29,196538  	26,216995  	-242,047242  	70,209799  	63,971103  	0,010623  	0,008680  	0,003963  	0,004410  	0,004327  	-0,000000  	-0,000000  	25,715879  	25,022596  	25,942138  	25,684784  	28,224019  	27,023949  	28,198608  	27,692072  	30,103556  	29,377898  	31,933289  	57,944630  	28,148772  	27,570739  	27,604674  	63,286561  	0,338959  	0,171753  	-3831,373542  	-27101,632282  	-0,102486  	-0,050003  	0,285205  	0,144515  	-3,774573  	10067,229795  	143633,663236  	20,832302  	-0,047954  
61,549000  	23,851029  	29,185524  	26,217856  	57,696365  	70,210671  	63,977694  	0,010624  	0,008552  	0,003962  	0,004437  	0,004356  	0,000001  	-0,000000  	25,711460  	25,018736  	25,940394  	25,684284  	28,228202  	27,021717  	28,190005  	27,696781  	30,100028  	29,379688  	31,929798  	57,940453  	28,149187  	27,564289  	27,604124  	63,288939  	0,360303  	0,182568  	-4071,748445  	1701,386153  	-0,053724  	-0,049985  	0,308142  	0,156138  	-4,074401  	9792,419512  	143640,011158  	20,833222  	-0,047939  
62,548000  	23,836531  	29,189832  	26,217118  	1256,670793  	70,211232  	64,016681  	0,010639  	0,008658  	0,003964  	0,004442  	0,004362  	-0,000000  	-0,000000  	25,711686  	25,023096  	25,944546  	25,680619  	28,224546  	27,021501  	28,193174  	27,695037  	30,101520  	29,385664  	31,924743  	57,943836  	28,148235  	27,565103  	27,603171  	63,280622  	0,365030  	0,184963  	-4139,716162  	25497,621185  	-0,018516  	-0,050004  	0,312910  	0,158554  	-4,111952  	10019,638479  	143967,857721  	20,880772  	-0,047955  
63,549000  	23,805568  	29,205152  	26,217856  	1256,670793  	70,211575  	64,027625  	0,010625  	0,008622  	0,003959  	0,004405  	0,004374  	0,000000  	-0,000000  	25,718766  	25,027551  	25,945969  	25,687049  	28,232368  	27,024401  	28,198195  	27,695326  	30,112028  	29,392789  	31,927876  	57,950089  	28,156320  	27,579985  	27,609713  	63,283338  	0,334792  	0,169642  	-3829,629429  	25495,377390  	-0,018514  	-0,049999  	0,322232  	0,163277  	-4,227212  	9943,678571  	143666,935107  	20,837127  	-0,047951  
64,547000  	23,786401  	29,210444  	26,217118  	57,696365  	70,215375  	64,017427  	0,010628  	0,008484  	0,003961  	0,004435  	0,004363  	-0,000001  	-0,000000  	25,719772  	25,023299  	25,944059  	25,682391  	28,230315  	27,029292  	28,197304  	27,696493  	30,111209  	29,390132  	31,922952  	57,944758  	28,156915  	27,577065  	27,610825  	63,283524  	0,359140  	0,181979  	-4126,759385  	1702,063896  	-0,053745  	-0,050006  	0,313486  	0,158846  	-4,121789  	9646,008581  	143743,032510  	20,848164  	-0,047957  
65,549000  	23,771841  	29,195677  	26,218102  	1256,670793  	70,222477  	64,031387  	0,010629  	0,008736  	0,003963  	0,004410  	0,004358  	0,000000  	-0,000001  	25,714571  	25,020318  	25,946842  	25,675594  	28,220011  	27,029825  	28,194810  	27,692553  	30,101998  	29,382734  	31,918123  	57,941876  	28,153560  	27,566547  	27,609455  	63,277356  	0,338906  	0,171726  	-3894,111579  	25493,965415  	-0,018513  	-0,049996  	0,309789  	0,156972  	-4,068675  	10187,895346  	143759,979134  	20,850622  	-0,047948  
66,545000  	23,775220  	29,181587  	26,218778  	1256,670793  	70,228520  	64,021811  	0,010628  	0,008850  	0,003961  	0,004428  	0,004395  	-0,000001  	-0,000000  	25,712556  	25,022176  	25,950577  	25,678445  	28,223518  	27,030022  	28,195449  	27,691865  	30,100981  	29,380503  	31,920481  	57,949256  	28,152284  	27,573664  	27,608620  	63,280632  	0,353443  	0,179092  	-4048,059095  	25500,020740  	-0,018518  	-0,050010  	0,339201  	0,171876  	-4,466198  	10433,549652  	143728,190092  	20,846012  	-0,047960  
67,550000  	23,773469  	29,167096  	26,219054  	1256,670793  	70,229860  	64,030983  	0,010624  	0,008597  	0,003962  	0,004447  	0,004372  	0,000000  	-0,000000  	25,716762  	25,026635  	25,947688  	25,686205  	28,234487  	27,033017  	28,198606  	27,699416  	30,108993  	29,385387  	31,926801  	57,955235  	28,154201  	27,585256  	27,610244  	63,281909  	0,368869  	0,186909  	-4214,779528  	25492,991716  	-0,018513  	-0,049994  	0,320955  	0,162630  	-4,220632  	9890,095893  	143653,173036  	20,835131  	-0,047946  
68,548000  	23,781210  	29,159836  	26,219423  	1256,670793  	70,225935  	64,050818  	0,010630  	0,008543  	0,003961  	0,004419  	0,004336  	0,000001  	-0,000000  	25,718201  	25,023019  	25,946363  	25,689286  	28,232392  	27,032816  	28,199472  	27,702713  	30,109436  	29,388679  	31,928936  	57,950589  	28,151633  	27,585743  	27,611652  	63,281505  	0,346286  	0,175466  	-3945,738722  	25491,999582  	-0,018512  	-0,049992  	0,292089  	0,148004  	-3,826327  	9773,214472  	143777,808394  	20,853208  	-0,047945  
69,546000  	23,785295  	29,162728  	26,219054  	956,927186  	70,219985  	64,078178  	0,010641  	0,008381  	0,003960  	0,004399  	0,004403  	0,000001  	-0,000000  	25,713055  	25,016209  	25,948782  	25,688387  	28,224679  	27,029914  	28,197484  	27,696514  	30,102287  	29,387259  	31,925260  	57,945880  	28,139748  	27,582742  	27,608541  	63,289207  	0,330247  	0,167339  	-3762,147584  	22436,393822  	-0,022140  	-0,049993  	0,345658  	0,175148  	-4,503662  	9424,120221  	144012,342609  	20,887224  	-0,047945  
70,546000  	23,796906  	29,170111  	26,219546  	-242,047242  	70,216123  	64,069660  	0,010630  	0,008474  	0,003961  	0,004389  	0,004362  	-0,000001  	-0,000000  	25,714788  	25,023995  	25,944295  	25,691717  	28,230504  	27,027814  	28,196784  	27,691004  	30,104796  	29,391019  	31,928333  	57,950761  	28,138416  	27,581115  	27,611331  	63,289415  	0,322105  	0,163213  	-3666,504731  	-27105,501174  	-0,102500  	-0,050011  	0,313139  	0,158670  	-4,083047  	9623,688655  	143778,761642  	20,853346  	-0,047961  
71,546000  	23,819575  	29,172972  	26,220007  	657,183579  	70,213444  	64,049326  	0,010630  	0,008417  	0,003960  	0,004378  	0,004353  	-0,000000  	-0,000000  	25,716851  	25,021474  	25,944347  	25,678022  	28,230096  	27,027562  	28,200157  	27,686988  	30,103902  	29,388783  	31,925870  	57,947071  	28,139422  	27,573469  	27,608076  	63,293005  	0,312605  	0,158399  	-3545,248912  	18402,891301  	-0,027543  	-0,050004  	0,305726  	0,154913  	-3,997824  	9501,781536  	143783,577308  	20,854045  	-0,047955  
72,545000  	23,850845  	29,171188  	26,220684  	1256,670793  	70,209830  	64,034900  	0,010634  	0,008445  	0,003963  	0,004389  	0,004349  	0,000001  	-0,000001  	25,709060  	25,015228  	25,941956  	25,675575  	28,229145  	27,018013  	28,195862  	27,684988  	30,098876  	29,377413  	31,922548  	57,946942  	28,134764  	27,566324  	27,604078  	63,292231  	0,322130  	0,163226  	-3630,705781  	25492,615988  	-0,018512  	-0,049993  	0,302866  	0,153465  	-3,967373  	9562,021990  	143857,521077  	20,864769  	-0,047946  
73,549000  	23,858524  	29,173342  	26,222251  	1256,670793  	70,206591  	64,021935  	0,010628  	0,008382  	0,003962  	0,004452  	0,004380  	-0,000001  	-0,000000  	25,708361  	25,020045  	25,942534  	25,680801  	28,222271  	27,011936  	28,197427  	27,687755  	30,102546  	29,378155  	31,918183  	57,948000  	28,132609  	27,557780  	27,606423  	63,298694  	0,372654  	0,188827  	-4195,793482  	25499,977362  	-0,018518  	-0,050010  	0,327446  	0,165919  	-4,296104  	9424,844646  	143738,393372  	20,847491  	-0,047960  
74,548000  	23,840770  	29,183556  	26,222804  	1256,670793  	70,201358  	63,999737  	0,010626  	0,008478  	0,003963  	0,004405  	0,004323  	0,000001  	-0,000000  	25,705349  	25,013748  	25,940643  	25,678503  	28,219905  	27,017880  	28,196888  	27,690026  	30,100258  	29,375902  	31,920076  	57,941768  	28,132227  	27,545506  	27,609317  	63,305029  	0,334771  	0,169631  	-3789,096676  	25489,083998  	-0,018510  	-0,049986  	0,282432  	0,143110  	-3,715674  	9632,388828  	143699,924535  	20,841912  	-0,047939  
75,549000  	23,835886  	29,190754  	26,223081  	1256,670793  	70,194972  	63,984907  	0,010612  	0,008513  	0,003962  	0,004391  	0,004394  	-0,000001  	-0,000000  	25,701746  	25,014350  	25,936695  	25,671816  	28,222120  	27,021989  	28,192659  	27,687548  	30,094866  	29,374062  	31,916286  	57,947435  	28,135268  	27,541453  	27,611642  	63,306057  	0,323473  	0,163906  	-3669,502149  	25498,615565  	-0,018517  	-0,050007  	0,338583  	0,171562  	-4,460449  	9708,486687  	143394,941793  	20,797678  	-0,047957  
76,546000  	23,832445  	29,186201  	26,223450  	57,696365  	70,189427  	63,971911  	0,010631  	0,008505  	0,003962  	0,004387  	0,004320  	0,000000  	-0,000000  	25,701673  	25,022339  	25,940801  	25,686360  	28,219116  	27,010939  	28,198601  	27,691206  	30,097799  	29,380324  	31,919277  	57,943087  	28,134406  	27,528164  	27,607356  	63,302544  	0,320086  	0,162190  	-3630,327452  	1701,510992  	-0,053738  	-0,050000  	0,280076  	0,141917  	-3,694114  	9691,184677  	143788,414157  	20,854746  	-0,047951  
77,545000  	23,825411  	29,181125  	26,225294  	57,696365  	70,181982  	63,971476  	0,010622  	0,008456  	0,003962  	0,004419  	0,004347  	0,000001  	-0,000000  	25,705216  	25,024621  	25,938251  	25,691546  	28,219359  	27,021310  	28,194630  	27,690796  	30,107425  	29,388716  	31,926110  	57,950703  	28,139010  	27,531509  	27,616757  	63,312197  	0,346312  	0,175479  	-3929,209111  	1700,956761  	-0,053724  	-0,049985  	0,301173  	0,152607  	-3,967894  	9586,033419  	143596,451274  	20,826904  	-0,047939  
78,548000  	23,805937  	29,180633  	26,226216  	1256,670793  	70,178681  	63,967372  	0,010631  	0,008431  	0,003963  	0,004426  	0,004408  	-0,000001  	-0,000000  	25,704873  	25,009221  	25,930869  	25,676417  	28,228108  	27,027377  	28,196937  	27,688948  	30,098089  	29,380035  	31,919827  	57,956621  	28,139549  	27,522108  	27,615529  	63,303037  	0,351767  	0,178243  	-4005,259214  	25498,504725  	-0,018517  	-0,050007  	0,349713  	0,177202  	-4,607987  	9532,107630  	143794,168948  	20,855581  	-0,047957  
79,548000  	23,801237  	29,180356  	26,226493  	1256,670793  	70,175784  	63,979466  	0,010635  	0,008602  	0,003964  	0,004426  	0,004346  	-0,000000  	-0,000000  	25,687432  	25,009299  	25,919015  	25,664790  	28,207771  	27,010419  	28,178387  	27,666299  	30,083756  	29,367759  	31,909718  	57,939746  	28,126413  	27,498149  	27,609060  	63,292027  	0,351526  	0,178121  	-4005,801204  	25496,682891  	-0,018515  	-0,050003  	0,299965  	0,151994  	-3,942949  	9899,903927  	143883,569450  	20,868547  	-0,047954  
80,546000  	23,797920  	29,176726  	26,226616  	1256,670793  	70,179459  	63,983756  	0,010633  	0,008367  	0,003962  	0,004368  	0,004355  	-0,000000  	-0,000000  	25,692460  	25,005694  	25,925494  	25,659764  	28,205406  	27,014335  	28,181637  	27,675860  	30,086464  	29,370028  	31,904557  	57,929726  	28,116597  	27,485897  	27,608958  	63,290636  	0,304976  	0,154534  	-3475,143882  	25495,625911  	-0,018515  	-0,050000  	0,307678  	0,155903  	-4,043941  	9392,108283  	143832,037591  	20,861073  	-0,047952  
81,550000  	23,802189  	29,166789  	26,228245  	-242,047242  	70,186780  	63,975611  	0,010632  	0,008725  	0,003963  	0,004416  	0,004371  	-0,000000  	-0,000000  	25,700587  	25,001583  	25,922131  	25,668009  	28,213741  	27,008851  	28,188190  	27,679405  	30,085069  	29,374532  	31,901990  	57,932170  	28,116579  	27,467147  	27,597702  	63,295909  	0,343922  	0,174268  	-3908,580559  	-27101,894092  	-0,102483  	-0,050003  	0,319935  	0,162113  	-4,215529  	10164,223491  	143818,925141  	20,859172  	-0,047954  
82,545000  	23,796968  	29,163958  	26,227815  	357,439972  	70,191265  	63,964543  	0,010629  	0,008393  	0,003960  	0,004430  	0,004302  	0,000000  	-0,000000  	25,692496  	25,004632  	25,928964  	25,671432  	28,215335  	27,017622  	28,185858  	27,680539  	30,092665  	29,367082  	31,918221  	57,941216  	28,122178  	27,470117  	27,608164  	63,289764  	0,355174  	0,179969  	-4038,250921  	12433,363498  	-0,036414  	-0,049995  	0,265436  	0,134498  	-3,506187  	9448,625448  	143750,616124  	20,849264  	-0,047947  
83,547000  	23,821203  	29,162020  	26,227907  	357,439972  	70,193882  	63,976264  	0,010638  	0,008585  	0,003963  	0,004457  	0,004355  	0,000000  	-0,000000  	25,697187  	25,009049  	25,934670  	25,668398  	28,216310  	27,017416  	28,186702  	27,683254  	30,095347  	29,376133  	31,909323  	57,942253  	28,111565  	27,463419  	27,611876  	63,290395  	0,376700  	0,190876  	-4262,100545  	12434,423364  	-0,036417  	-0,050000  	0,307445  	0,155785  	-4,055164  	9862,763712  	143941,858775  	20,877002  	-0,047951  
84,548000  	23,853394  	29,162820  	26,228891  	956,927186  	70,197246  	63,986897  	0,010628  	0,008597  	0,003962  	0,004403  	0,004435  	-0,000001  	-0,000000  	25,688174  	24,995786  	25,924999  	25,665843  	28,197461  	27,007567  	28,174619  	27,669328  	30,086778  	29,366052  	31,897161  	57,936153  	28,119009  	27,435372  	27,609383  	63,283733  	0,333039  	0,168753  	-3745,951172  	22446,150085  	-0,022150  	-0,050018  	0,371007  	0,187992  	-4,887829  	9889,999681  	143735,463018  	20,847066  	-0,047967  
85,547000  	23,878798  	29,171188  	26,229321  	-242,047242  	70,197308  	63,990441  	0,010623  	0,008660  	0,003962  	0,004394  	0,004329  	0,000001  	-0,000000  	25,700074  	25,000415  	25,933154  	25,660400  	28,205580  	27,011893  	28,181396  	27,680176  	30,085894  	29,375384  	31,900100  	57,944758  	28,115169  	27,433657  	27,611506  	63,283748  	0,325455  	0,164911  	-3648,905551  	-27096,063830  	-0,102460  	-0,049991  	0,286600  	0,145222  	-3,773687  	10023,997762  	143622,534953  	20,830688  	-0,047944  
86,548000  	23,889119  	29,182325  	26,229997  	-242,047242  	70,192947  	63,992244  	0,010631  	0,008305  	0,003962  	0,004349  	0,004332  	-0,000000  	-0,000000  	25,690444  	25,005226  	25,929857  	25,673367  	28,206429  	27,006970  	28,180950  	27,678209  	30,093353  	29,374248  	31,903503  	57,949604  	28,116542  	27,426138  	27,607136  	63,287722  	0,289649  	0,146767  	-3247,952895  	-27100,622407  	-0,102477  	-0,050000  	0,289557  	0,146721  	-3,808841  	9259,318520  	143788,986105  	20,854829  	-0,047952  
87,546000  	23,901928  	29,199030  	26,229997  	-242,047242  	70,188960  	63,999426  	0,010638  	0,008484  	0,003961  	0,004394  	0,004392  	-0,000000  	-0,000000  	25,693118  	24,999867  	25,930982  	25,666923  	28,214847  	27,011162  	28,180859  	27,675642  	30,089194  	29,372576  	31,897012  	57,947366  	28,124278  	27,419501  	27,601668  	63,294716  	0,325548  	0,164958  	-3653,189505  	-27101,545225  	-0,102481  	-0,050002  	0,337032  	0,170777  	-4,425352  	9644,667263  	143959,003110  	20,879488  	-0,047953  
88,547000  	23,886016  	29,212321  	26,230550  	956,927186  	70,192823  	63,991218  	0,010628  	0,008474  	0,003962  	0,004424  	0,004334  	0,000001  	-0,000000  	25,687673  	24,998256  	25,927328  	25,662308  	28,205313  	27,010144  	28,178076  	27,677442  	30,085848  	29,368934  	31,899739  	57,945079  	28,122673  	27,413255  	27,605585  	63,294012  	0,349820  	0,177256  	-3947,204202  	22434,705119  	-0,022139  	-0,049990  	0,290411  	0,147153  	-3,820626  	9624,532638  	143731,508806  	20,846493  	-0,047942  
89,547000  	23,866326  	29,221919  	26,230704  	1256,670793  	70,197339  	63,978471  	0,010635  	0,008625  	0,003961  	0,004416  	0,004362  	-0,000000  	-0,000000  	25,685792  	25,001107  	25,922595  	25,671184  	28,204950  	27,012602  	28,185444  	27,678708  	30,090995  	29,365539  	31,906703  	57,943440  	28,121134  	27,413841  	27,613487  	63,292216  	0,343500  	0,174054  	-3897,213526  	25496,402806  	-0,018515  	-0,050002  	0,312874  	0,158536  	-4,127605  	9948,552875  	143883,661244  	20,868561  	-0,047953  
90,547000  	23,871610  	29,223027  	26,230089  	657,183579  	70,198212  	63,971880  	0,010629  	0,008418  	0,003961  	0,004351  	0,004370  	-0,000000  	-0,000000  	25,692486  	25,002195  	25,928411  	25,672409  	28,209834  	27,014885  	28,183456  	27,677815  	30,094695  	29,366595  	31,907035  	57,946120  	28,125349  	27,415666  	27,615036  	63,288416  	0,291302  	0,147605  	-3302,412209  	18401,591596  	-0,027541  	-0,050002  	0,319305  	0,161794  	-4,217498  	9502,797429  	143752,501436  	20,849538  	-0,047953  
91,548000  	23,861565  	29,216197  	26,229997  	657,183579  	70,193352  	63,979124  	0,010628  	0,008386  	0,003961  	0,004391  	0,004364  	-0,000000  	-0,000000  	25,691857  	25,004527  	25,926765  	25,658942  	28,205377  	27,006411  	28,168966  	27,675638  	30,087683  	29,364357  	31,907544  	57,942108  	28,116817  	27,405048  	27,608672  	63,282888  	0,323765  	0,164054  	-3672,652142  	18402,507768  	-0,027543  	-0,050004  	0,314497  	0,159358  	-4,145924  	9433,680648  	143734,375610  	20,846909  	-0,047955  
92,546000  	23,845408  	29,211398  	26,229813  	57,696365  	70,192667  	63,983850  	0,010629  	0,008412  	0,003963  	0,004374  	0,004354  	-0,000001  	-0,000000  	25,691330  	25,005993  	25,925127  	25,655533  	28,205618  	27,005443  	28,176388  	27,676763  	30,080983  	29,364378  	31,906688  	57,942778  	28,115627  	27,400763  	27,606376  	63,290228  	0,309673  	0,156914  	-3520,252296  	1701,480148  	-0,053748  	-0,050011  	0,306482  	0,155297  	-4,036745  	9490,467350  	143765,394992  	20,851408  	-0,047961  
93,547000  	23,874958  	29,209275  	26,231134  	956,927186  	70,195065  	63,979373  	0,010619  	0,008402  	0,003960  	0,004453  	0,004383  	-0,000001  	-0,000000  	25,698515  	25,011466  	25,930920  	25,667681  	28,215033  	27,014415  	28,188524  	27,682832  	30,086736  	29,369611  	31,907979  	57,948312  	28,127731  	27,409277  	27,614207  	63,295724  	0,373939  	0,189478  	-4225,702309  	22443,839551  	-0,022148  	-0,050012  	0,329352  	0,166885  	-4,342774  	9468,994945  	143541,748984  	20,818971  	-0,047962  
94,549000  	23,873852  	29,203430  	26,230335  	357,439972  	70,200548  	63,958542  	0,010635  	0,008418  	0,003960  	0,004387  	0,004384  	-0,000000  	-0,000000  	25,692071  	25,010758  	25,929494  	25,664852  	28,212892  	27,008698  	28,180348  	27,681592  	30,091668  	29,367178  	31,905476  	57,940934  	28,123582  	27,409985  	27,617363  	63,286263  	0,320525  	0,162413  	-3618,884513  	12435,222921  	-0,036419  	-0,050004  	0,330276  	0,167353  	-4,373379  	9503,635752  	143875,922286  	20,867438  	-0,047955  
95,547000  	23,853026  	29,201215  	26,229136  	1256,670793  	70,205283  	63,943526  	0,010622  	0,008510  	0,003962  	0,004379  	0,004307  	0,000000  	-0,000000  	25,685970  	25,003600  	25,930022  	25,654953  	28,204451  	27,002963  	28,180580  	27,681153  	30,090432  	29,370131  	31,900340  	57,941345  	28,120636  	27,408832  	27,614167  	63,284602  	0,314047  	0,159130  	-3558,125048  	25493,641830  	-0,018513  	-0,049996  	0,269096  	0,136353  	-3,574526  	9700,861125  	143605,348251  	20,828195  	-0,047948  
96,550000  	23,862610  	29,205952  	26,229382  	1256,670793  	70,206217  	63,948811  	0,010637  	0,008721  	0,003961  	0,004388  	0,004328  	-0,000000  	-0,000000  	25,702603  	25,012568  	25,933206  	25,664776  	28,211601  	27,013903  	28,184885  	27,690958  	30,094999  	29,380214  	31,912725  	57,953918  	28,131593  	27,413684  	27,617988  	63,289256  	0,320775  	0,162539  	-3631,054826  	25497,216671  	-0,018516  	-0,050004  	0,285993  	0,144915  	-3,796336  	10156,701216  	143923,895354  	20,874396  	-0,047955  
97,548000  	23,832138  	29,199461  	26,229413  	956,927186  	70,210048  	63,947537  	0,010625  	0,008340  	0,003963  	0,004457  	0,004391  	-0,000000  	-0,000000  	25,697836  	25,007355  	25,929640  	25,667636  	28,214022  	27,010201  	28,179605  	27,681627  	30,093907  	29,365881  	31,909592  	57,948115  	28,126912  	27,414560  	27,619324  	63,291966  	0,377257  	0,191159  	-4289,587427  	22440,010000  	-0,022144  	-0,050003  	0,336008  	0,170258  	-4,463894  	9334,623332  	143670,253821  	20,837609  	-0,047954  
98,547000  	23,782623  	29,198476  	26,230028  	357,439972  	70,211108  	63,971787  	0,010626  	0,008785  	0,003963  	0,004371  	0,004353  	0,000001  	-0,000000  	25,697973  	25,005942  	25,934742  	25,670747  	28,216685  	27,009840  	28,188351  	27,683021  	30,088467  	29,365729  	31,901746  	57,942256  	28,127483  	27,417286  	27,618073  	63,302423  	0,307375  	0,155749  	-3526,611195  	12432,724168  	-0,036412  	-0,049992  	0,305546  	0,154822  	-4,044184  	10294,891623  	143697,827391  	20,841608  	-0,047945  
99,546000  	23,750186  	29,198846  	26,229936  	1256,670793  	70,213818  	63,993115  	0,010637  	0,008550  	0,003962  	0,004387  	0,004355  	0,000000  	-0,000000  	25,701604  	25,007242  	25,928503  	25,666950  	28,207994  	27,007721  	28,184247  	27,684790  	30,086137  	29,368304  	31,907678  	57,943588  	28,134578  	27,405017  	27,607932  	63,302855  	0,319781  	0,162035  	-3691,175512  	25495,066630  	-0,018514  	-0,049999  	0,307259  	0,155690  	-4,054730  	9787,717825  	143937,671547  	20,876394  	-0,047951  
100,549000  	23,725122  	29,188632  	26,231227  	1256,670793  	70,213319  	64,003312  	0,010625  	0,008681  	0,003963  	0,004360  	0,004393  	-0,000000  	-0,000000  	25,698331  	25,009686  	25,938428  	25,676362  	28,211533  	27,014397  	28,188377  	27,688920  	30,097970  	29,374008  	31,914485  	57,933042  	28,141077  	27,402278  	27,618448  	63,316292  	0,297930  	0,150963  	-3448,335084  	25497,063614  	-0,018516  	-0,050004  	0,337806  	0,171169  	-4,450182  	10070,217340  	143660,975545  	20,836263  	-0,047955  
101,548000  	23,753227  	29,163743  	26,230520  	956,927186  	70,209145  	64,013759  	0,010630  	0,008384  	0,003963  	0,004417  	0,004336  	-0,000001  	-0,000001  	25,702959  	25,012961  	25,926365  	25,665043  	28,210837  	27,006532  	28,175664  	27,683890  	30,094824  	29,368213  	31,904648  	57,941677  	28,128335  	27,393366  	27,613044  	63,308875  	0,344210  	0,174414  	-3945,341429  	22442,838406  	-0,022147  	-0,050010  	0,292557  	0,148241  	-3,845015  	9430,771630  	143778,500382  	20,853308  	-0,047960  
102,548000  	23,791439  	29,143069  	26,230827  	357,439972  	70,208335  	64,028620  	0,010629  	0,008586  	0,003963  	0,004433  	0,004399  	0,000000  	-0,000000  	25,695733  	25,009568  	25,928847  	25,664907  	28,214878  	27,014012  	28,181498  	27,683055  	30,093054  	29,371937  	31,907838  	57,946099  	28,136743  	27,388598  	27,613615  	63,315906  	0,357341  	0,181067  	-4051,264332  	12434,013765  	-0,036416  	-0,049998  	0,342413  	0,173503  	-4,488881  	9865,766820  	143747,558671  	20,848821  	-0,047950  
103,546000  	23,832630  	29,137532  	26,231104  	357,439972  	70,210578  	64,020598  	0,010641  	0,008477  	0,003960  	0,004386  	0,004400  	-0,000000  	-0,000000  	25,701656  	25,010301  	25,935938  	25,677079  	28,212561  	27,018409  	28,186065  	27,680295  	30,084690  	29,372820  	31,907438  	57,946417  	28,128891  	27,377546  	27,613435  	63,317371  	0,319558  	0,161922  	-3591,261490  	12434,858638  	-0,036418  	-0,050002  	0,342938  	0,173769  	-4,503232  	9630,037984  	144008,579046  	20,886679  	-0,047953  
104,549000  	23,830357  	29,144423  	26,232087  	956,927186  	70,215998  	64,019852  	0,010624  	0,008639  	0,003962  	0,004373  	0,004350  	-0,000001  	-0,000000  	25,708407  	25,009528  	25,931228  	25,677237  	28,221107  	27,014100  	28,191034  	27,683323  	30,100053  	29,376947  	31,914296  	57,940415  	28,139747  	27,372723  	27,625622  	63,324080  	0,308507  	0,156323  	-3473,062137  	22443,518662  	-0,022148  	-0,050012  	0,303507  	0,153789  	-3,989417  	9979,844633  	143641,705821  	20,833468  	-0,047961  
105,547000  	23,796875  	29,163559  	26,231749  	956,927186  	70,224378  	64,007727  	0,010626  	0,008757  	0,003962  	0,004377  	0,004335  	-0,000001  	-0,000000  	25,698109  	24,999685  	25,932243  	25,664191  	28,214991  	27,017168  	28,186739  	27,685257  	30,090734  	29,362797  	31,909220  	57,937011  	28,142702  	27,363022  	27,614772  	63,306784  	0,312378  	0,158284  	-3551,472718  	22445,266280  	-0,022149  	-0,050016  	0,291741  	0,147827  	-3,847443  	10233,546138  	143694,911159  	20,841185  	-0,047965  
106,550000  	23,815060  	29,175003  	26,232425  	357,439972  	70,223131  	63,998276  	0,010635  	0,008373  	0,003964  	0,004436  	0,004370  	0,000001  	-0,000000  	25,690217  	25,009945  	25,936914  	25,673953  	28,211043  	27,011717  	28,181957  	27,681307  	30,084809  	29,372967  	31,901528  	57,939607  	28,140282  	27,362146  	27,612572  	63,303348  	0,359802  	0,182314  	-4085,498036  	12430,642440  	-0,036406  	-0,049984  	0,319280  	0,161781  	-4,216176  	9406,796280  	143886,422132  	20,868961  	-0,047937  
107,548000  	23,857726  	29,171496  	26,232610  	1256,670793  	70,223038  	64,016712  	0,010625  	0,008703  	0,003964  	0,004399  	0,004365  	-0,000000  	-0,000000  	25,689091  	25,002996  	25,927963  	25,669029  	28,206407  	27,016200  	28,175672  	27,676668  	30,091714  	29,362161  	31,907160  	57,936249  	28,136421  	27,351148  	27,613375  	63,300778  	0,330121  	0,167275  	-3716,168078  	25496,490472  	-0,018515  	-0,050003  	0,315103  	0,159665  	-4,148653  	10116,796302  	143661,265049  	20,836305  	-0,047954  
108,546000  	23,889856  	29,172234  	26,232917  	1256,670793  	70,220421  	64,033625  	0,010623  	0,008250  	0,003960  	0,004434  	0,004316  	0,000000  	-0,000000  	25,692567  	24,998393  	25,924738  	25,657616  	28,209057  	27,000702  	28,172002  	27,671424  	30,076179  	29,367455  	31,899933  	57,938241  	28,131560  	27,360848  	27,614789  	63,295555  	0,357930  	0,181366  	-4005,409219  	25493,414898  	-0,018513  	-0,049996  	0,276366  	0,140037  	-3,627195  	9140,514260  	143633,451403  	20,832271  	-0,047948  
109,546000  	23,883221  	29,189862  	26,233071  	1256,670793  	70,217618  	64,038382  	0,010635  	0,008410  	0,003962  	0,004420  	0,004324  	-0,000001  	-0,000000  	25,696203  	25,003332  	25,920275  	25,663220  	28,213075  	27,012318  	28,179935  	27,679392  	30,093385  	29,365349  	31,911807  	57,937454  	28,138703  	27,376833  	27,603794  	63,297353  	0,346729  	0,175690  	-3897,885522  	25500,969429  	-0,018519  	-0,050013  	0,282885  	0,143340  	-3,708221  	9484,737744  	143881,804177  	20,868291  	-0,047962  
110,549000  	23,841138  	29,211029  	26,233624  	1256,670793  	70,217680  	64,022713  	0,010638  	0,008807  	0,003965  	0,004373  	0,004395  	-0,000000  	-0,000000  	25,686090  	24,998452  	25,915687  	25,662430  	28,197827  	27,004980  	28,180589  	27,670247  	30,084297  	29,366142  	31,901684  	57,931914  	28,124422  	27,375062  	27,607988  	63,281925  	0,309092  	0,156619  	-3516,196175  	25497,732799  	-0,018516  	-0,050006  	0,339421  	0,171987  	-4,460641  	10342,806950  	143940,213541  	20,876763  	-0,047956  
111,550000  	23,804923  	29,221919  	26,233809  	357,439972  	70,213568  	64,001353  	0,010621  	0,008587  	0,003962  	0,004404  	0,004395  	-0,000001  	-0,000000  	25,682780  	24,998092  	25,919940  	25,659741  	28,200259  	27,003957  	28,175879  	27,672045  	30,083842  	29,362765  	31,904827  	57,938114  	28,127494  	27,377970  	27,606091  	63,282741  	0,334099  	0,169290  	-3834,024493  	12436,296344  	-0,036423  	-0,050009  	0,339202  	0,171876  	-4,470159  	9867,237601  	143583,910772  	20,825086  	-0,047959  
112,547000  	23,814507  	29,209736  	26,234731  	956,927186  	70,208460  	64,000483  	0,010629  	0,008502  	0,003962  	0,004401  	0,004322  	-0,000000  	-0,000000  	25,691706  	24,995787  	25,922011  	25,657663  	28,204202  	27,003756  	28,176616  	27,669088  	30,087117  	29,367475  	31,908127  	57,938061  	28,122085  	27,391337  	27,609129  	63,284086  	0,331906  	0,168179  	-3793,552360  	22440,605225  	-0,022145  	-0,050005  	0,281097  	0,142434  	-3,701896  	9685,111959  	143753,454684  	20,849676  	-0,047955  
113,547000  	23,861719  	29,187801  	26,234362  	1256,670793  	70,206248  	64,024174  	0,010631  	0,008288  	0,003963  	0,004421  	0,004362  	-0,000001  	-0,000000  	25,694107  	24,997682  	25,923305  	25,654799  	28,202007  	26,999533  	28,175525  	27,675551  	30,084650  	29,366982  	31,901632  	57,929176  	28,123974  	27,394010  	27,610117  	63,276862  	0,347462  	0,176061  	-3920,438146  	25501,515734  	-0,018519  	-0,050014  	0,312713  	0,158454  	-4,101101  	9223,609469  	143808,142851  	20,857608  	-0,047963  
114,547000  	23,857664  	29,183002  	26,234423  	1256,670793  	70,203258  	64,037543  	0,010634  	0,008430  	0,003963  	0,004400  	0,004336  	0,000000  	-0,000000  	25,687231  	24,987407  	25,919314  	25,655675  	28,201998  	27,002243  	28,175068  	27,671052  	30,078544  	29,363077  	31,900605  	57,928817  	28,124415  	27,402994  	27,604889  	63,274853  	0,330609  	0,167522  	-3729,763685  	25495,115526  	-0,018514  	-0,050000  	0,292390  	0,148156  	-3,824423  	9528,365240  	143856,723173  	20,864654  	-0,047951  
115,548000  	23,840616  	29,196108  	26,233962  	357,439972  	70,200143  	64,025324  	0,010625  	0,008767  	0,003963  	0,004444  	0,004339  	0,000001  	-0,000000  	25,681769  	24,982549  	25,912753  	25,655115  	28,198349  	26,993527  	28,168873  	27,658758  	30,072009  	29,360507  	31,896194  	57,931880  	28,116429  	27,404668  	27,593778  	63,268171  	0,366621  	0,185770  	-4159,461345  	12431,783272  	-0,036410  	-0,049989  	0,294621  	0,149287  	-3,859296  	10255,543469  	143679,214349  	20,838908  	-0,047942  
116,550000  	23,841046  	29,201522  	26,234946  	-242,047242  	70,201140  	64,004742  	0,010621  	0,008590  	0,003961  	0,004390  	0,004317  	0,000001  	-0,000000  	25,679857  	24,989752  	25,913147  	25,654107  	28,197950  	26,993220  	28,170498  	27,663845  	30,074586  	29,358841  	31,896630  	57,934913  	28,116682  	27,409525  	27,604450  	63,266337  	0,322742  	0,163536  	-3665,040571  	-27097,521385  	-0,102464  	-0,049994  	0,277175  	0,140447  	-3,643441  	9874,441525  	143587,483685  	20,825604  	-0,047946  
117,552000  	23,843043  	29,197061  	26,236483  	1256,670793  	70,201108  	63,997592  	0,010631  	0,008282  	0,003963  	0,004391  	0,004371  	-0,000001  	-0,000000  	25,690033  	24,996816  	25,923822  	25,660296  	28,198991  	27,006330  	28,178875  	27,673850  	30,082521  	29,361691  	31,901279  	57,933431  	28,122571  	27,418519  	27,609440  	63,278489  	0,323811  	0,164077  	-3672,753921  	25502,613934  	-0,018520  	-0,050016  	0,320301  	0,162299  	-4,215167  	9210,801864  	143796,725063  	20,855952  	-0,047966  
118,547000  	23,828729  	29,193246  	26,235745  	1256,670793  	70,196311  	64,004929  	0,010617  	0,008366  	0,003960  	0,004386  	0,004387  	-0,000001  	-0,000000  	25,691501  	24,995296  	25,924758  	25,656142  	28,199042  	27,004371  	28,175814  	27,671030  	30,084996  	29,361741  	31,893192  	57,935532  	28,119312  	27,421776  	27,602867  	63,282845  	0,319063  	0,161672  	-3626,004503  	25498,201831  	-0,018517  	-0,050007  	0,332876  	0,168671  	-4,372093  	9390,903502  	143494,531453  	20,812122  	-0,047957  
119,550000  	23,827070  	29,195923  	26,235837  	1256,670793  	70,195969  	63,986741  	0,010636  	0,008555  	0,003962  	0,004412  	0,004364  	-0,000000  	-0,000000  	25,678167  	24,991170  	25,917626  	25,649505  	28,201794  	27,000603  	28,168693  	27,666568  	30,080141  	29,358031  	31,890280  	57,941080  	28,119417  	27,428472  	27,604131  	63,275819  	0,340241  	0,172403  	-3869,807421  	25496,770592  	-0,018516  	-0,050004  	0,314182  	0,159198  	-4,138441  	9799,210288  	143915,146659  	20,873127  	-0,047954  
120,547000  	23,822094  	29,193892  	26,237128  	57,696365  	70,200953  	63,972502  	0,010635  	0,008720  	0,003962  	0,004369  	0,004384  	-0,000000  	-0,000000  	25,673538  	24,991982  	25,918107  	25,657198  	28,201208  	27,004783  	28,169078  	27,667969  	30,075001  	29,356931  	31,902099  	57,939960  	28,121803  	27,442126  	27,604769  	63,270360  	0,305380  	0,154738  	-3475,206977  	1700,906350  	-0,053742  	-0,050006  	0,330726  	0,167581  	-4,369841  	10153,568645  	143874,262929  	20,867198  	-0,047956  
121,549000  	23,831094  	29,183432  	26,236975  	57,696365  	70,199800  	63,977911  	0,010633  	0,008850  	0,003961  	0,004424  	0,004323  	0,000001  	-0,000000  	25,682482  	24,996697  	25,921167  	25,663550  	28,202385  	27,004213  	28,175021  	27,672018  	30,082814  	29,358024  	31,906015  	57,942505  	28,121455  	27,460584  	27,606492  	63,269779  	0,350200  	0,177449  	-3970,821668  	1700,532701  	-0,053730  	-0,049993  	0,282441  	0,143115  	-3,727924  	10434,126928  	143839,183418  	20,862110  	-0,047945  
122,546000  	23,852719  	29,176418  	26,238635  	657,183579  	70,199239  	63,992710  	0,010629  	0,008428  	0,003962  	0,004428  	0,004309  	-0,000001  	-0,000000  	25,694320  	24,997766  	25,925904  	25,668214  	28,210938  	27,010511  	28,181313  	27,677263  	30,093703  	29,365612  	31,903586  	57,947601  	28,126672  	27,478102  	27,608619  	63,273860  	0,353205  	0,178971  	-3983,454920  	18402,934874  	-0,027544  	-0,050007  	0,271115  	0,137376  	-3,569611  	9525,173950  	143753,574722  	20,849693  	-0,047957  
123,546000  	23,880917  	29,179648  	26,240294  	-242,047242  	70,204660  	64,019386  	0,010630  	0,008306  	0,003959  	0,004434  	0,004362  	-0,000000  	-0,000000  	25,692813  	24,993896  	25,929617  	25,668203  	28,210789  	27,011437  	28,178033  	27,678651  	30,087513  	29,371013  	31,900694  	57,944154  	28,118857  	27,486768  	27,609203  	63,271676  	0,357933  	0,181367  	-4017,844043  	-27101,797288  	-0,102478  	-0,050002  	0,312850  	0,158523  	-4,105007  	9262,007523  	143782,751160  	20,853925  	-0,047953  
124,546000  	23,923307  	29,197184  	26,240602  	-242,047242  	70,210329  	64,025604  	0,010630  	0,008638  	0,003962  	0,004412  	0,004352  	-0,000000  	-0,000000  	25,698251  	25,006700  	25,933753  	25,667692  	28,215192  	27,017863  	28,183790  	27,686258  	30,091191  	29,366039  	31,905437  	57,948535  	28,133165  	27,509314  	27,618052  	63,278845  	0,340076  	0,172319  	-3799,475200  	-27103,260303  	-0,102483  	-0,050005  	0,305365  	0,154731  	-4,006444  	9976,876189  	143778,669848  	20,853333  	-0,047956  
125,549000  	23,938421  	29,215705  	26,241462  	1256,670793  	70,210267  	64,015095  	0,010623  	0,008261  	0,003961  	0,004395  	0,004315  	-0,000001  	-0,000000  	25,691956  	25,000217  	25,922253  	25,672962  	28,214313  	27,009780  	28,178761  	27,691297  	30,086522  	29,364876  	31,905416  	57,948244  	28,120256  	27,509155  	27,618776  	63,275981  	0,326921  	0,165653  	-3654,857705  	25500,979642  	-0,018519  	-0,050013  	0,276051  	0,139877  	-3,627950  	9163,499892  	143636,494734  	20,832712  	-0,047963  
126,547000  	23,921464  	29,231580  	26,242200  	1256,670793  	70,212509  	64,013043  	0,010632  	0,008806  	0,003963  	0,004399  	0,004359  	0,000000  	-0,000000  	25,688065  	25,000309  	25,930938  	25,669737  	28,217682  	27,009541  	28,182790  	27,682666  	30,098369  	29,368462  	31,905340  	57,948781  	28,122351  	27,522775  	27,619841  	63,273863  	0,330132  	0,167281  	-3713,729068  	25494,908594  	-0,018514  	-0,050000  	0,310588  	0,157377  	-4,084675  	10340,523314  	143816,976279  	20,858889  	-0,047951  
127,547000  	23,899900  	29,247454  	26,243122  	357,439972  	70,212696  	63,991622  	0,010636  	0,008446  	0,003963  	0,004398  	0,004394  	-0,000001  	-0,000000  	25,688602  	25,005025  	25,925981  	25,660380  	28,212404  	27,010767  	28,174881  	27,680672  	30,082000  	29,373527  	31,904540  	57,938238  	28,112524  	27,524485  	27,605564  	63,274103  	0,328937  	0,166675  	-3726,376594  	12435,446939  	-0,036421  	-0,050008  	0,338527  	0,171534  	-4,467623  	9563,613036  	143899,350994  	20,870836  	-0,047958  
128,546000  	23,903955  	29,253484  	26,243491  	956,927186  	70,209332  	63,990876  	0,010626  	0,008379  	0,003960  	0,004385  	0,004333  	0,000001  	-0,000000  	25,692525  	24,993267  	25,917430  	25,666026  	28,207955  	27,007521  	28,167922  	27,672392  	30,079340  	29,365297  	31,903602  	57,932304  	28,103248  	27,532214  	27,604291  	63,262783  	0,318370  	0,161321  	-3608,001447  	22432,772860  	-0,022137  	-0,049986  	0,289704  	0,146795  	-3,821691  	9418,380003  	143689,064574  	20,840337  	-0,047939  
129,548000  	23,868415  	29,247731  	26,243737  	956,927186  	70,205002  	64,016246  	0,010632  	0,008642  	0,003961  	0,004419  	0,004370  	-0,000001  	-0,000000  	25,689012  	24,996532  	25,915357  	25,658863  	28,214726  	27,010090  	28,180901  	27,668564  	30,083803  	29,368652  	31,904565  	57,935377  	28,101739  	27,536301  	27,613495  	63,264980  	0,345874  	0,175257  	-3941,521945  	22441,755194  	-0,022146  	-0,050008  	0,319667  	0,161978  	-4,196819  	9986,798829  	143810,804884  	20,857994  	-0,047959  
130,547000  	23,838558  	29,245270  	26,244721  	357,439972  	70,202323  	64,014753  	0,010634  	0,008665  	0,003963  	0,004404  	0,004340  	-0,000000  	-0,000000  	25,690586  	25,008072  	25,924504  	25,657833  	28,202440  	27,010115  	28,171874  	27,676150  	30,082337  	29,370933  	31,894293  	57,941699  	28,098054  	27,555146  	27,612900  	63,270212  	0,334300  	0,169392  	-3829,044323  	12434,876501  	-0,036420  	-0,050005  	0,295910  	0,149940  	-3,884175  	10036,699250  	143852,712472  	20,864072  	-0,047956  
131,549000  	23,807964  	29,240471  	26,244721  	1256,670793  	70,202168  	64,007012  	0,010636  	0,008637  	0,003962  	0,004432  	0,004407  	-0,000001  	-0,000000  	25,708845  	25,001662  	25,929375  	25,669851  	28,213279  	27,012696  	28,190781  	27,672500  	30,091550  	29,374870  	31,912437  	57,942187  	28,112813  	27,565310  	27,606037  	63,265319  	0,356812  	0,180799  	-4106,390585  	25499,948124  	-0,018518  	-0,050011  	0,348268  	0,176470  	-4,577034  	9974,432670  	143896,936100  	20,870486  	-0,047961  
132,548000  	23,786340  	29,224842  	26,243983  	1256,670793  	70,204348  	64,030081  	0,010625  	0,008413  	0,003961  	0,004395  	0,004324  	0,000001  	-0,000000  	25,689948  	24,993161  	25,926328  	25,657731  	28,214875  	27,011946  	28,186278  	27,668355  	30,089617  	29,369187  	31,905579  	57,945600  	28,101736  	27,581618  	27,608650  	63,267003  	0,326409  	0,165394  	-3760,657399  	25490,805138  	-0,018511  	-0,049991  	0,282728  	0,143261  	-3,703180  	9492,980906  	143669,328818  	20,837474  	-0,047944  
133,546000  	23,792114  	29,207121  	26,243583  	956,927186  	70,201887  	64,043979  	0,010634  	0,008399  	0,003961  	0,004373  	0,004324  	-0,000000  	-0,000000  	25,691225  	24,997418  	25,915286  	25,652246  	28,200030  	27,000844  	28,178629  	27,675277  	30,079087  	29,356591  	31,901600  	57,930547  	28,110474  	27,597430  	27,609072  	63,278104  	0,309009  	0,156577  	-3544,801483  	22440,058523  	-0,022144  	-0,050004  	0,283233  	0,143516  	-3,699965  	9462,236712  	143858,721463  	20,864944  	-0,047955  
134,635000  	23,811527  	29,193769  	26,243645  	357,439972  	70,199208  	64,016557  	0,010631  	0,008505  	0,003962  	0,004375  	0,004358  	-0,000001  	-0,000000  	25,686748  	24,995392  	25,916459  	25,663266  	28,202065  	27,002119  	28,176370  	27,679024  	30,085342  	29,365515  	31,893278  	57,932849  	28,113566  	27,616427  	27,609975  	63,281100  	0,310204  	0,157183  	-3536,977286  	12436,225789  	-0,036424  	-0,050011  	0,309839  	0,156998  	-4,063780  	9689,746439  	143796,809797  	20,855964  	-0,047961  
135,553000  	23,840923  	29,179372  	26,241524  	357,439972  	70,199738  	63,989508  	0,010620  	0,008344  	0,003962  	0,004393  	0,004349  	-0,000001  	-0,000000  	25,706223  	25,011116  	25,937539  	25,676911  	28,217857  	27,024057  	28,182112  	27,689192  	30,096230  	29,380849  	31,916252  	57,942971  	28,145758  	27,642615  	27,627880  	63,290986  	0,324901  	0,164630  	-3674,395460  	12436,128467  	-0,036423  	-0,050010  	0,302478  	0,153268  	-3,984915  	9342,960585  	143564,972920  	20,822339  	-0,047960  
136,547000  	23,860767  	29,171188  	26,242753  	-242,047242  	70,200049  	63,972657  	0,010622  	0,008405  	0,003962  	0,004369  	0,004339  	0,000000  	-0,000000  	25,700339  	25,004268  	25,924542  	25,667967  	28,217839  	27,019948  	28,181835  	27,679455  	30,087838  	29,370650  	31,909833  	57,944801  	28,142075  	27,644195  	27,607703  	63,293171  	0,305721  	0,154911  	-3439,326513  	-27098,825495  	-0,102465  	-0,049996  	0,294373  	0,149161  	-3,888853  	9474,959423  	143600,949190  	20,827557  	-0,047948  
137,549000  	23,866849  	29,174357  	26,240971  	1256,670793  	70,198305  	63,970263  	0,010631  	0,008575  	0,003963  	0,004420  	0,004362  	0,000001  	-0,000000  	25,710563  	25,014277  	25,938443  	25,676119  	28,231536  	27,022304  	28,193231  	27,692745  	30,104733  	29,379581  	31,920586  	57,947795  	28,139906  	27,648973  	27,622365  	63,303063  	0,347298  	0,175978  	-3904,918858  	25492,063900  	-0,018512  	-0,049994  	0,313185  	0,158693  	-4,137804  	9842,438784  	143792,403674  	20,855325  	-0,047946  
138,547000  	23,868692  	29,187770  	26,240417  	1256,670793  	70,196934  	63,962802  	0,010622  	0,008370  	0,003963  	0,004421  	0,004378  	-0,000001  	-0,000000  	25,709266  	25,012427  	25,940091  	25,681473  	28,216126  	27,015263  	28,187687  	27,687984  	30,101031  	29,378522  	31,921027  	57,936096  	28,143439  	27,633788  	27,627005  	63,297899  	0,347834  	0,176250  	-3919,475465  	25499,017670  	-0,018517  	-0,050009  	0,325737  	0,165054  	-4,307845  	9398,565144  	143605,418862  	20,828205  	-0,047959  
139,646000  	23,856343  	29,195708  	26,238850  	357,439972  	70,200454  	63,981891  	0,010630  	0,008408  	0,003961  	0,004394  	0,004352  	0,000000  	-0,000000  	25,705221  	25,005833  	25,933049  	25,672835  	28,207609  	27,011564  	28,188205  	27,690434  	30,096294  	29,374462  	31,914443  	57,935042  	28,144982  	27,629598  	27,621793  	63,290157  	0,325612  	0,164990  	-3683,073316  	12433,086738  	-0,036414  	-0,049996  	0,304783  	0,154436  	-4,020667  	9481,999927  	143776,064304  	20,852955  	-0,047948  
140,548000  	23,827224  	29,202230  	26,238727  	956,927186  	70,201887  	63,977227  	0,010634  	0,008662  	0,003960  	0,004382  	0,004365  	-0,000000  	-0,000000  	25,702919  	25,002127  	25,928406  	25,665904  	28,209157  	27,007643  	28,186424  	27,686313  	30,090567  	29,370201  	31,905645  	57,928860  	28,145278  	27,621795  	27,616641  	63,294248  	0,316160  	0,160201  	-3600,037795  	22439,952483  	-0,022144  	-0,050003  	0,315370  	0,159800  	-4,164404  	10029,097033  	143866,933514  	20,866135  	-0,047954  
141,549000  	23,812326  	29,203522  	26,238173  	57,696365  	70,205127  	63,962335  	0,010633  	0,008550  	0,003963  	0,004352  	0,004344  	-0,000000  	-0,000000  	25,696439  	24,998798  	25,932599  	25,669434  	28,211575  	27,003575  	28,177944  	27,682437  	30,088931  	29,366001  	31,904898  	57,933763  	28,138457  	27,605279  	27,612688  	63,290854  	0,291616  	0,147764  	-3330,564868  	1700,696590  	-0,053737  	-0,050001  	0,299066  	0,151539  	-3,960615  	9786,737305  	143845,785540  	20,863067  	-0,047952  
142,546000  	23,813800  	29,194108  	26,237682  	1256,670793  	70,209799  	63,959102  	0,010627  	0,008573  	0,003963  	0,004441  	0,004374  	-0,000000  	-0,000000  	25,696420  	25,000477  	25,930037  	25,667370  	28,209185  	27,009008  	28,174761  	27,678702  	30,083974  	29,369365  	31,901938  	57,943945  	28,138228  	27,589514  	27,618938  	63,286398  	0,363663  	0,184270  	-4145,020275  	25496,921857  	-0,018516  	-0,050004  	0,322439  	0,163382  	-4,275560  	9837,916081  	143715,557796  	20,844179  	-0,047955  
143,549000  	23,812602  	29,179710  	26,236944  	1256,670793  	70,214378  	63,980026  	0,010638  	0,008393  	0,003960  	0,004403  	0,004384  	-0,000000  	-0,000000  	25,701021  	25,002995  	25,928801  	25,666142  	28,210775  	27,012222  	28,177944  	27,678811  	30,082825  	29,373241  	31,901716  	57,942020  	28,144812  	27,578623  	27,620142  	63,294458  	0,332955  	0,168711  	-3785,702306  	25495,594034  	-0,018515  	-0,050001  	0,330185  	0,167307  	-4,366823  	9449,512585  	143950,826364  	20,878302  	-0,047952  
144,547000  	23,829865  	29,176449  	26,237313  	1256,670793  	70,213693  	63,999861  	0,010629  	0,008453  	0,003962  	0,004433  	0,004305  	-0,000000  	-0,000000  	25,695000  	25,001620  	25,928212  	25,660905  	28,215375  	27,006097  	28,173923  	27,677340  	30,083560  	29,368023  	31,901974  	57,934401  	28,141318  	27,555357  	27,615320  	63,296217  	0,357817  	0,181308  	-4052,823509  	25496,646281  	-0,018516  	-0,050003  	0,267506  	0,135547  	-3,526236  	9578,528831  	143764,272279  	20,851245  	-0,047954  
145,546000  	23,823968  	29,175864  	26,236698  	1256,670793  	70,212852  	64,008162  	0,010630  	0,008473  	0,003962  	0,004349  	0,004360  	-0,000001  	-0,000000  	25,693702  	25,004197  	25,927989  	25,655842  	28,216634  	27,005050  	28,172951  	27,675424  	30,084587  	29,365357  	31,903013  	57,934530  	28,138570  	27,533481  	27,618140  	63,294928  	0,289343  	0,146612  	-3280,511912  	25501,574518  	-0,018519  	-0,050014  	0,311709  	0,157945  	-4,102875  	9622,582917  	143769,398632  	20,851988  	-0,047964  
146,546000  	23,817763  	29,181894  	26,236698  	1256,670793  	70,210485  	63,989259  	0,010636  	0,008629  	0,003962  	0,004414  	0,004359  	-0,000000  	-0,000000  	25,701486  	25,006893  	25,930315  	25,663830  	28,215644  	27,010043  	28,177276  	27,678225  	30,090742  	29,370708  	31,906054  	57,940692  	28,147252  	27,527698  	27,614492  	63,296737  	0,342151  	0,173371  	-3888,110633  	25497,205744  	-0,018516  	-0,050005  	0,310886  	0,157528  	-4,102932  	9957,627287  	143900,134775  	20,870950  	-0,047955  
147,548000  	23,817578  	29,182817  	26,237251  	1256,670793  	70,220297  	63,984347  	0,010628  	0,008403  	0,003961  	0,004426  	0,004373  	-0,000002  	-0,000000  	25,699594  	25,009344  	25,928219  	25,673821  	28,215262  	27,012352  	28,181790  	27,680908  	30,095485  	29,376171  	31,903898  	57,943917  	28,152512  	27,516532  	27,608987  	63,298395  	0,351861  	0,178290  	-3999,271608  	25504,398170  	-0,018521  	-0,050020  	0,321298  	0,162804  	-4,250379  	9470,328481  	143735,053474  	20,847007  	-0,047969  
148,547000  	23,800193  	29,178387  	26,237866  	1256,670793  	70,228022  	63,975518  	0,010630  	0,008413  	0,003962  	0,004409  	0,004305  	-0,000001  	-0,000001  	25,697337  	25,016460  	25,932872  	25,679581  	28,217697  	27,014371  	28,193153  	27,686731  	30,099239  	29,381617  	31,905255  	57,944816  	28,153580  	27,504124  	27,620805  	63,310267  	0,338323  	0,171431  	-3854,691915  	25499,120807  	-0,018517  	-0,050009  	0,267751  	0,135672  	-3,551428  	9491,729434  	143786,507661  	20,854470  	-0,047959  
149,548000  	23,778046  	29,174111  	26,238419  	956,927186  	70,228520  	63,978191  	0,010627  	0,008517  	0,003962  	0,004418  	0,004410  	-0,000001  	-0,000000  	25,698316  	25,009025  	25,934224  	25,674627  	28,215312  	27,013756  	28,188371  	27,684529  	30,095746  	29,376055  	31,904514  	57,944116  	28,155016  	27,489711  	27,620153  	63,300091  	0,345546  	0,175091  	-3950,071076  	22442,410445  	-0,022147  	-0,050009  	0,350692  	0,177698  	-4,649922  	9715,687781  	143710,007777  	20,843374  	-0,047960  
150,548000  	23,791930  	29,168389  	26,238112  	-242,047242  	70,228271  	63,982295  	0,010637  	0,008657  	0,003962  	0,004415  	0,004391  	-0,000001  	-0,000000  	25,707468  	25,011485  	25,932332  	25,676442  	28,215743  	27,018034  	28,199986  	27,683966  	30,089731  	29,365239  	31,910546  	57,942157  	28,155992  	27,472407  	27,614502  	63,289474  	0,342573  	0,173584  	-3901,857228  	-27106,793081  	-0,102497  	-0,050013  	0,335582  	0,170042  	-4,446478  	10017,997203  	143932,446338  	20,875636  	-0,047962  
151,548000  	23,850814  	29,158329  	26,238942  	657,183579  	70,232570  	63,989788  	0,010637  	0,008450  	0,003961  	0,004366  	0,004370  	0,000000  	-0,000000  	25,702453  	25,012565  	25,931878  	25,670372  	28,217479  	27,022704  	28,192682  	27,681441  	30,086835  	29,372862  	31,907221  	57,943409  	28,156564  	27,463609  	27,619023  	63,292588  	0,303040  	0,153553  	-3407,307601  	18398,915788  	-0,027538  	-0,049995  	0,319259  	0,161771  	-4,228042  	9571,363816  	143938,123457  	20,876460  	-0,047947  
152,547000  	23,909853  	29,150699  	26,239680  	57,696365  	70,238426  	64,006452  	0,010637  	0,008808  	0,003962  	0,004361  	0,004350  	-0,000001  	-0,000000  	25,694785  	24,998840  	25,928336  	25,663215  	28,214753  	27,011914  	28,176606  	27,670874  	30,090469  	29,366943  	31,899479  	57,942002  	28,144490  	27,448471  	27,609152  	63,276621  	0,299461  	0,151739  	-3324,760730  	1700,901706  	-0,053746  	-0,050010  	0,303253  	0,153661  	-4,009130  	10344,368991  	143935,941579  	20,876143  	-0,047960  
153,548000  	23,909054  	29,167650  	26,240264  	1256,670793  	70,244812  	64,019572  	0,010622  	0,008559  	0,003962  	0,004450  	0,004344  	-0,000001  	-0,000000  	25,698804  	25,004384  	25,929400  	25,667266  	28,216450  	27,012558  	28,184204  	27,678342  	30,091474  	29,371614  	31,912617  	57,939595  	28,144621  	27,438328  	27,616627  	63,291383  	0,371390  	0,188186  	-4137,311353  	25503,227104  	-0,018520  	-0,050018  	0,298485  	0,151245  	-3,941836  	9807,176131  	143614,690078  	20,829550  	-0,047967  
154,546000  	23,880303  	29,202722  	26,240141  	1256,670793  	70,247989  	64,029770  	0,010630  	0,008460  	0,003962  	0,004426  	0,004377  	0,000000  	-0,000000  	25,697836  	24,999670  	25,927391  	25,663763  	28,203241  	27,008497  	28,180644  	27,675195  	30,082733  	29,361434  	31,901334  	57,931086  	28,132009  	27,424328  	27,615312  	63,286174  	0,351563  	0,178139  	-3963,977471  	25492,382013  	-0,018512  	-0,049994  	0,324831  	0,164594  	-4,284921  	9593,705673  	143778,789886  	20,853350  	-0,047946  
155,549000  	23,851920  	29,227180  	26,239587  	1256,670793  	70,248021  	64,039191  	0,010627  	0,008448  	0,003962  	0,004358  	0,004342  	-0,000000  	-0,000000  	25,699354  	25,009344  	25,933032  	25,677160  	28,221500  	27,014083  	28,191568  	27,681590  	30,096524  	29,375299  	31,915091  	57,942434  	28,140140  	27,418822  	27,623465  	63,300986  	0,296650  	0,150315  	-3378,030164  	25495,375904  	-0,018515  	-0,050001  	0,296995  	0,150490  	-3,911827  	9568,028208  	143723,346182  	20,845309  	-0,047952  
156,546000  	23,810391  	29,236963  	26,239342  	1256,670793  	70,246214  	64,035024  	0,010629  	0,008475  	0,003961  	0,004411  	0,004318  	-0,000000  	-0,000000  	25,681788  	24,988888  	25,921042  	25,647685  	28,197836  	26,997644  	28,166316  	27,667633  	30,077970  	29,363348  	31,896607  	57,932509  	28,117395  	27,393852  	27,611311  	63,285702  	0,339930  	0,172245  	-3907,838632  	25495,762863  	-0,018515  	-0,050002  	0,278219  	0,140975  	-3,665904  	9625,507499  	143760,953565  	20,850763  	-0,047953  
157,547000  	23,825780  	29,225150  	26,239188  	57,696365  	70,249017  	64,024360  	0,010631  	0,008322  	0,003960  	0,004415  	0,004322  	-0,000001  	-0,000000  	25,693836  	24,989412  	25,922287  	25,661609  	28,204367  	27,007145  	28,187765  	27,676698  	30,081047  	29,366657  	31,893893  	57,932544  	28,121110  	27,390896  	27,613648  	63,285513  	0,343248  	0,173926  	-3926,198363  	1700,942265  	-0,053747  	-0,050011  	0,281249  	0,142511  	-3,713866  	9296,755862  	143797,007507  	20,855993  	-0,047960  
158,546000  	23,872224  	29,205275  	26,239803  	1256,670793  	70,250575  	64,015468  	0,010624  	0,008537  	0,003961  	0,004416  	0,004394  	0,000000  	-0,000000  	25,693356  	24,991810  	25,922551  	25,674930  	28,214786  	27,011086  	28,185741  	27,674312  	30,092549  	29,360084  	31,909288  	57,935343  	28,125080  	27,394647  	27,621817  	63,290673  	0,343642  	0,174126  	-3882,405677  	25493,352590  	-0,018513  	-0,049996  	0,338405  	0,171472  	-4,476105  	9759,056352  	143648,978747  	20,834523  	-0,047948  
159,548000  	23,898395  	29,189955  	26,240448  	1256,670793  	70,249671  	64,007976  	0,010631  	0,008652  	0,003961  	0,004397  	0,004354  	0,000000  	-0,000000  	25,688790  	24,997334  	25,924295  	25,653042  	28,203620  	27,000355  	28,180275  	27,668745  	30,077859  	29,353295  	31,904135  	57,931227  	28,115199  	27,367600  	27,610412  	63,278827  	0,328433  	0,166420  	-3681,710995  	25492,640910  	-0,018513  	-0,049995  	0,306437  	0,155274  	-4,057532  	10008,205441  	143789,755764  	20,854941  	-0,047947  
160,547000  	23,940294  	29,196661  	26,239895  	1256,670793  	70,253970  	63,999395  	0,010635  	0,008360  	0,003961  	0,004408  	0,004346  	-0,000000  	-0,000000  	25,686152  	25,005102  	25,926150  	25,660503  	28,207348  	27,001220  	28,187688  	27,680297  	30,080056  	29,359279  	31,905047  	57,934817  	28,118377  	27,366859  	27,613243  	63,287251  	0,336868  	0,170693  	-3751,133678  	25495,384623  	-0,018515  	-0,050001  	0,300087  	0,152056  	-3,981657  	9377,335393  	143885,821939  	20,868874  	-0,047952  
161,549000  	23,960169  	29,213121  	26,240141  	1256,670793  	70,253877  	64,035771  	0,010631  	0,008833  	0,003964  	0,004406  	0,004379  	0,000001  	-0,000000  	25,688846  	24,994955  	25,920017  	25,668586  	28,208789  	27,004076  	28,178427  	27,675775  	30,080750  	29,359229  	31,908320  	57,934601  	28,116225  	27,350841  	27,613768  	63,293439  	0,335828  	0,170166  	-3737,120186  	25491,487725  	-0,018512  	-0,049992  	0,326763  	0,165573  	-4,310335  	10398,434855  	143793,632305  	20,855503  	-0,047945  
162,548000  	23,934304  	29,237856  	26,240264  	1256,670793  	70,250637  	64,030050  	0,010629  	0,008633  	0,003959  	0,004374  	0,004349  	0,000001  	-0,000000  	25,696292  	25,003587  	25,927352  	25,660359  	28,209191  	27,007572  	28,171542  	27,675589  	30,083797  	29,360771  	31,909809  	57,938937  	28,118455  	27,352152  	27,609704  	63,291130  	0,309416  	0,156783  	-3476,376533  	25492,090517  	-0,018512  	-0,049994  	0,302968  	0,153516  	-3,998046  	9967,734570  	143751,647044  	20,849414  	-0,047946  
163,548000  	23,925273  	29,261022  	26,240633  	357,439972  	70,241261  	64,035677  	0,010637  	0,008319  	0,003957  	0,004384  	0,004315  	-0,000002  	-0,000000  	25,695682  	25,007276  	25,930581  	25,671684  	28,214538  	27,021568  	28,178127  	27,690564  	30,089822  	29,377652  	31,905098  	57,943071  	28,129394  	27,346022  	27,622267  	63,306276  	0,317832  	0,161048  	-3592,615181  	12440,607170  	-0,036436  	-0,050030  	0,276052  	0,139877  	-3,634070  	9288,522604  	143929,989078  	20,875280  	-0,047977  
164,548000  	23,907641  	29,270190  	26,241001  	-242,047242  	70,238520  	64,060736  	0,010633  	0,008322  	0,003963  	0,004363  	0,004359  	-0,000001  	-0,000000  	25,705112  	25,007965  	25,934164  	25,672115  	28,220762  	27,011372  	28,184775  	27,689006  	30,088102  	29,379129  	31,911199  	57,943121  	28,126078  	27,341820  	27,623809  	63,300730  	0,300694  	0,152364  	-3415,976081  	-27108,624904  	-0,102503  	-0,050016  	0,310548  	0,157357  	-4,069892  	9295,074970  	143839,430556  	20,862146  	-0,047965  
165,548000  	23,862487  	29,272251  	26,241370  	956,927186  	70,240171  	64,059089  	0,010625  	0,008414  	0,003963  	0,004423  	0,004366  	0,000001  	-0,000000  	25,695358  	25,006315  	25,928730  	25,674250  	28,215699  	27,008370  	28,183516  	27,680379  	30,090421  	29,367887  	31,905826  	57,941304  	28,120934  	27,342232  	27,616233  	63,293779  	0,348998  	0,176840  	-3999,636889  	22433,438921  	-0,022138  	-0,049987  	0,315953  	0,160096  	-4,142940  	9494,018730  	143677,816252  	20,838705  	-0,047941  
166,547000  	23,834043  	29,263206  	26,241739  	-242,047242  	70,237118  	64,033346  	0,010630  	0,008480  	0,003962  	0,004364  	0,004316  	0,000001  	-0,000000  	25,684810  	24,993398  	25,923915  	25,670171  	28,209202  	27,003434  	28,182191  	27,676971  	30,090327  	29,371468  	31,900513  	57,934083  	28,112879  	27,337560  	27,607217  	63,292240  	0,301385  	0,152714  	-3466,370518  	-27097,649556  	-0,102461  	-0,049994  	0,276319  	0,140013  	-3,636526  	9637,599169  	143777,024613  	20,853094  	-0,047946  
167,550000  	23,814507  	29,244470  	26,241923  	657,183579  	70,234127  	64,017645  	0,010631  	0,008464  	0,003963  	0,004364  	0,004347  	-0,000001  	-0,000000  	25,694438  	24,994535  	25,931411  	25,664972  	28,213287  	27,008852  	28,182801  	27,681665  	30,093027  	29,379242  	31,902108  	57,934487  	28,106449  	27,346673  	27,616605  	63,292294  	0,301764  	0,152906  	-3471,243400  	18403,846313  	-0,027545  	-0,050010  	0,300820  	0,152427  	-3,967072  	9602,969680  	143806,765938  	20,857408  	-0,047960  
168,547000  	23,800807  	29,223796  	26,241923  	57,696365  	70,234626  	64,017147  	0,010629  	0,008836  	0,003961  	0,004381  	0,004380  	-0,000001  	-0,000000  	25,696389  	25,000141  	25,933277  	25,667410  	28,220319  	27,015607  	28,182355  	27,689860  	30,095749  	29,375424  	31,910157  	57,938514  	28,106321  	27,357722  	27,619091  	63,292080  	0,315694  	0,159964  	-3626,821550  	1700,781459  	-0,053746  	-0,050010  	0,327370  	0,165881  	-4,317894  	10405,165498  	143764,138118  	20,851225  	-0,047960  
169,548000  	23,798688  	29,203522  	26,241647  	1256,670793  	70,235062  	64,003468  	0,010630  	0,008667  	0,003963  	0,004409  	0,004403  	-0,000001  	-0,000000  	25,689808  	25,000208  	25,931850  	25,674383  	28,218398  	27,013805  	28,182708  	27,689236  	30,097459  	29,366192  	31,912996  	57,937810  	28,101259  	27,359993  	27,613318  	63,285316  	0,337622  	0,171075  	-3865,751901  	25502,192812  	-0,018520  	-0,050016  	0,345330  	0,174981  	-4,565117  	10040,863985  	143785,476742  	20,854320  	-0,047965  
170,548000  	23,812019  	29,187217  	26,242077  	1256,670793  	70,234190  	64,027532  	0,010630  	0,008379  	0,003961  	0,004368  	0,004320  	-0,000000  	-0,000000  	25,697813  	25,008550  	25,939585  	25,677362  	28,225564  	27,021026  	28,192239  	27,691105  	30,099324  	29,373791  	31,912480  	57,939246  	28,103611  	27,363893  	27,616334  	63,286102  	0,304908  	0,154499  	-3472,032170  	25495,661235  	-0,018515  	-0,050002  	0,279312  	0,141529  	-3,677618  	9419,683826  	143787,079610  	20,854553  	-0,047953  
171,547000  	23,834503  	29,181863  	26,242538  	357,439972  	70,230950  	64,053834  	0,010632  	0,008604  	0,003962  	0,004378  	0,004356  	0,000000  	-0,000000  	25,703277  	25,013915  	25,934208  	25,675469  	28,226776  	27,022799  	28,193762  	27,689833  	30,099156  	29,383299  	31,908397  	57,941920  	28,102540  	27,362021  	27,615272  	63,285749  	0,313100  	0,158650  	-3546,845373  	12433,150580  	-0,036415  	-0,049997  	0,308429  	0,156283  	-4,041677  	9904,023385  	143830,434723  	20,860841  	-0,047949  
172,548000  	23,856435  	29,190662  	26,241432  	956,927186  	70,230078  	64,049295  	0,010624  	0,008421  	0,003959  	0,004398  	0,004355  	-0,000000  	-0,000000  	25,697613  	25,006200  	25,923607  	25,673717  	28,214193  	27,012759  	28,185278  	27,684366  	30,097007  	29,375507  	31,905586  	57,937403  	28,089103  	27,357670  	27,608271  	63,274714  	0,328737  	0,166573  	-3714,832870  	22440,678086  	-0,022145  	-0,050005  	0,307151  	0,155636  	-4,027324  	9510,396815  	143658,433551  	20,835894  	-0,047956  
173,548000  	23,887306  	29,195738  	26,239710  	57,696365  	70,233100  	64,036237  	0,010631  	0,008600  	0,003962  	0,004397  	0,004344  	0,000001  	-0,000000  	25,705975  	25,009253  	25,941112  	25,681794  	28,224486  	27,023597  	28,195415  	27,696127  	30,102268  	29,379476  	31,919391  	57,939237  	28,096279  	27,373081  	27,617990  	63,281359  	0,328512  	0,166459  	-3694,337460  	1700,137694  	-0,053722  	-0,049985  	0,298663  	0,151335  	-3,926205  	9895,964159  	143804,266311  	20,857045  	-0,047939  
174,550000  	23,906904  	29,202630  	26,239710  	1256,670793  	70,235467  	64,021811  	0,010631  	0,008372  	0,003963  	0,004477  	0,004330  	0,000001  	-0,000000  	25,710214  	25,015414  	25,948400  	25,686059  	28,230727  	27,032398  	28,199790  	27,693316  	30,104900  	29,388651  	31,921815  	57,946430  	28,103643  	27,379197  	27,629554  	63,289254  	0,392691  	0,198979  	-4405,497719  	25491,126389  	-0,018512  	-0,049991  	0,287329  	0,145592  	-3,787450  	9404,294043  	143795,376395  	20,855756  	-0,047944  
175,547000  	23,912618  	29,210936  	26,239249  	1256,670793  	70,235560  	64,035087  	0,010635  	0,008456  	0,003963  	0,004455  	0,004353  	0,000000  	-0,000000  	25,694381  	25,001462  	25,928063  	25,664103  	28,212181  	27,014642  	28,178990  	27,670813  	30,084715  	29,373268  	31,901601  	57,932382  	28,086898  	27,356880  	27,612360  	63,271542  	0,374909  	0,189969  	-4208,063134  	25492,250304  	-0,018512  	-0,049994  	0,305721  	0,154911  	-4,021338  	9583,897640  	143885,080524  	20,868767  	-0,047946  
176,547000  	23,896829  	29,224719  	26,238081  	57,696365  	70,236495  	64,035957  	0,010629  	0,008420  	0,003962  	0,004371  	0,004370  	0,000001  	-0,000000  	25,700634  	25,006225  	25,933904  	25,671219  	28,212602  	27,015749  	28,182856  	27,682222  	30,091195  	29,373963  	31,906365  	57,931283  	28,086932  	27,363488  	27,603503  	63,271521  	0,306920  	0,155519  	-3464,171601  	1700,455596  	-0,053729  	-0,049992  	0,318913  	0,161596  	-4,194903  	9506,318388  	143759,188291  	20,850507  	-0,047945  
177,548000  	23,881378  	29,241578  	26,235960  	57,696365  	70,237585  	64,011520  	0,010634  	0,008709  	0,003961  	0,004349  	0,004311  	-0,000002  	-0,000000  	25,703143  	25,018699  	25,935636  	25,679295  	28,216998  	27,017269  	28,193969  	27,694121  	30,100037  	29,373117  	31,911742  	57,938540  	28,094131  	27,364588  	27,611460  	63,291317  	0,289713  	0,146800  	-3289,792652  	1701,432341  	-0,053757  	-0,050021  	0,272747  	0,138203  	-3,602410  	10130,376438  	143857,739971  	20,864801  	-0,047969  
178,547000  	23,881194  	29,240840  	26,234608  	657,183579  	70,235841  	63,997094  	0,010629  	0,008631  	0,003963  	0,004403  	0,004324  	-0,000001  	-0,000000  	25,707405  	25,020381  	25,938177  	25,676157  	28,222918  	27,010586  	28,192996  	27,693308  	30,099703  	29,376348  	31,910461  	57,941994  	28,094870  	27,381751  	27,619599  	63,288019  	0,333064  	0,168766  	-3781,663398  	18404,159502  	-0,027545  	-0,050010  	0,282967  	0,143382  	-3,745001  	9962,210831  	143750,446658  	20,849240  	-0,047960  
179,547000  	23,851981  	29,229857  	26,233778  	-242,047242  	70,226496  	64,002877  	0,010626  	0,008405  	0,003963  	0,004408  	0,004404  	0,000001  	-0,000000  	25,705030  	25,014240  	25,935869  	25,681234  	28,217911  	27,016281  	28,197664  	27,695145  	30,095531  	29,376308  	31,915199  	57,943915  	28,086708  	27,399847  	27,626150  	63,278369  	0,337220  	0,170872  	-3841,886696  	-27096,884070  	-0,102462  	-0,049992  	0,346167  	0,175406  	-4,570330  	9474,764168  	143691,592445  	20,840703  	-0,047945  
180,547000  	23,817824  	29,225365  	26,232487  	956,927186  	70,221885  	64,038258  	0,010630  	0,008356  	0,003961  	0,004408  	0,004317  	0,000001  	-0,000000  	25,707897  	25,004949  	25,946302  	25,673929  	28,220558  	27,024541  	28,191767  	27,681706  	30,089891  	29,383877  	31,914853  	57,943144  	28,083711  	27,419954  	27,616931  	63,285671  	0,337386  	0,170956  	-3864,986665  	22431,646756  	-0,022136  	-0,049982  	0,277257  	0,140488  	-3,637031  	9369,325688  	143782,475777  	20,853885  	-0,047936  
181,547000  	23,788029  	29,225950  	26,231288  	1256,670793  	70,220858  	64,043605  	0,010633  	0,008700  	0,003960  	0,004421  	0,004340  	-0,000000  	-0,000000  	25,700885  	25,012122  	25,939771  	25,673851  	28,222595  	27,019149  	28,191008  	27,687647  	30,090061  	29,382255  	31,909333  	57,939521  	28,077629  	27,438418  	27,618779  	63,270685  	0,347934  	0,176301  	-4008,220302  	25497,321139  	-0,018516  	-0,050004  	0,295795  	0,149882  	-3,876211  	10110,831116  	143839,776549  	20,862196  	-0,047955  
182,547000  	23,794234  	29,212167  	26,230673  	657,183579  	70,221231  	64,012577  	0,010626  	0,008674  	0,003961  	0,004443  	0,004409  	-0,000000  	-0,000000  	25,699361  	25,009933  	25,932449  	25,678919  	28,217497  	27,020721  	28,186839  	27,689835  	30,095990  	29,380691  	31,916389  	57,944713  	28,076762  	27,462736  	27,625422  	63,280170  	0,365252  	0,185076  	-4192,253577  	18401,942765  	-0,027542  	-0,050003  	0,349909  	0,177301  	-4,608622  	10055,407663  	143695,454863  	20,841264  	-0,047954  
183,546000  	23,792667  	29,190385  	26,229290  	657,183579  	70,222384  	64,004276  	0,010634  	0,008360  	0,003961  	0,004382  	0,004333  	-0,000000  	-0,000000  	25,707251  	25,015983  	25,918564  	25,673329  	28,213070  	27,009263  	28,188961  	27,679653  	30,093178  	29,373053  	31,914573  	57,935745  	28,077010  	27,473340  	27,614395  	63,285568  	0,315915  	0,160076  	-3612,450201  	18401,605298  	-0,027541  	-0,050002  	0,289841  	0,146865  	-3,823286  	9377,688408  	143864,850492  	20,865832  	-0,047953  
184,552000  	23,805322  	29,173526  	26,228368  	1256,670793  	70,222508  	64,027594  	0,010627  	0,008467  	0,003962  	0,004414  	0,004349  	0,000000  	-0,000000  	25,700783  	25,015489  	25,936731  	25,678223  	28,227224  	27,020705  	28,194430  	27,689618  	30,098051  	29,383443  	31,912632  	57,942683  	28,075502  	27,482215  	27,619735  	63,287757  	0,342197  	0,173394  	-3891,578985  	25492,598770  	-0,018512  	-0,049994  	0,302278  	0,153167  	-3,972485  	9608,344148  	143723,056677  	20,845267  	-0,047946  
185,546000  	23,806889  	29,173495  	26,226954  	1256,670793  	70,225561  	64,032817  	0,010628  	0,008446  	0,003962  	0,004426  	0,004369  	-0,000001  	-0,000000  	25,706239  	25,008678  	25,929602  	25,674357  	28,227561  	27,017369  	28,191272  	27,700787  	30,097369  	29,378340  	31,905654  	57,941378  	28,064497  	27,471001  	27,619383  	63,287083  	0,352001  	0,178361  	-4001,885537  	25501,342984  	-0,018519  	-0,050013  	0,318699  	0,161487  	-4,186820  	9562,606340  	143733,754233  	20,846819  	-0,047963  
186,548000  	23,770644  	29,176326  	26,225848  	1256,670793  	70,225125  	64,019572  	0,010632  	0,008493  	0,003963  	0,004416  	0,004352  	-0,000000  	-0,000000  	25,707810  	25,009161  	25,941767  	25,675294  	28,215674  	27,024592  	28,191036  	27,692281  	30,089487  	29,380965  	31,911922  	57,942635  	28,066796  	27,478106  	27,612866  	63,292354  	0,344033  	0,174324  	-3939,786344  	25497,648501  	-0,018516  	-0,050005  	0,305286  	0,154691  	-4,018900  	9665,469009  	143821,735456  	20,859579  	-0,047956  
187,551000  	23,756913  	29,175403  	26,225479  	1256,670793  	70,224097  	64,000234  	0,010631  	0,008425  	0,003961  	0,004396  	0,004342  	0,000001  	-0,000000  	25,709438  	25,015247  	25,944234  	25,680058  	28,225200  	27,028069  	28,192330  	27,690354  	30,112081  	29,379592  	31,922380  	57,945366  	28,069453  	27,492446  	27,608980  	63,302961  	0,327391  	0,165891  	-3758,088083  	25490,209151  	-0,018511  	-0,049988  	0,297250  	0,150619  	-3,924638  	9517,517968  	143800,022594  	20,856430  	-0,047942  
188,546000  	23,776879  	29,161497  	26,224372  	1256,670793  	70,224097  	63,988482  	0,010630  	0,008573  	0,003963  	0,004396  	0,004407  	-0,000001  	-0,000000  	25,715001  	25,015203  	25,937623  	25,679530  	28,232732  	27,029757  	28,193243  	27,683128  	30,102521  	29,390534  	31,923901  	57,941429  	28,066453  	27,486572  	27,612716  	63,299893  	0,327316  	0,165854  	-3733,745967  	25503,909730  	-0,018521  	-0,050018  	0,348287  	0,176480  	-4,607170  	9837,458363  	143772,971546  	20,852507  	-0,047967  
189,548000  	23,810268  	29,142054  	26,222313  	1256,670793  	70,222633  	63,983228  	0,010631  	0,008459  	0,003963  	0,004397  	0,004331  	-0,000001  	-0,000000  	25,710620  	25,016919  	25,941541  	25,677253  	28,230938  	27,022270  	28,196112  	27,687297  	30,100225  	29,385499  	31,920368  	57,951104  	28,068069  	27,501986  	27,622036  	63,299190  	0,328319  	0,166362  	-3708,429448  	25501,411119  	-0,018519  	-0,050013  	0,288443  	0,146156  	-3,817867  	9591,526739  	143793,653488  	20,855506  	-0,047962  
190,548000  	23,837114  	29,138116  	26,221821  	1256,670793  	70,219767  	63,987891  	0,010632  	0,008436  	0,003961  	0,004334  	0,004397  	-0,000001  	-0,000000  	25,712628  	25,021363  	25,940110  	25,678920  	28,226089  	27,018307  	28,200764  	27,695919  	30,103869  	29,385120  	31,918739  	57,947350  	28,071291  	27,508966  	27,616811  	63,296897  	0,277602  	0,140663  	-3117,460484  	25499,853134  	-0,018518  	-0,050009  	0,340517  	0,172542  	-4,501686  	9541,915663  	143816,884485  	20,858876  	-0,047959  
191,549000  	23,851213  	29,148361  	26,221913  	1256,670793  	70,220141  	64,001105  	0,010631  	0,008625  	0,003963  	0,004397  	0,004323  	0,000000  	-0,000000  	25,703730  	25,014342  	25,932272  	25,680577  	28,219573  	27,022856  	28,188134  	27,686639  	30,101377  	29,382958  	31,918695  	57,942895  	28,060521  	27,497646  	27,617844  	63,297321  	0,328588  	0,166498  	-3687,341858  	25494,297595  	-0,018514  	-0,049997  	0,281775  	0,142777  	-3,717435  	9949,650124  	143801,046453  	20,856578  	-0,047949  
192,549000  	23,855022  	29,166143  	26,221360  	1256,670793  	70,216154  	63,985497  	0,010627  	0,008258  	0,003962  	0,004446  	0,004371  	0,000000  	-0,000000  	25,709377  	25,017630  	25,940120  	25,678764  	28,221224  	27,023855  	28,187587  	27,689173  	30,103172  	29,389090  	31,924053  	57,947428  	28,057802  	27,495883  	27,625064  	63,307153  	0,368081  	0,186509  	-4141,421794  	25493,736725  	-0,018513  	-0,049996  	0,320299  	0,162298  	-4,233567  	9158,706945  	143713,926683  	20,843943  	-0,047948  
193,547000  	23,876248  	29,178541  	26,220222  	956,927186  	70,211637  	63,994887  	0,010629  	0,008435  	0,003961  	0,004398  	0,004356  	-0,000000  	-0,000000  	25,700356  	25,010790  	25,941579  	25,677817  	28,218926  	27,013243  	28,187141  	27,689194  	30,096636  	29,379270  	31,909608  	57,949658  	28,056801  	27,493253  	27,619672  	63,308598  	0,329408  	0,166913  	-3700,130392  	22439,599612  	-0,022143  	-0,050001  	0,308586  	0,156363  	-4,069657  	9540,226282  	143746,315918  	20,848640  	-0,047952  
194,547000  	23,908931  	29,185801  	26,220161  	357,439972  	70,214254  	63,986555  	0,010627  	0,008486  	0,003961  	0,004386  	0,004333  	-0,000001  	-0,000000  	25,696063  	25,015240  	25,939452  	25,678105  	28,210328  	27,015843  	28,191247  	27,688967  	30,095803  	29,380807  	31,913210  	57,950099  	28,054381  	27,486782  	27,614674  	63,308697  	0,318981  	0,161630  	-3565,820060  	12437,110512  	-0,036424  	-0,050010  	0,290065  	0,146978  	-3,832136  	9650,149263  	143708,863879  	20,843209  	-0,047960  
195,548000  	23,930219  	29,192354  	26,220161  	357,439972  	70,219051  	63,978937  	0,010630  	0,008484  	0,003964  	0,004423  	0,004373  	-0,000001  	-0,000000  	25,698418  	25,015650  	25,936409  	25,676868  	28,214209  	27,016141  	28,186992  	27,687465  	30,094967  	29,382212  	31,914438  	57,944769  	28,047968  	27,479058  	27,622791  	63,309208  	0,349737  	0,177214  	-3898,712446  	12437,018541  	-0,036424  	-0,050010  	0,322004  	0,163162  	-4,262567  	9644,390652  	143773,924793  	20,852645  	-0,047960  
196,547000  	23,907795  	29,205952  	26,220591  	956,927186  	70,220110  	63,978564  	0,010628  	0,008374  	0,003962  	0,004378  	0,004382  	-0,000001  	-0,000000  	25,691773  	25,005790  	25,927230  	25,673662  	28,212887  	27,011494  	28,177492  	27,684155  	30,091443  	29,373724  	31,901217  	57,938062  	28,040771  	27,474618  	27,625421  	63,304345  	0,312941  	0,158570  	-3512,419800  	22444,553527  	-0,022148  	-0,050013  	0,328874  	0,166643  	-4,354502  	9408,360443  	143728,712613  	20,846087  	-0,047963  
197,550000  	23,858739  	29,227457  	26,219731  	956,927186  	70,216964  	63,984254  	0,010635  	0,008397  	0,003962  	0,004346  	0,004303  	0,000000  	-0,000000  	25,689028  	25,003643  	25,925224  	25,661614  	28,202541  	27,009719  	28,176630  	27,682704  	30,087782  	29,367498  	31,898441  	57,936590  	28,039457  	27,468186  	27,616274  	63,298141  	0,287035  	0,145443  	-3264,560333  	22436,827469  	-0,022141  	-0,049994  	0,265956  	0,134762  	-3,516453  	9457,876014  	143885,016974  	20,868757  	-0,047946  
198,546000  	23,828329  	29,234656  	26,220345  	357,439972  	70,215780  	63,984440  	0,010631  	0,008399  	0,003964  	0,004424  	0,004408  	-0,000000  	-0,000000  	25,693939  	25,010366  	25,932010  	25,662391  	28,206573  	27,007846  	28,180095  	27,684289  	30,087656  	29,368492  	31,905356  	57,942973  	28,041999  	27,466661  	27,614896  	63,301659  	0,349937  	0,177316  	-4007,862957  	12435,080694  	-0,036418  	-0,050001  	0,349057  	0,176870  	-4,614190  	9461,826393  	143797,854838  	20,856116  	-0,047952  
199,551000  	23,807043  	29,224596  	26,220622  	1256,670793  	70,218989  	63,974958  	0,010633  	0,008489  	0,003961  	0,004413  	0,004350  	-0,000000  	-0,000000  	25,694322  	25,014762  	25,932519  	25,678113  	28,209232  	27,014362  	28,185362  	27,685597  	30,094223  	29,372610  	31,912318  	57,945863  	28,042031  	27,474867  	27,620175  	63,311025  	0,340931  	0,172752  	-3912,833506  	25498,284430  	-0,018517  	-0,050006  	0,303698  	0,153886  	-4,022758  	9655,646827  	143839,868344  	20,862209  	-0,047956  
200,547000  	23,824244  	29,204906  	26,220684  	1256,670793  	70,218116  	63,962149  	0,010641  	0,008760  	0,003960  	0,004423  	0,004309  	-0,000000  	-0,000000  	25,688187  	25,001612  	25,927234  	25,667369  	28,202929  	27,014644  	28,183730  	27,676125  	30,091089  	29,363741  	31,907471  	57,933850  	28,036357  	27,465876  	27,616044  	63,308723  	0,349005  	0,176843  	-3978,208532  	25496,800014  	-0,018515  	-0,050003  	0,270827  	0,137230  	-3,594212  	10241,369785  	144012,243754  	20,887210  	-0,047954  
201,548000  	23,836992  	29,181679  	26,220591  	1256,670793  	70,218054  	63,964667  	0,010630  	0,008376  	0,003963  	0,004426  	0,004382  	-0,000001  	-0,000000  	25,691133  	25,001127  	25,926717  	25,664270  	28,209505  	27,012733  	28,182180  	27,676814  	30,093880  	29,369584  	31,905970  	57,941382  	28,037426  	27,455605  	27,614077  	63,307864  	0,351567  	0,178141  	-3980,617770  	25503,731567  	-0,018520  	-0,050018  	0,329179  	0,166798  	-4,366811  	9413,192301  	143769,306838  	20,851975  	-0,047967  
202,548000  	23,855299  	29,174234  	26,222005  	657,183579  	70,227025  	63,983943  	0,010616  	0,008573  	0,003960  	0,004463  	0,004413  	0,000001  	-0,000001  	25,706287  	25,010202  	25,937410  	25,675685  	28,216146  	27,025051  	28,185654  	27,687158  	30,097975  	29,379305  	31,911069  	57,952150  	28,048616  	27,454540  	27,623669  	63,313766  	0,381463  	0,193290  	-4298,299084  	18398,222223  	-0,027536  	-0,049990  	0,353477  	0,179109  	-4,681420  	9836,749502  	143475,586540  	20,809374  	-0,047943  
203,548000  	23,889672  	29,182263  	26,221821  	-242,047242  	70,232726  	64,007882  	0,010630  	0,008474  	0,003961  	0,004366  	0,004333  	0,000000  	-0,000001  	25,699776  	25,005965  	25,938890  	25,681305  	28,217071  	27,011512  	28,181779  	27,676018  	30,090377  	29,374431  	31,909837  	57,938335  	28,052569  	27,452751  	27,626391  	63,317386  	0,303381  	0,153726  	-3401,544481  	-27099,951686  	-0,102478  	-0,049999  	0,289621  	0,146753  	-3,824523  	9624,376293  	143771,573449  	20,852304  	-0,047951  
204,547000  	23,901528  	29,195062  	26,222128  	956,927186  	70,233349  	64,010370  	0,010628  	0,008693  	0,003960  	0,004412  	0,004361  	-0,000001  	-0,000000  	25,697200  	25,004348  	25,930822  	25,670395  	28,214318  	27,015422  	28,175566  	27,681068  	30,091449  	29,374070  	31,902659  	57,937013  	28,037194  	27,449555  	27,621907  	63,314775  	0,340462  	0,172515  	-3817,976088  	22442,802961  	-0,022147  	-0,050009  	0,312367  	0,158279  	-4,123656  	10096,114114  	143739,671430  	20,847677  	-0,047959  
205,548000  	23,888474  	29,214690  	26,223296  	956,927186  	70,233411  	64,010432  	0,010632  	0,008340  	0,003963  	0,004434  	0,004358  	0,000001  	-0,000000  	25,703161  	25,013634  	25,924302  	25,676985  	28,212338  	27,016293  	28,181210  	27,698386  	30,096524  	29,378708  	31,913653  	57,948384  	28,048091  	27,456316  	27,620162  	63,309551  	0,358490  	0,181649  	-4044,960136  	22433,466085  	-0,022137  	-0,049986  	0,309537  	0,156845  	-4,086299  	9334,186838  	143818,141360  	20,859058  	-0,047939  
206,547000  	23,891177  	29,225519  	26,223481  	-242,047242  	70,239080  	64,020070  	0,010631  	0,008470  	0,003963  	0,004379  	0,004333  	-0,000000  	-0,000000  	25,701423  	25,001137  	25,919702  	25,677787  	28,221343  	27,018572  	28,183928  	27,682400  	30,093833  	29,365026  	31,909998  	57,944101  	28,051488  	27,450713  	27,622972  	63,315284  	0,313460  	0,158833  	-3542,272615  	-27100,807521  	-0,102480  	-0,050001  	0,290176  	0,147034  	-3,828262  	9614,342584  	143789,911108  	20,854963  	-0,047952  
207,549000  	23,897812  	29,231980  	26,224495  	657,183579  	70,246338  	64,016059  	0,010633  	0,008474  	0,003961  	0,004376  	0,004372  	-0,000002  	-0,000000  	25,696664  	25,017207  	25,932095  	25,675107  	28,235613  	27,015918  	28,190430  	27,689094  	30,095655  	29,375219  	31,917370  	57,956557  	28,038444  	27,454056  	27,626103  	63,316048  	0,311607  	0,157894  	-3521,221039  	18409,288867  	-0,027552  	-0,050024  	0,320522  	0,162411  	-4,236282  	9623,569097  	143846,915315  	20,863231  	-0,047972  
208,547000  	23,872746  	29,232718  	26,224864  	1256,670793  	70,245342  	64,014505  	0,010621  	0,008559  	0,003963  	0,004423  	0,004378  	0,000001  	-0,000000  	25,699200  	25,015538  	25,929890  	25,667370  	28,213104  	27,023092  	28,183688  	27,677617  	30,099409  	29,376992  	31,911650  	57,942539  	28,049926  	27,437266  	27,629637  	63,309161  	0,349048  	0,176865  	-3963,396787  	25490,871304  	-0,018511  	-0,049990  	0,325627  	0,164997  	-4,304131  	9806,638472  	143580,373164  	20,824573  	-0,047943  
209,547000  	23,865804  	29,232872  	26,226032  	-242,047242  	70,243036  	64,005302  	0,010630  	0,008677  	0,003961  	0,004388  	0,004352  	0,000000  	-0,000000  	25,698397  	25,002741  	25,926757  	25,663314  	28,215266  	27,011700  	28,171619  	27,679780  	30,092386  	29,365599  	31,901690  	57,944008  	28,027740  	27,447285  	27,615035  	63,309058  	0,321225  	0,162767  	-3652,293369  	-27099,728947  	-0,102475  	-0,049999  	0,305401  	0,154749  	-4,041258  	10062,073928  	143776,014877  	20,852948  	-0,047950  
210,547000  	23,832507  	29,226473  	26,225970  	357,439972  	70,245092  	64,006297  	0,010638  	0,008379  	0,003963  	0,004410  	0,004359  	-0,000001  	-0,000000  	25,686010  	24,992781  	25,925289  	25,665829  	28,212477  	27,006180  	28,172286  	27,682070  	30,083431  	29,365238  	31,903552  	57,936343  	28,034687  	27,458212  	27,604314  	63,306359  	0,338487  	0,171514  	-3867,858096  	12437,157831  	-0,036425  	-0,050012  	0,310585  	0,157376  	-4,110554  	9418,539178  	143953,608435  	20,878706  	-0,047961  
211,547000  	23,795186  	29,220658  	26,226432  	1256,670793  	70,244314  	64,023956  	0,010629  	0,008413  	0,003963  	0,004432  	0,004411  	0,000001  	-0,000000  	25,709065  	25,007252  	25,936860  	25,688596  	28,226295  	27,031398  	28,193079  	27,691027  	30,096334  	29,385694  	31,913226  	57,944812  	28,056669  	27,472539  	27,629802  	63,314397  	0,357003  	0,180896  	-4103,281115  	25489,956136  	-0,018511  	-0,049988  	0,351698  	0,178208  	-4,640925  	9492,359768  	143753,348767  	20,849660  	-0,047941  
212,546000  	23,793159  	29,216905  	26,226309  	1256,670793  	70,244812  	64,038631  	0,010632  	0,008449  	0,003961  	0,004373  	0,004332  	0,000000  	-0,000000  	25,711485  	25,016834  	25,943063  	25,678517  	28,231068  	27,024662  	28,194648  	27,692728  	30,102862  	29,386786  	31,923659  	57,944903  	28,063331  	27,471436  	27,630963  	63,315421  	0,308981  	0,156563  	-3550,201434  	25492,639292  	-0,018512  	-0,049994  	0,289425  	0,146654  	-3,810496  	9568,812765  	143821,523623  	20,859548  	-0,047946  
213,549000  	23,797090  	29,195031  	26,226739  	1256,670793  	70,248207  	64,012204  	0,010632  	0,008420  	0,003962  	0,004397  	0,004333  	-0,000001  	-0,000000  	25,695785  	25,004334  	25,923288  	25,666456  	28,214785  	27,019314  	28,181992  	27,672986  	30,091869  	29,371872  	31,908772  	57,927990  	28,037488  	27,465489  	27,612040  	63,296984  	0,328247  	0,166325  	-3753,624493  	25501,943663  	-0,018519  	-0,050014  	0,289646  	0,146766  	-3,831719  	9507,608063  	143811,991147  	20,858166  	-0,047964  
214,547000  	23,822647  	29,177187  	26,226923  	657,183579  	70,248145  	64,001695  	0,010636  	0,008520  	0,003963  	0,004425  	0,004381  	-0,000000  	-0,000000  	25,693661  	25,007781  	25,931051  	25,666918  	28,212561  	27,009825  	28,178070  	27,674956  	30,082339  	29,369466  	31,904404  	57,931616  	28,030049  	27,462023  	27,613250  	63,299920  	0,350856  	0,177781  	-3979,901088  	18403,224384  	-0,027543  	-0,050006  	0,327984  	0,166192  	-4,346153  	9722,796907  	143896,971405  	20,870491  	-0,047957  
215,549000  	23,861811  	29,168696  	26,227016  	-242,047242  	70,244625  	64,003095  	0,010617  	0,008676  	0,003962  	0,004394  	0,004366  	-0,000001  	-0,000000  	25,697970  	25,012157  	25,931205  	25,673876  	28,214591  	27,013134  	28,185441  	27,684304  	30,082823  	29,377641  	31,906099  	57,933421  	28,030776  	27,476566  	27,614023  	63,304699  	0,326060  	0,165217  	-3665,695022  	-27105,234531  	-0,102496  	-0,050010  	0,316162  	0,160201  	-4,186190  	10058,461000  	143487,908147  	20,811162  	-0,047960  
216,546000  	23,868876  	29,167219  	26,228491  	956,927186  	70,240389  	64,005022  	0,010635  	0,008627  	0,003963  	0,004423  	0,004361  	-0,000000  	-0,000000  	25,696287  	25,019054  	25,937401  	25,684112  	28,221712  	27,014216  	28,185087  	27,679280  	30,094394  	29,381611  	31,909522  	57,939419  	28,041276  	27,491435  	27,622650  	63,305680  	0,349386  	0,177036  	-3921,611504  	22439,541022  	-0,022144  	-0,050001  	0,311886  	0,158035  	-4,125502  	9954,252769  	143891,470814  	20,869693  	-0,047953  
217,550000  	23,865374  	29,181371  	26,227876  	-242,047242  	70,233380  	64,009530  	0,010626  	0,008259  	0,003963  	0,004462  	0,004369  	-0,000000  	-0,000000  	25,698862  	25,015707  	25,941515  	25,672847  	28,232973  	27,014402  	28,193506  	27,687262  	30,100282  	29,373997  	31,908343  	57,944562  	28,039799  	27,498876  	27,628636  	63,306966  	0,380677  	0,192892  	-4287,075051  	-27102,727935  	-0,102486  	-0,050005  	0,318451  	0,161362  	-4,204567  	9159,183056  	143692,835198  	20,840884  	-0,047956  
218,549000  	23,853702  	29,200692  	26,229782  	-242,047242  	70,227835  	64,024205  	0,010621  	0,008392  	0,003962  	0,004408  	0,004339  	0,000000  	-0,000000  	25,700660  	25,009240  	25,936916  	25,671124  	28,218596  	27,015241  	28,191400  	27,692021  	30,100549  	29,378160  	31,909822  	57,942202  	28,040842  	27,504412  	27,623126  	63,305328  	0,336904  	0,170712  	-3816,234937  	-27099,423267  	-0,102473  	-0,049998  	0,294899  	0,149428  	-3,880960  	9446,207397  	143592,963094  	20,826399  	-0,047950  
219,548000  	23,831862  	29,210013  	26,229782  	657,183579  	70,227991  	64,014038  	0,010639  	0,008405  	0,003962  	0,004376  	0,004313  	-0,000001  	-0,000000  	25,697096  	25,011542  	25,940001  	25,674348  	28,219329  	27,020024  	28,185361  	27,691208  	30,098691  	29,383716  	31,910946  	57,944814  	28,042964  	27,506010  	27,618899  	63,297712  	0,311261  	0,157718  	-3546,325952  	18404,268653  	-0,027545  	-0,050010  	0,273857  	0,138766  	-3,610034  	9476,019177  	143962,830223  	20,880043  	-0,047960  
220,548000  	23,826640  	29,209459  	26,231073  	57,696365  	70,237647  	64,001229  	0,010630  	0,008409  	0,003964  	0,004391  	0,004372  	0,000000  	-0,000000  	25,702412  	25,008133  	25,935431  	25,673484  	28,224483  	27,016751  	28,183508  	27,690216  	30,093588  	29,376110  	31,904890  	57,948744  	28,033040  	27,500518  	27,618653  	63,290891  	0,323704  	0,164023  	-3691,287660  	1701,076909  	-0,053737  	-0,050000  	0,320543  	0,162422  	-4,240724  	9482,831884  	143773,607044  	20,852599  	-0,047951  
221,549000  	23,816841  	29,197615  	26,230612  	57,696365  	70,242818  	63,987301  	0,010625  	0,008396  	0,003960  	0,004414  	0,004355  	-0,000000  	-0,000000  	25,703445  	25,010698  	25,928966  	25,677814  	28,217130  	27,010434  	28,185918  	27,687645  	30,093548  	29,374049  	31,905202  	57,942391  	28,028440  	27,497130  	27,621469  	63,290631  	0,341752  	0,173168  	-3895,618984  	1701,182248  	-0,053740  	-0,050002  	0,307259  	0,155690  	-4,077417  	9454,747687  	143664,972123  	20,836843  	-0,047953  
222,548000  	23,814998  	29,186355  	26,231657  	657,183579  	70,243317  	63,978906  	0,010629  	0,008490  	0,003961  	0,004372  	0,004319  	-0,000001  	-0,000000  	25,700511  	25,012855  	25,934399  	25,683691  	28,214383  	27,011261  	28,189504  	27,685891  	30,094002  	29,380787  	31,908730  	57,942507  	28,035293  	27,488855  	27,622803  	63,292253  	0,308430  	0,156284  	-3509,628508  	18404,915373  	-0,027546  	-0,050012  	0,278822  	0,141281  	-3,705316  	9658,972531  	143763,954529  	20,851199  	-0,047962  
223,551000  	23,830480  	29,179987  	26,233593  	-242,047242  	70,244220  	63,976575  	0,010632  	0,008467  	0,003962  	0,004428  	0,004374  	-0,000002  	-0,000000  	25,697729  	25,002792  	25,933104  	25,674411  	28,209393  	27,009265  	28,183297  	27,682353  	30,088819  	29,373211  	31,902143  	57,942941  	28,031414  	27,471212  	27,616456  	63,289028  	0,353571  	0,179157  	-4006,923031  	-27110,442755  	-0,102513  	-0,050020  	0,322345  	0,163335  	-4,285908  	9608,302409  	143817,632961  	20,858984  	-0,047969  
224,546000  	23,840309  	29,175680  	26,233471  	-242,047242  	70,243099  	63,984782  	0,010629  	0,008504  	0,003961  	0,004389  	0,004355  	-0,000000  	-0,000000  	25,695420  	25,000223  	25,928253  	25,667714  	28,205951  	27,009925  	28,176468  	27,675890  	30,085291  	29,368560  	31,900496  	57,937266  	28,026725  	27,456304  	27,615999  	63,286862  	0,322011  	0,163166  	-3639,620967  	-27102,464269  	-0,102483  	-0,050004  	0,307375  	0,155749  	-4,080781  	9687,551233  	143746,887867  	20,848723  	-0,047955  
225,548000  	23,801452  	29,175711  	26,234608  	1256,670793  	70,241666  	64,007727  	0,010630  	0,008594  	0,003962  	0,004370  	0,004327  	-0,000000  	-0,000000  	25,704558  	25,009284  	25,935010  	25,681554  	28,221772  	27,021758  	28,183625  	27,681172  	30,087586  	29,380918  	31,907565  	57,943953  	28,038070  	27,447275  	27,627072  	63,289930  	0,306412  	0,155261  	-3488,553971  	25497,777502  	-0,018516  	-0,050006  	0,285281  	0,144554  	-3,772721  	9881,856268  	143775,103996  	20,852816  	-0,047956  
226,548000  	23,792483  	29,185001  	26,234977  	1256,670793  	70,242663  	64,001758  	0,010638  	0,008482  	0,003963  	0,004420  	0,004359  	0,000000  	-0,000000  	25,704162  	25,013095  	25,931775  	25,682670  	28,224063  	27,021068  	28,187057  	27,688692  	30,091709  	29,379164  	31,908270  	57,943494  	28,046285  	27,442534  	27,624983  	63,287033  	0,346918  	0,175786  	-3963,147879  	25494,025957  	-0,018514  	-0,049997  	0,310700  	0,157434  	-4,113462  	9640,919213  	143950,374454  	20,878237  	-0,047949  
227,549000  	23,806858  	29,179925  	26,235714  	1256,670793  	70,247242  	64,005986  	0,010635  	0,008881  	0,003961  	0,004392  	0,004342  	-0,000000  	-0,000000  	25,691096  	25,007853  	25,922721  	25,670425  	28,206714  	27,013451  	28,185372  	27,677242  	30,091378  	29,376903  	31,912793  	57,936111  	28,050926  	27,443688  	27,612589  	63,281387  	0,324286  	0,164318  	-3691,230096  	25496,726030  	-0,018516  	-0,050003  	0,297494  	0,150743  	-3,938848  	10501,555742  	143883,371740  	20,868519  	-0,047954  
228,547000  	23,815090  	29,170696  	26,236206  	57,696365  	70,253285  	64,003001  	0,010624  	0,008304  	0,003960  	0,004397  	0,004354  	-0,000002  	-0,000000  	25,696175  	25,009392  	25,927453  	25,671450  	28,215353  	27,020403  	28,189721  	27,683236  	30,094989  	29,376657  	31,908659  	57,943488  	28,047218  	27,457320  	27,616832  	63,282400  	0,328414  	0,166410  	-3726,071468  	1701,688431  	-0,053765  	-0,050030  	0,306590  	0,155351  	-4,065141  	9256,370592  	143643,308689  	20,833701  	-0,047977  
229,547000  	23,801790  	29,165743  	26,235407  	-242,047242  	70,254282  	64,033128  	0,010625  	0,008424  	0,003963  	0,004415  	0,004408  	-0,000000  	-0,000000  	25,694216  	25,008429  	25,931704  	25,671351  	28,220295  	27,013511  	28,178302  	27,684581  	30,095385  	29,379488  	31,901999  	57,942423  	28,045529  	27,473461  	27,626021  	63,275105  	0,343101  	0,173852  	-3898,780814  	-27100,831222  	-0,102476  	-0,050001  	0,349428  	0,177058  	-4,611570  	9517,017804  	143669,109924  	20,837443  	-0,047952  
230,547000  	23,817640  	29,173188  	26,235469  	-242,047242  	70,253098  	64,041709  	0,010633  	0,008434  	0,003962  	0,004388  	0,004329  	0,000001  	-0,000000  	25,688201  	25,003185  	25,927371  	25,666168  	28,207103  	27,017779  	28,177341  	27,682353  	30,094375  	29,374214  	31,906498  	57,937021  	28,039116  	27,481219  	27,618464  	63,272010  	0,321064  	0,162686  	-3642,641407  	-27097,266229  	-0,102462  	-0,049993  	0,286774  	0,145311  	-3,778759  	9537,914348  	143838,900974  	20,862069  	-0,047946  
231,548000  	23,840217  	29,178910  	26,235192  	657,183579  	70,250357  	64,031946  	0,010630  	0,008436  	0,003962  	0,004401  	0,004328  	-0,000000  	-0,000000  	25,692687  	24,998928  	25,940142  	25,665057  	28,212894  	27,018061  	28,183170  	27,677627  	30,088668  	29,368751  	31,902655  	57,935329  	28,043980  	27,492962  	27,621093  	63,270805  	0,331777  	0,168114  	-3752,330642  	18400,876494  	-0,027540  	-0,050000  	0,286021  	0,144929  	-3,773086  	9542,730641  	143773,091584  	20,852524  	-0,047952  
232,547000  	23,836838  	29,176633  	26,235807  	57,696365  	70,247491  	64,020878  	0,010628  	0,008465  	0,003962  	0,004435  	0,004359  	-0,000000  	-0,000000  	25,697961  	25,009040  	25,934422  	25,675932  	28,228177  	27,021616  	28,187180  	27,689402  	30,089691  	29,373249  	31,914736  	57,946113  	28,046207  	27,510470  	27,628696  	63,286068  	0,358785  	0,181799  	-4058,630849  	1700,886925  	-0,053739  	-0,050002  	0,310578  	0,157372  	-4,102442  	9603,434472  	143729,263378  	20,846167  	-0,047953  
233,549000  	23,825012  	29,179495  	26,236145  	1256,670793  	70,249578  	64,001353  	0,010628  	0,008880  	0,003961  	0,004396  	0,004330  	0,000001  	-0,000000  	25,707837  	25,011384  	25,931311  	25,678988  	28,221263  	27,022961  	28,182564  	27,682265  	30,091449  	29,377718  	31,911655  	57,946687  	28,057052  	27,524459  	27,628989  	63,281664  	0,327275  	0,165833  	-3712,371464  	25490,806783  	-0,018511  	-0,049991  	0,287851  	0,145856  	-3,815421  	10500,229281  	143733,796600  	20,846825  	-0,047943  
234,546000  	23,836623  	29,184417  	26,236145  	657,183579  	70,250139  	64,007323  	0,010637  	0,008596  	0,003964  	0,004383  	0,004397  	-0,000001  	-0,000000  	25,710157  	25,011048  	25,940203  	25,678146  	28,209827  	27,014006  	28,182891  	27,685842  	30,090170  	29,375556  	31,918670  	57,950544  	28,058352  	27,519795  	27,625871  	63,284868  	0,316591  	0,160419  	-3586,682718  	18404,183206  	-0,027545  	-0,050010  	0,340539  	0,172554  	-4,509898  	9885,830700  	143917,723958  	20,873501  	-0,047960  
235,550000  	23,858278  	29,183309  	26,235868  	657,183579  	70,245965  	64,036455  	0,010632  	0,008501  	0,003964  	0,004449  	0,004374  	0,000000  	-0,000000  	25,687035  	24,997368  	25,931224  	25,659253  	28,199027  	27,009101  	28,170861  	27,670895  	30,079848  	29,359255  	31,902431  	57,939566  	28,053323  	27,527420  	27,623602  	63,263152  	0,370150  	0,187558  	-4175,603198  	18399,837185  	-0,027539  	-0,049997  	0,322103  	0,163212  	-4,242995  	9681,078808  	143816,143070  	20,858768  	-0,047949  
236,548000  	23,878429  	29,186263  	26,235684  	57,696365  	70,244594  	64,057596  	0,010634  	0,008683  	0,003964  	0,004407  	0,004347  	-0,000000  	-0,000000  	25,688312  	25,009053  	25,920434  	25,661517  	28,203714  	27,001756  	28,184057  	27,671388  	30,084967  	29,359967  	31,904135  	57,939297  	28,047085  	27,527585  	27,614269  	63,280316  	0,336362  	0,170437  	-3782,191576  	1700,975345  	-0,053742  	-0,050005  	0,301153  	0,152596  	-3,952646  	10074,637464  	143873,359109  	20,867067  	-0,047956  
237,549000  	23,900392  	29,203091  	26,235776  	1256,670793  	70,239859  	64,052497  	0,010634  	0,008457  	0,003962  	0,004427  	0,004374  	-0,000001  	-0,000000  	25,709286  	25,016469  	25,931075  	25,673764  	28,212860  	27,013238  	28,183687  	27,686291  	30,098128  	29,377180  	31,907470  	57,946826  	28,062374  	27,551616  	27,632187  	63,300105  	0,352836  	0,178785  	-3963,590429  	25502,537875  	-0,018520  	-0,050016  	0,322083  	0,163202  	-4,227603  	9587,777982  	143874,107585  	20,867175  	-0,047965  
238,547000  	23,905614  	29,216874  	26,235530  	1256,670793  	70,235124  	64,060892  	0,010623  	0,008729  	0,003962  	0,004463  	0,004395  	0,000000  	-0,000000  	25,688660  	24,998062  	25,925265  	25,665003  	28,213962  	27,012712  	28,180034  	27,685883  	30,083618  	29,365251  	31,898295  	57,936429  	28,050994  	27,551497  	27,618612  	63,284224  	0,382085  	0,193605  	-4299,084596  	25494,861267  	-0,018514  	-0,049999  	0,339253  	0,171902  	-4,443530  	10173,140142  	143635,428509  	20,832558  	-0,047951  
239,550000  	23,898979  	29,229887  	26,236360  	357,439972  	70,228365  	64,061483  	0,010633  	0,008443  	0,003962  	0,004337  	0,004321  	0,000002  	-0,000000  	25,683807  	24,997746  	25,931451  	25,659932  	28,198306  	27,000462  	28,177567  	27,668978  	30,080662  	29,363947  	31,900089  	57,932661  	28,050421  	27,543275  	27,612102  	63,287486  	0,279995  	0,141875  	-3162,057723  	12429,697941  	-0,036404  	-0,049980  	0,280476  	0,142119  	-3,669299  	9555,990304  	143842,586865  	20,862603  	-0,047934  
240,547000  	23,889334  	29,241886  	26,235807  	956,927186  	70,227617  	64,070686  	0,010627  	0,008669  	0,003962  	0,004403  	0,004350  	-0,000001  	-0,000000  	25,682470  	24,999951  	25,926346  	25,666222  	28,215178  	27,012829  	28,172332  	27,677943  	30,077560  	29,371208  	31,901650  	57,936599  	28,045363  	27,547346  	27,614074  	63,283775  	0,333229  	0,168850  	-3778,526860  	22444,037779  	-0,022148  	-0,050013  	0,303715  	0,153894  	-3,966907  	10044,952316  	143719,617925  	20,844768  	-0,047963  
241,548000  	23,838251  	29,247577  	26,235684  	1256,670793  	70,230452  	64,054798  	0,010621  	0,008558  	0,003961  	0,004381  	0,004343  	0,000001  	-0,000000  	25,691371  	25,004991  	25,931191  	25,672507  	28,220123  	27,011286  	28,178499  	27,691100  	30,088493  	29,360233  	31,899729  	57,939668  	28,052360  	27,543944  	27,626771  	63,288810  	0,315173  	0,159700  	-3611,705712  	25491,753338  	-0,018512  	-0,049993  	0,298135  	0,151067  	-3,905868  	9804,607394  	143579,201023  	20,824403  	-0,047945  
242,547000  	23,795063  	29,247701  	26,237221  	657,183579  	70,231137  	64,040496  	0,010626  	0,008338  	0,003960  	0,004371  	0,004295  	0,000001  	-0,000000  	25,687717  	25,003550  	25,927255  	25,669123  	28,204219  	27,009736  	28,170162  	27,675243  	30,085067  	29,364799  	31,900969  	57,940074  	28,052113  	27,541876  	27,621886  	63,284912  	0,307071  	0,155595  	-3547,050048  	18398,476783  	-0,027537  	-0,049993  	0,260054  	0,131771  	-3,415230  	9331,205660  	143680,909011  	20,839154  	-0,047945  
243,549000  	23,791377  	29,235518  	26,237313  	-242,047242  	70,229299  	64,042393  	0,010633  	0,008648  	0,003964  	0,004359  	0,004396  	-0,000001  	-0,000000  	25,695711  	25,002304  	25,926940  	25,670514  	28,207391  	27,014349  	28,169959  	27,682513  	30,086802  	29,371864  	31,904633  	57,940557  	28,068155  	27,552412  	27,622849  	63,293257  	0,297101  	0,150543  	-3426,535968  	-27107,862153  	-0,102502  	-0,050015  	0,339619  	0,172087  	-4,457442  	9998,785796  	143845,947945  	20,863091  	-0,047964  
244,548000  	23,813309  	29,211890  	26,235837  	956,927186  	70,230545  	64,041585  	0,010620  	0,008364  	0,003962  	0,004407  	0,004323  	0,000001  	-0,000000  	25,689997  	25,002934  	25,926525  	25,665525  	28,210730  	27,015273  	28,174709  	27,683055  	30,086094  	29,368583  	31,907124  	57,933007  	28,075293  	27,553294  	27,620860  	63,293328  	0,336721  	0,170619  	-3850,981605  	22434,179225  	-0,022138  	-0,049989  	0,282424  	0,143106  	-3,707998  	9385,860119  	143566,808804  	20,822605  	-0,047942  
245,548000  	23,843534  	29,189278  	26,236114  	57,696365  	70,228458  	64,048082  	0,010625  	0,008731  	0,003962  	0,004385  	0,004317  	0,000001  	-0,000000  	25,690736  	25,010344  	25,928737  	25,669813  	28,214621  	27,021453  	28,179337  	27,687417  	30,095323  	29,368170  	31,911765  	57,940630  	28,078653  	27,550554  	27,621516  	63,299993  	0,318388  	0,161330  	-3605,663066  	1700,604228  	-0,053731  	-0,049994  	0,277257  	0,140488  	-3,635119  	10177,857393  	143660,947300  	20,836259  	-0,047946  
246,548000  	23,854715  	29,185217  	26,235622  	1256,670793  	70,221854  	64,037636  	0,010642  	0,008770  	0,003963  	0,004415  	0,004433  	-0,000001  	-0,000000  	25,698808  	25,007755  	25,924982  	25,667053  	28,213173  	27,016586  	28,181429  	27,686080  	30,095402  	29,371778  	31,907475  	57,936658  	28,077862  	27,535955  	27,621884  	63,301607  	0,342687  	0,173642  	-3869,774028  	25501,297563  	-0,018519  	-0,050014  	0,369351  	0,187153  	-4,845565  	10262,014479  	144027,340371  	20,889400  	-0,047963  
247,548000  	23,839787  	29,192693  	26,236821  	357,439972  	70,212572  	64,039564  	0,010632  	0,008517  	0,003962  	0,004388  	0,004348  	0,000001  	-0,000000  	25,697327  	25,004225  	25,919211  	25,668205  	28,211416  	27,009664  	28,184395  	27,682242  	30,090572  	29,370537  	31,902780  	57,937815  	28,084953  	27,522239  	27,622977  	63,298108  	0,320970  	0,162638  	-3639,769888  	12430,450751  	-0,036406  	-0,049984  	0,301872  	0,152961  	-3,953119  	9716,350658  	143814,977990  	20,858599  	-0,047937  
248,547000  	23,839541  	29,201861  	26,236760  	956,927186  	70,208335  	64,049264  	0,010628  	0,008681  	0,003961  	0,004378  	0,004347  	-0,000000  	-0,000000  	25,696071  	25,006733  	25,923806  	25,678112  	28,214125  	27,010952  	28,190096  	27,680313  	30,092835  	29,372471  	31,909424  	57,945839  	28,093939  	27,524382  	27,623353  	63,297936  	0,312906  	0,158552  	-3554,569620  	22440,675374  	-0,022145  	-0,050005  	0,301326  	0,152684  	-3,937065  	10070,087878  	143742,100446  	20,848029  	-0,047956  
249,547000  	23,838159  	29,208352  	26,236206  	1256,670793  	70,204566  	64,046186  	0,010627  	0,008611  	0,003963  	0,004445  	0,004424  	0,000001  	-0,000000  	25,694929  	25,005830  	25,932398  	25,676102  	28,205230  	27,011017  	28,188911  	27,678998  	30,090898  	29,375476  	31,911677  	57,940462  	28,090450  	27,523348  	27,616328  	63,294580  	0,367131  	0,186028  	-4176,677590  	25488,934061  	-0,018510  	-0,049986  	0,362295  	0,183578  	-4,733143  	9919,213669  	143709,322850  	20,843275  	-0,047940  
250,547000  	23,822002  	29,205214  	26,236083  	1256,670793  	70,200953  	64,038600  	0,010632  	0,008681  	0,003962  	0,004358  	0,004321  	0,000001  	-0,000000  	25,694364  	25,009084  	25,936280  	25,669843  	28,200071  	27,012645  	28,181301  	27,683812  	30,088833  	29,372381  	31,908079  	57,938409  	28,085625  	27,516385  	27,614869  	63,290199  	0,296896  	0,150439  	-3385,836390  	25486,688307  	-0,018508  	-0,049981  	0,280714  	0,142240  	-3,669704  	10071,044345  	143830,484151  	20,860848  	-0,047936  
251,547000  	23,800623  	29,202076  	26,236821  	357,439972  	70,195501  	64,053710  	0,010626  	0,008594  	0,003961  	0,004428  	0,004337  	-0,000001  	-0,000000  	25,698909  	25,013577  	25,935609  	25,671551  	28,214331  	27,016024  	28,181834  	27,685848  	30,091057  	29,372015  	31,912232  	57,941618  	28,081651  	27,518457  	27,620447  	63,289447  	0,353340  	0,179040  	-4043,194383  	12437,719604  	-0,036427  	-0,050016  	0,293380  	0,148658  	-3,822489  	9883,264086  	143698,879493  	20,841760  	-0,047966  
252,549000  	23,774759  	29,200907  	26,236083  	956,927186  	70,195315  	64,046062  	0,010632  	0,008448  	0,003962  	0,004473  	0,004378  	0,000000  	-0,000000  	25,694064  	25,005924  	25,931765  	25,669106  	28,213879  	27,016637  	28,187965  	27,683187  	30,090754  	29,370756  	31,910650  	57,939204  	28,079107  	27,521507  	27,619816  	63,293064  	0,390191  	0,197713  	-4485,296674  	22436,403281  	-0,022141  	-0,049994  	0,325279  	0,164821  	-4,243261  	9567,528751  	143822,519237  	20,859693  	-0,047946  
253,547000  	23,765975  	29,191616  	26,236975  	57,696365  	70,193259  	64,049668  	0,010637  	0,008528  	0,003961  	0,004396  	0,004311  	-0,000001  	-0,000000  	25,692468  	25,003644  	25,926853  	25,662220  	28,206071  	27,016765  	28,186235  	27,685849  	30,096035  	29,368534  	31,906503  	57,937053  	28,084080  	27,523382  	27,625280  	63,297374  	0,327832  	0,166115  	-3768,124498  	1701,078084  	-0,053747  	-0,050011  	0,272907  	0,138284  	-3,556785  	9740,253848  	143920,124730  	20,873849  	-0,047961  
254,548000  	23,771934  	29,181094  	26,237221  	657,183579  	70,194131  	64,036859  	0,010632  	0,008488  	0,003962  	0,004434  	0,004410  	-0,000001  	-0,000000  	25,690811  	25,008796  	25,917068  	25,664383  	28,213859  	27,006657  	28,181050  	27,692977  	30,094828  	29,372729  	31,913441  	57,940674  	28,077631  	27,522286  	27,622527  	63,291195  	0,358251  	0,181529  	-4105,253583  	18406,792079  	-0,027549  	-0,050018  	0,350865  	0,177786  	-4,582991  	9653,141053  	143812,640768  	20,858260  	-0,047967  
255,548000  	23,785756  	29,165220  	26,237313  	-242,047242  	70,186561  	64,015064  	0,010625  	0,008617  	0,003961  	0,004398  	0,004367  	0,000001  	-0,000000  	25,688924  	25,007931  	25,924559  	25,655491  	28,212567  	27,007672  	28,182635  	27,682418  	30,093364  	29,366394  	31,896810  	57,941605  	28,079513  	27,511145  	27,620904  	63,296438  	0,329249  	0,166833  	-3752,193373  	-27093,916605  	-0,102449  	-0,049986  	0,316823  	0,160537  	-4,147887  	9932,092019  	143677,978657  	20,838729  	-0,047940  
256,551000  	23,796261  	29,153222  	26,237497  	956,927186  	70,180020  	64,004680  	0,010633  	0,008379  	0,003961  	0,004405  	0,004327  	-0,000001  	-0,000000  	25,689947  	25,005449  	25,934673  	25,668410  	28,215521  	27,017498  	28,189248  	27,683201  	30,096791  	29,380114  	31,910095  	57,946074  	28,088246  	27,501510  	27,625775  	63,295122  	0,334898  	0,169695  	-3800,604021  	22443,551789  	-0,022148  	-0,050012  	0,285097  	0,144461  	-3,734840  	9419,869885  	143833,117938  	20,861230  	-0,047962  
257,548000  	23,815889  	29,154575  	26,238173  	956,927186  	70,179522  	63,995446  	0,010633  	0,008387  	0,003960  	0,004463  	0,004356  	-0,000000  	-0,000000  	25,678595  	24,988304  	25,915682  	25,666288  	28,191244  	26,992594  	28,166028  	27,666256  	30,073384  	29,365898  	31,897536  	57,928747  	28,070950  	27,475119  	27,609106  	63,278612  	0,382036  	0,193580  	-4320,755128  	22440,350717  	-0,022145  	-0,050004  	0,308546  	0,156343  	-4,047745  	9435,627540  	143844,140305  	20,862829  	-0,047955  
258,548000  	23,805015  	29,155375  	26,237743  	-242,047242  	70,172170  	64,007261  	0,010631  	0,008366  	0,003960  	0,004372  	0,004342  	-0,000000  	-0,000000  	25,683179  	24,999424  	25,920626  	25,672229  	28,211779  	27,004504  	28,185008  	27,688900  	30,083194  	29,371525  	31,903991  	57,936620  	28,092110  	27,475783  	27,621551  	63,287401  	0,307685  	0,155906  	-3487,470485  	-27101,544230  	-0,102478  	-0,050002  	0,297475  	0,150733  	-3,890422  	9391,198507  	143803,270697  	20,856901  	-0,047953  
259,548000  	23,812479  	29,160082  	26,238020  	657,183579  	70,170893  	63,987580  	0,010632  	0,008386  	0,003963  	0,004366  	0,004338  	0,000000  	-0,000000  	25,692064  	24,999596  	25,925452  	25,669394  	28,209392  	27,002253  	28,173938  	27,678192  	30,099313  	29,376813  	31,906095  	57,933543  	28,088675  	27,448109  	27,626452  	63,292733  	0,302819  	0,153440  	-3430,541430  	18400,368418  	-0,027540  	-0,049999  	0,293836  	0,148889  	-3,854290  	9433,491760  	143826,303983  	20,860242  	-0,047951  
260,548000  	23,829927  	29,159590  	26,238020  	1256,670793  	70,170893  	63,962087  	0,010636  	0,008713  	0,003964  	0,004450  	0,004361  	0,000000  	-0,000000  	25,681063  	24,993238  	25,924133  	25,657231  	28,197700  	26,993697  	28,177092  	27,670028  	30,080590  	29,361605  	31,906869  	57,929988  	28,093426  	27,445351  	27,612872  	63,287895  	0,371211  	0,188095  	-4191,226630  	25493,632469  	-0,018513  	-0,049997  	0,311938  	0,158061  	-4,108592  	10139,904323  	143907,082891  	20,871958  	-0,047949  
261,549000  	23,827592  	29,154944  	26,238512  	956,927186  	70,170737  	63,939080  	0,010634  	0,008569  	0,003963  	0,004405  	0,004365  	-0,000001  	-0,000000  	25,695307  	25,006798  	25,921465  	25,663092  	28,212745  	27,012067  	28,174284  	27,673576  	30,086885  	29,367445  	31,900267  	57,944859  	28,103590  	27,452990  	27,617978  	63,299819  	0,335077  	0,169786  	-3781,605449  	22442,663395  	-0,022147  	-0,050010  	0,315656  	0,159945  	-4,172854  	9829,002259  	143859,752382  	20,865093  	-0,047960  
262,548000  	23,848541  	29,158452  	26,237835  	-242,047242  	70,171983  	63,954812  	0,010632  	0,008514  	0,003962  	0,004414  	0,004343  	-0,000001  	-0,000000  	25,692932  	25,011729  	25,922805  	25,662441  	28,214082  	27,012126  	28,180525  	27,686842  	30,087338  	29,361945  	31,916102  	57,945933  	28,110430  	27,474636  	27,636749  	63,299385  	0,341771  	0,173178  	-3844,522456  	-27107,307331  	-0,102499  	-0,050014  	0,297921  	0,150959  	-3,929253  	9709,253559  	143821,806067  	20,859589  	-0,047963  
263,549000  	23,847620  	29,166481  	26,238020  	657,183579  	70,176531  	63,981673  	0,010631  	0,008420  	0,003961  	0,004461  	0,004354  	-0,000000  	-0,000000  	25,695353  	24,995783  	25,922257  	25,660537  	28,201265  	26,996219  	28,178433  	27,674091  	30,083166  	29,366186  	31,903817  	57,937627  	28,103012  	27,480957  	27,626650  	63,292683  	0,380382  	0,192742  	-4286,060845  	18400,970741  	-0,027541  	-0,050001  	0,306386  	0,155248  	-4,026412  	9507,835860  	143791,584588  	20,855206  	-0,047952  
264,547000  	23,870535  	29,181125  	26,238573  	1256,670793  	70,178836  	63,995229  	0,010629  	0,008438  	0,003962  	0,004326  	0,004348  	-0,000001  	-0,000000  	25,684907  	25,000148  	25,920505  	25,658673  	28,205937  	27,002012  	28,179124  	27,678931  	30,086360  	29,379232  	31,909195  	57,945649  	28,112715  	27,478239  	27,627982  	63,312274  	0,270692  	0,137162  	-3045,350560  	25503,026070  	-0,018520  	-0,050018  	0,301950  	0,153000  	-3,960912  	9546,747520  	143757,317102  	20,850236  	-0,047966  
265,549000  	23,857203  	29,192139  	26,239434  	1256,670793  	70,177310  	63,973590  	0,010621  	0,008542  	0,003965  	0,004438  	0,004360  	-0,000001  	-0,000000  	25,693190  	25,003703  	25,927264  	25,666596  	28,203658  	27,014263  	28,178722  	27,679578  	30,098244  	29,375963  	31,906084  	57,954434  	28,115526  	27,473402  	27,632782  	63,316575  	0,361362  	0,183105  	-4084,057525  	25500,147306  	-0,018518  	-0,050011  	0,311172  	0,157673  	-4,095154  	9770,724969  	143582,463248  	20,824876  	-0,047961  
266,547000  	23,858309  	29,196138  	26,239557  	657,183579  	70,178494  	63,958667  	0,010634  	0,008573  	0,003963  	0,004369  	0,004359  	0,000000  	-0,000000  	25,688527  	24,997708  	25,923639  	25,664667  	28,200703  	27,005480  	28,174512  	27,672020  	30,082990  	29,367499  	31,903623  	57,947565  	28,108936  	27,466255  	27,622912  	63,312876  	0,305891  	0,154997  	-3459,009451  	18399,760170  	-0,027539  	-0,049997  	0,310707  	0,157437  	-4,099637  	9836,235189  	143857,125656  	20,864712  	-0,047949  
267,548000  	23,844947  	29,197061  	26,239372  	657,183579  	70,179459  	63,957174  	0,010633  	0,008411  	0,003964  	0,004393  	0,004359  	-0,000001  	-0,000000  	25,685685  	25,002928  	25,913599  	25,651489  	28,199717  	26,995412  	28,178741  	27,677788  	30,077195  	29,365053  	31,890237  	57,944389  	28,103127  	27,450263  	27,619108  	63,314021  	0,324738  	0,164547  	-3681,951029  	18404,854706  	-0,027546  	-0,050013  	0,310671  	0,157419  	-4,100780  	9488,127826  	143835,193900  	20,861531  	-0,047962  
268,547000  	23,847589  	29,197615  	26,240233  	1256,670793  	70,179023  	63,967745  	0,010626  	0,008465  	0,003960  	0,004409  	0,004409  	-0,000000  	-0,000000  	25,689020  	24,998349  	25,918047  	25,659148  	28,193559  	26,992665  	28,181792  	27,672677  	30,083774  	29,368439  	31,897855  	57,949863  	28,115906  	27,444050  	27,622394  	63,314371  	0,337981  	0,171258  	-3830,616570  	25497,137982  	-0,018516  	-0,050005  	0,349955  	0,177325  	-4,611161  	9604,161019  	143683,443943  	20,839522  	-0,047955  
269,548000  	23,859415  	29,194938  	26,239557  	1256,670793  	70,181889  	63,959226  	0,010622  	0,008381  	0,003961  	0,004327  	0,004314  	0,000001  	-0,000000  	25,690879  	24,997552  	25,921029  	25,656442  	28,204676  	27,003712  	28,175083  	27,673832  	30,083091  	29,365467  	31,904207  	57,950070  	28,111297  	27,440672  	27,622330  	63,320729  	0,271576  	0,137610  	-3069,647351  	25491,732534  	-0,018512  	-0,049993  	0,274896  	0,139292  	-3,628783  	9422,191723  	143598,089447  	20,827142  	-0,047945  
270,547000  	23,900023  	29,189955  	26,239864  	1256,670793  	70,184256  	63,958107  	0,010633  	0,008380  	0,003963  	0,004409  	0,004332  	-0,000001  	-0,000000  	25,688557  	24,997959  	25,920486  	25,665709  	28,208181  	27,006771  	28,178580  	27,678664  	30,088940  	29,368675  	31,905073  	57,947109  	28,120262  	27,434693  	27,627838  	63,329826  	0,338118  	0,171327  	-3789,112773  	25497,919123  	-0,018517  	-0,050006  	0,289320  	0,146601  	-3,821326  	9421,451027  	143833,555726  	20,861294  	-0,047957  
271,549000  	23,929604  	29,191154  	26,239956  	357,439972  	70,184007  	63,948283  	0,010626  	0,008391  	0,003961  	0,004399  	0,004365  	-0,000000  	-0,000000  	25,688176  	25,004691  	25,924185  	25,666919  	28,213528  	27,000064  	28,181842  	27,679099  	30,094966  	29,366297  	31,909162  	57,944728  	28,128615  	27,428968  	27,631143  	63,330221  	0,329711  	0,167067  	-3675,062501  	12434,271734  	-0,036418  	-0,050002  	0,315157  	0,159692  	-4,168978  	9445,126419  	143682,638979  	20,839405  	-0,047953  
272,547000  	23,945701  	29,201245  	26,240571  	956,927186  	70,187745  	63,941381  	0,010619  	0,008445  	0,003961  	0,004385  	0,004295  	-0,000000  	-0,000000  	25,686056  	24,995299  	25,918876  	25,656390  	28,208101  	26,994908  	28,176820  	27,669657  	30,084995  	29,357458  	31,905182  	57,939334  	28,121033  	27,416189  	27,621845  	63,323674  	0,318952  	0,161615  	-3551,082210  	22439,457579  	-0,022144  	-0,050002  	0,259609  	0,131546  	-3,440027  	9561,421368  	143533,508688  	20,817775  	-0,047953  
273,549000  	23,909085  	29,220935  	26,241401  	1256,670793  	70,198772  	63,937059  	0,010635  	0,008440  	0,003961  	0,004423  	0,004379  	-0,000000  	-0,000000  	25,687077  	24,989411  	25,915883  	25,659427  	28,204333  	27,000293  	28,169606  	27,668437  	30,080802  	29,356837  	31,901148  	57,937662  	28,115614  	27,418094  	27,621495  	63,318041  	0,349457  	0,177072  	-3932,402766  	25496,077060  	-0,018515  	-0,050002  	0,326363  	0,165371  	-4,335205  	9549,665736  	143892,346389  	20,869820  	-0,047954  
274,548000  	23,860244  	29,235333  	26,240848  	1256,670793  	70,205687  	63,941163  	0,010634  	0,008350  	0,003962  	0,004375  	0,004326  	0,000000  	-0,000000  	25,684845  	24,988285  	25,920925  	25,659380  	28,203403  	26,999611  	28,169035  	27,676783  	30,082078  	29,358775  	31,900858  	57,936515  	28,112453  	27,425977  	27,626284  	63,318726  	0,310806  	0,157488  	-3539,114820  	25493,012575  	-0,018513  	-0,049996  	0,284234  	0,144023  	-3,777282  	9355,933025  	143861,086929  	20,865287  	-0,047948  
275,549000  	23,839142  	29,238009  	26,240294  	1256,670793  	70,207432  	63,938800  	0,010630  	0,008473  	0,003961  	0,004408  	0,004366  	-0,000001  	-0,000000  	25,680881  	24,989079  	25,922671  	25,653944  	28,204226  	26,996508  	28,175208  	27,673262  	30,081375  	29,359964  	31,897121  	57,935565  	28,109999  	27,435351  	27,621298  	63,319186  	0,337110  	0,170816  	-3855,619429  	25498,297259  	-0,018517  	-0,050007  	0,316002  	0,160120  	-4,202207  	9620,891413  	143780,661076  	20,853622  	-0,047958  
276,546000  	23,844916  	29,223796  	26,240848  	1256,670793  	70,211419  	63,944459  	0,010630  	0,008621  	0,003962  	0,004431  	0,004385  	0,000001  	-0,000000  	25,684775  	24,995614  	25,920750  	25,658642  	28,207662  	27,002884  	28,177898  	27,669135  	30,086218  	29,364205  	31,895173  	57,939910  	28,110437  	27,451879  	27,616913  	63,316671  	0,355517  	0,180143  	-4051,092598  	25490,746053  	-0,018511  	-0,049991  	0,331397  	0,167921  	-4,405764  	9941,828600  	143783,301925  	20,854005  	-0,047943  
277,549000  	23,843166  	29,204353  	26,240417  	57,696365  	70,211699  	63,947506  	0,010622  	0,008627  	0,003961  	0,004395  	0,004312  	-0,000000  	-0,000000  	25,686766  	24,996084  	25,919130  	25,659014  	28,199671  	27,005010  	28,176020  	27,676436  	30,085762  	29,365458  	31,893460  	57,941007  	28,110373  	27,461729  	27,617567  	63,319864  	0,326765  	0,165574  	-3711,222047  	1700,573002  	-0,053737  	-0,050001  	0,273361  	0,138514  	-3,632604  	9954,547067  	143611,724419  	20,829120  	-0,047952  
278,548000  	23,848940  	29,193339  	26,240540  	657,183579  	70,211699  	63,953537  	0,010630  	0,008594  	0,003964  	0,004454  	0,004395  	-0,000000  	-0,000000  	25,688955  	25,004179  	25,920949  	25,660538  	28,199058  	27,007196  	28,175775  	27,680093  	30,082726  	29,363890  	31,894972  	57,939326  	28,115864  	27,476797  	27,621221  	63,326508  	0,374152  	0,189585  	-4236,104553  	18402,421456  	-0,027543  	-0,050006  	0,339103  	0,171826  	-4,501879  	9882,647900  	143772,759713  	20,852476  	-0,047956  
279,551000  	23,860644  	29,194169  	26,240448  	-242,047242  	70,215313  	63,977196  	0,010628  	0,008497  	0,003961  	0,004400  	0,004368  	-0,000000  	-0,000000  	25,690374  	24,997388  	25,918236  	25,665781  	28,199892  	27,005464  	28,171028  	27,680356  	30,083999  	29,360496  	31,903647  	57,936455  	28,112796  	27,488602  	27,617700  	63,323723  	0,330784  	0,167611  	-3737,481975  	-27102,241033  	-0,102479  	-0,050003  	0,317335  	0,160796  	-4,199418  	9674,339677  	143733,598889  	20,846796  	-0,047954  
280,548000  	23,867709  	29,197861  	26,240387  	-242,047242  	70,216310  	63,984223  	0,010632  	0,008424  	0,003962  	0,004387  	0,004356  	-0,000001  	-0,000000  	25,682678  	24,984040  	25,910828  	25,662134  	28,194598  	26,999712  	28,169200  	27,666059  	30,080477  	29,361602  	31,893186  	57,930566  	28,106823  	27,499304  	27,602612  	63,311337  	0,319805  	0,162048  	-3611,140479  	-27105,532168  	-0,102492  	-0,050010  	0,308055  	0,156094  	-4,072668  	9516,872777  	143821,763700  	20,859583  	-0,047960  
281,550000  	23,892620  	29,204014  	26,239495  	1256,670793  	70,216559  	64,001043  	0,010628  	0,008273  	0,003962  	0,004422  	0,004376  	-0,000001  	-0,000000  	25,699649  	24,999657  	25,924561  	25,671490  	28,210407  	27,010925  	28,185792  	27,676069  	30,092586  	29,367545  	31,904045  	57,941329  	28,118145  	27,499863  	27,617630  	63,328265  	0,348233  	0,176452  	-3918,290961  	25498,812284  	-0,018517  	-0,050008  	0,324112  	0,164230  	-4,273563  	9190,803069  	143738,132111  	20,847454  	-0,047959  
282,548000  	23,909331  	29,210782  	26,238635  	1256,670793  	70,220235  	64,005706  	0,010630  	0,008468  	0,003961  	0,004398  	0,004293  	0,000000  	-0,000000  	25,683405  	24,986540  	25,919082  	25,664498  	28,195631  	26,997353  	28,165428  	27,669679  	30,077946  	29,361458  	31,892523  	57,933340  	28,106986  	27,493889  	27,612725  	63,310142  	0,328758  	0,166584  	-3692,237545  	25495,038952  	-0,018514  	-0,050000  	0,258544  	0,131006  	-3,408491  	9610,374519  	143778,796948  	20,853351  	-0,047951  
283,547000  	23,916519  	29,219274  	26,238266  	357,439972  	70,227648  	63,985342  	0,010631  	0,008366  	0,003963  	0,004453  	0,004408  	0,000000  	-0,000000  	25,695159  	24,999132  	25,930666  	25,668312  	28,210971  	27,008043  	28,186758  	27,670062  	30,080340  	29,361070  	31,902129  	57,945938  	28,123746  	27,506959  	27,618642  	63,319458  	0,373635  	0,189323  	-4197,271672  	12433,404482  	-0,036415  	-0,049997  	0,349184  	0,176934  	-4,623993  	9391,162428  	143788,152896  	20,854708  	-0,047949  
284,665000  	23,913693  	29,227888  	26,236421  	956,927186  	70,231885  	63,977196  	0,010630  	0,008625  	0,003963  	0,004358  	0,004399  	-0,000000  	-0,000000  	25,702541  	25,006223  	25,930256  	25,668971  	28,221085  	27,019486  	28,184795  	27,673076  	30,097616  	29,367956  	31,910444  	57,946128  	28,126222  	27,509399  	27,626954  	63,328274  	0,296592  	0,150285  	-3338,986772  	22439,885912  	-0,022144  	-0,050003  	0,342585  	0,173590  	-4,545597  	9948,983003  	143783,513758  	20,854036  	-0,047954  
285,547000  	23,891300  	29,234195  	26,234178  	1256,670793  	70,236962  	63,978191  	0,010626  	0,008608  	0,003964  	0,004419  	0,004319  	-0,000000  	-0,000000  	25,685873  	24,997395  	25,917031  	25,654443  	28,205423  	27,007921  	28,179627  	27,664668  	30,083240  	29,355225  	31,900248  	57,926356  	28,115898  	27,500919  	27,620058  	63,316650  	0,346032  	0,175337  	-3916,628307  	25496,872868  	-0,018516  	-0,050004  	0,278989  	0,141366  	-3,704188  	9912,291308  	143692,312677  	20,840808  	-0,047955  
286,549000  	23,886078  	29,236779  	26,234546  	1256,670793  	70,242320  	63,983912  	0,010638  	0,008460  	0,003961  	0,004400  	0,004362  	0,000000  	-0,000000  	25,695746  	24,997089  	25,930395  	25,677325  	28,215447  	27,022866  	28,190361  	27,686403  	30,093025  	29,374279  	31,914480  	57,938798  	28,127973  	27,511676  	27,612921  	63,320673  	0,330518  	0,167476  	-3746,491438  	25494,502903  	-0,018514  	-0,049999  	0,312579  	0,158386  	-4,149930  	9593,002471  	143942,381296  	20,877077  	-0,047950  
287,546000  	23,861473  	29,236317  	26,233348  	1256,670793  	70,241822  	63,997187  	0,010632  	0,008705  	0,003961  	0,004371  	0,004334  	-0,000001  	-0,000000  	25,703086  	25,010431  	25,927851  	25,670632  	28,217738  	27,015923  	28,182506  	27,675811  	30,092558  	29,377486  	31,922205  	57,937161  	28,130896  	27,507697  	27,622058  	63,318366  	0,307362  	0,155742  	-3499,736251  	25503,411849  	-0,018520  	-0,050018  	0,290470  	0,147183  	-3,847927  	10122,199068  	143810,896678  	20,858007  	-0,047967  
288,570000  	23,850783  	29,235518  	26,230950  	1256,670793  	70,242195  	64,004027  	0,010631  	0,008566  	0,003962  	0,004464  	0,004372  	0,000000  	-0,000000  	25,695681  	24,995715  	25,928668  	25,666802  	28,213917  	27,008528  	28,176443  	27,673313  	30,078386  	29,359997  	31,906823  	57,943001  	28,125173  	27,492914  	27,612798  	63,310636  	0,382345  	0,193737  	-4361,541328  	25493,773562  	-0,018513  	-0,049997  	0,320849  	0,162576  	-4,245961  	9823,078813  	143803,306002  	20,856906  	-0,047949  
289,547000  	23,847712  	29,227180  	26,229813  	1256,670793  	70,244874  	64,027625  	0,010627  	0,008370  	0,003961  	0,004301  	0,004316  	0,000000  	-0,000000  	25,694778  	25,006177  	25,931059  	25,671544  	28,218225  	27,021816  	28,192734  	27,682124  	30,085422  	29,373452  	31,898098  	57,935319  	28,133537  	27,496035  	27,606201  	63,300136  	0,250722  	0,127043  	-2857,277701  	25495,330125  	-0,018514  	-0,050000  	0,276918  	0,140316  	-3,652324  	9400,582073  	143710,664458  	20,843470  	-0,047951  
290,550000  	23,831555  	29,219797  	26,229382  	1256,670793  	70,245684  	64,051192  	0,010634  	0,008630  	0,003961  	0,004434  	0,004381  	-0,000001  	-0,000001  	25,703959  	25,010899  	25,943143  	25,686693  	28,222372  	27,029384  	28,190028  	27,692936  	30,098525  	29,381068  	31,916316  	57,939142  	28,139309  	27,493693  	27,625873  	63,312237  	0,358160  	0,181482  	-4088,322133  	25503,726950  	-0,018521  	-0,050018  	0,327699  	0,166048  	-4,306277  	9961,063353  	143868,430466  	20,866352  	-0,047967  
291,547000  	23,818469  	29,219797  	26,227446  	1256,670793  	70,243597  	64,034589  	0,010632  	0,008508  	0,003962  	0,004380  	0,004398  	-0,000001  	-0,000000  	25,707348  	25,009280  	25,944297  	25,680683  	28,230341  	27,024453  	28,194678  	27,686883  	30,097443  	29,382053  	31,914806  	57,941031  	28,141878  	27,498886  	27,623749  	63,308877  	0,314672  	0,159447  	-3600,638724  	25500,488768  	-0,018518  	-0,050011  	0,341617  	0,173100  	-4,499685  	9697,761096  	143821,460073  	20,859539  	-0,047961  
292,548000  	23,821848  	29,212659  	26,226585  	1256,670793  	70,240482  	64,039688  	0,010628  	0,008604  	0,003962  	0,004352  	0,004314  	-0,000000  	-0,000000  	25,696300  	25,004240  	25,928548  	25,674557  	28,208775  	27,011539  	28,188475  	27,677381  	30,090681  	29,371427  	31,907836  	57,937721  	28,138047  	27,494464  	27,615499  	63,292158  	0,291702  	0,147807  	-3331,299009  	25497,783315  	-0,018516  	-0,050005  	0,275213  	0,139452  	-3,620230  	9904,587927  	143726,170619  	20,845719  	-0,047956  
293,548000  	23,875265  	29,197800  	26,227169  	1256,670793  	70,238862  	64,044787  	0,010634  	0,008404  	0,003961  	0,004455  	0,004380  	0,000001  	-0,000000  	25,702862  	25,008657  	25,934963  	25,674629  	28,219628  	27,020626  	28,190662  	27,686372  	30,087375  	29,383252  	31,912906  	57,937345  	28,138573  	27,500090  	27,616642  	63,287541  	0,375364  	0,190200  	-4232,437178  	25489,648474  	-0,018510  	-0,049987  	0,327476  	0,165934  	-4,303051  	9473,284898  	143855,197977  	20,864432  	-0,047941  
294,549000  	23,908809  	29,196200  	26,226063  	1256,670793  	70,237243  	64,045595  	0,010627  	0,008794  	0,003961  	0,004303  	0,004306  	0,000001  	-0,000000  	25,696928  	25,012296  	25,927112  	25,679666  	28,222390  	27,018843  	28,186011  	27,683392  	30,090793  	29,380387  	31,911601  	57,931752  	28,135828  	27,505683  	27,623946  	63,289170  	0,252447  	0,127917  	-2827,680302  	25487,494269  	-0,018509  	-0,049983  	0,268435  	0,136018  	-3,525864  	10313,031250  	143722,103429  	20,845129  	-0,047936  
295,571000  	23,891945  	29,205337  	26,226155  	1256,670793  	70,233909  	64,043730  	0,010620  	0,008774  	0,003960  	0,004437  	0,004311  	-0,000001  	-0,000000  	25,705393  	25,018847  	25,935308  	25,678949  	28,223128  	27,021699  	28,189048  	27,686965  	30,093099  	29,379507  	31,910847  	57,936180  	28,134667  	27,508663  	27,620732  	63,288764  	0,360332  	0,182583  	-4055,962688  	25501,721727  	-0,018519  	-0,050014  	0,272647  	0,138152  	-3,580337  	10271,150438  	143554,804945  	20,820864  	-0,047963  
296,555000  	23,872347  	29,226934  	26,225602  	57,696365  	70,230794  	64,044165  	0,010632  	0,008688  	0,003961  	0,004387  	0,004381  	0,000000  	-0,000000  	25,711365  	25,023125  	25,941086  	25,679122  	28,228672  	27,024717  	28,199569  	27,693690  	30,099074  	29,379165  	31,913601  	57,941900  	28,140595  	27,508262  	27,618785  	63,292822  	0,320575  	0,162438  	-3636,433464  	1701,302046  	-0,053735  	-0,049997  	0,328258  	0,166331  	-4,308140  	10084,832470  	143818,226093  	20,859070  	-0,047949  
297,548000  	23,870135  	29,236933  	26,225294  	1256,670793  	70,227243  	64,068913  	0,010632  	0,008318  	0,003962  	0,004396  	0,004357  	-0,000002  	-0,000000  	25,707319  	25,019602  	25,933085  	25,678034  	28,222041  	27,019460  	28,193076  	27,692080  	30,099148  	29,380038  	31,911812  	57,938743  	28,142773  	27,497628  	27,617651  	63,288112  	0,327326  	0,165859  	-3721,476161  	25505,569526  	-0,018522  	-0,050022  	0,309331  	0,156740  	-4,041181  	9286,699516  	143820,012549  	20,859329  	-0,047970  
298,548000  	23,894832  	29,240440  	26,224679  	1256,670793  	70,224938  	64,083340  	0,010625  	0,008491  	0,003962  	0,004399  	0,004375  	0,000001  	-0,000000  	25,698730  	25,016858  	25,929585  	25,672782  	28,215311  	27,016794  	28,185795  	27,685420  	30,092063  	29,380188  	31,910969  	57,931645  	28,140088  	27,478870  	27,618296  	63,279737  	0,329515  	0,166968  	-3731,565446  	25491,452317  	-0,018512  	-0,049991  	0,323424  	0,163882  	-4,213831  	9659,944562  	143659,923442  	20,836110  	-0,047944  
299,547000  	23,881286  	29,239148  	26,225325  	357,439972  	70,222446  	64,079515  	0,010628  	0,008369  	0,003961  	0,004337  	0,004305  	-0,000000  	-0,000000  	25,696858  	25,018333  	25,936127  	25,669727  	28,217745  	27,024124  	28,188959  	27,686816  	30,092629  	29,384706  	31,913158  	57,932209  	28,139874  	27,474007  	27,625344  	63,274050  	0,279281  	0,141514  	-3169,949041  	12435,739450  	-0,036420  	-0,050005  	0,267773  	0,135682  	-3,489511  	9397,830815  	143738,125050  	20,847452  	-0,047956  
300,547000  	23,867094  	29,241424  	26,224649  	956,927186  	70,217462  	64,054270  	0,010633  	0,008623  	0,003963  	0,004404  	0,004376  	0,000000  	-0,000000  	25,699494  	25,014329  	25,939320  	25,670486  	28,216847  	27,025873  	28,193686  	27,691992  	30,099005  	29,382486  	31,915979  	57,934328  	28,142927  	27,472423  	27,623428  	63,267556  	0,333720  	0,169098  	-3799,498574  	22438,888351  	-0,022143  	-0,049999  	0,324374  	0,164363  	-4,241048  	9945,928250  	143847,070659  	20,863254  	-0,047951  
301,549000  	23,883221  	29,239609  	26,225602  	956,927186  	70,212167  	64,024329  	0,010625  	0,008421  	0,003957  	0,004400  	0,004312  	-0,000000  	-0,000000  	25,699610  	25,012728  	25,935902  	25,670073  	28,216747  	27,015426  	28,189322  	27,692324  	30,099557  	29,374622  	31,915572  	57,931844  	28,143244  	27,459504  	27,616263  	63,264073  	0,330985  	0,167712  	-3755,771002  	22440,494947  	-0,022144  	-0,050004  	0,272988  	0,138325  	-3,583455  	9508,764737  	143680,005191  	20,839023  	-0,047954  
302,548000  	23,882607  	29,228780  	26,225171  	357,439972  	70,209675  	64,009903  	0,010628  	0,008406  	0,003963  	0,004391  	0,004408  	-0,000001  	-0,000000  	25,705710  	25,019607  	25,935645  	25,671974  	28,226021  	27,016472  	28,188435  	27,691093  	30,101652  	29,380890  	31,915956  	57,937594  	28,147622  	27,454569  	27,619833  	63,270690  	0,323241  	0,163789  	-3660,909232  	12437,275070  	-0,036425  	-0,050012  	0,349639  	0,177165  	-4,598488  	9477,547969  	143744,451790  	20,848370  	-0,047962  
303,549000  	23,883897  	29,225088  	26,226554  	1256,670793  	70,204940  	64,002721  	0,010620  	0,008473  	0,003963  	0,004406  	0,004386  	0,000000  	-0,000000  	25,710200  	25,018482  	25,938771  	25,676843  	28,229112  	27,029631  	28,195840  	27,688139  	30,104352  	29,388912  	31,919128  	57,941810  	28,153980  	27,461952  	27,625172  	63,272448  	0,335433  	0,169966  	-3795,444321  	25494,957640  	-0,018514  	-0,049999  	0,332253  	0,168355  	-4,371534  	9622,702475  	143561,152868  	20,821785  	-0,047950  
304,548000  	23,886600  	29,225950  	26,226186  	57,696365  	70,202884  	63,996006  	0,010637  	0,008389  	0,003960  	0,004387  	0,004299  	-0,000000  	-0,000000  	25,699918  	25,013064  	25,939623  	25,675777  	28,222457  	27,024150  	28,188378  	27,685235  	30,099472  	29,384543  	31,916320  	57,929783  	28,146305  	27,461784  	27,625003  	63,258510  	0,320335  	0,162316  	-3623,362604  	1701,522637  	-0,053743  	-0,050005  	0,263280  	0,133406  	-3,466638  	9439,707382  	143924,191920  	20,874439  	-0,047956  
305,547000  	23,922202  	29,225642  	26,226155  	1256,670793  	70,197651  	63,985342  	0,010632  	0,008672  	0,003963  	0,004449  	0,004373  	0,000000  	-0,000000  	25,698167  	25,015787  	25,939658  	25,677315  	28,224267  	27,017687  	28,187579  	27,689899  	30,103390  	29,382335  	31,918830  	57,929251  	28,145916  	27,454215  	27,621118  	63,257127  	0,370052  	0,187508  	-4157,555375  	25493,975453  	-0,018513  	-0,049997  	0,321311  	0,162811  	-4,234444  	10051,744507  	143811,461565  	20,858089  	-0,047949  
306,551000  	23,947697  	29,225703  	26,225848  	1256,670793  	70,196218  	63,979062  	0,010620  	0,008605  	0,003961  	0,004333  	0,004335  	-0,000001  	-0,000000  	25,703414  	25,013675  	25,937635  	25,684530  	28,228981  	27,032707  	28,192648  	27,696769  	30,101486  	29,382965  	31,921269  	57,934068  	28,152504  	27,454124  	27,627156  	63,258706  	0,276055  	0,139879  	-3086,621147  	25498,497997  	-0,018517  	-0,050007  	0,291350  	0,147629  	-3,842586  	9907,346260  	143568,792971  	20,822893  	-0,047957  
307,548000  	23,945393  	29,232256  	26,226216  	1256,670793  	70,193788  	63,978471  	0,010633  	0,008522  	0,003963  	0,004417  	0,004415  	-0,000001  	-0,000000  	25,703808  	25,005941  	25,941379  	25,680475  	28,226822  	27,025254  	28,190907  	27,700269  	30,100432  	29,382931  	31,914622  	57,939701  	28,149550  	27,440619  	27,634508  	63,248357  	0,344508  	0,174565  	-3858,467142  	25498,891199  	-0,018517  	-0,050008  	0,354965  	0,179863  	-4,680221  	9727,567924  	143843,744884  	20,862771  	-0,047958  
308,549000  	23,944288  	29,249362  	26,227753  	57,696365  	70,187745  	63,984938  	0,010624  	0,008402  	0,003963  	0,004380  	0,004374  	0,000001  	-0,000000  	25,701932  	25,016501  	25,946531  	25,679174  	28,223022  	27,023602  	28,193561  	27,697608  	30,100238  	29,384721  	31,918899  	57,929372  	28,152038  	27,434383  	27,623451  	63,251500  	0,314667  	0,159444  	-3536,393460  	1701,004534  	-0,053729  	-0,049991  	0,322387  	0,163356  	-4,242125  	9469,324615  	143657,247287  	20,835722  	-0,047944  
309,548000  	23,946684  	29,263606  	26,228184  	57,696365  	70,190081  	64,008224  	0,010619  	0,008498  	0,003963  	0,004405  	0,004371  	-0,000002  	-0,000000  	25,713411  	25,030229  	25,945072  	25,683440  	28,230010  	27,027857  	28,209070  	27,700264  	30,102641  	29,390295  	31,931248  	57,944014  	28,154359  	27,432922  	27,631737  	63,263205  	0,334501  	0,169494  	-3767,692760  	1701,894720  	-0,053758  	-0,050021  	0,320437  	0,162368  	-4,202236  	9676,297180  	143545,336019  	20,819491  	-0,047970  
310,547000  	23,971995  	29,274067  	26,229044  	1256,670793  	70,195564  	64,008287  	0,010636  	0,008417  	0,003963  	0,004420  	0,004394  	0,000001  	-0,000000  	25,687770  	25,015772  	25,933203  	25,678613  	28,227273  	27,023685  	28,192467  	27,685820  	30,097576  	29,381497  	31,915231  	57,932193  	28,140529  	27,423483  	27,617311  	63,243913  	0,347047  	0,175851  	-3898,082515  	25491,775932  	-0,018512  	-0,049992  	0,338704  	0,171624  	-4,445679  	9500,884494  	143907,033463  	20,871951  	-0,047945  
311,549000  	23,968493  	29,277758  	26,229966  	1256,670793  	70,197557  	64,002846  	0,010631  	0,008363  	0,003962  	0,004338  	0,004301  	-0,000000  	-0,000000  	25,707656  	25,008684  	25,935756  	25,686966  	28,225056  	27,018010  	28,185768  	27,686510  	30,096502  	29,379430  	31,910392  	57,933002  	28,130723  	27,425435  	27,619410  	63,245483  	0,280434  	0,142098  	-3154,142833  	25497,681320  	-0,018516  	-0,050005  	0,264904  	0,134229  	-3,481197  	9385,008354  	143803,447224  	20,856927  	-0,047956  
312,659000  	23,930526  	29,284404  	26,230458  	57,696365  	70,201794  	63,999301  	0,010631  	0,008527  	0,003963  	0,004425  	0,004462  	-0,000001  	-0,000000  	25,701796  	25,017213  	25,934901  	25,672613  	28,221554  	27,024534  	28,192947  	27,686761  	30,094989  	29,379460  	31,915393  	57,927337  	28,123599  	27,436422  	27,613608  	63,258123  	0,350609  	0,177656  	-3976,573831  	1701,400483  	-0,053746  	-0,050009  	0,392199  	0,198730  	-5,160495  	9738,227723  	143799,944922  	20,856419  	-0,047959  
313,548000  	23,884327  	29,292280  	26,232641  	-242,047242  	70,202697  	63,984534  	0,010637  	0,008609  	0,003961  	0,004372  	0,004283  	0,000001  	-0,000000  	25,710245  	25,020131  	25,946265  	25,677064  	28,220475  	27,018238  	28,194937  	27,699026  	30,110899  	29,395151  	31,922100  	57,938405  	28,138380  	27,444308  	27,629545  	63,255268  	0,307818  	0,155973  	-3526,512555  	-27095,884214  	-0,102458  	-0,049990  	0,250284  	0,126821  	-3,301508  	9914,745439  	143926,218454  	20,874733  	-0,047943  
314,575000  	23,876770  	29,281327  	26,233317  	357,439972  	70,197526  	63,979621  	0,010631  	0,008649  	0,003963  	0,004408  	0,004404  	-0,000001  	-0,000000  	25,695831  	25,011909  	25,933854  	25,678369  	28,214492  	27,017545  	28,193141  	27,698562  	30,095672  	29,386088  	31,915411  	57,935946  	28,131005  	27,419475  	27,617308  	63,260992  	0,337067  	0,170794  	-3859,180695  	12437,296063  	-0,036426  	-0,050014  	0,346493  	0,175570  	-4,570415  	10001,424570  	143789,868742  	20,854957  	-0,047963  
315,550000  	23,864053  	29,258438  	26,233040  	1256,670793  	70,196997  	63,990099  	0,010627  	0,008480  	0,003961  	0,004376  	0,004349  	0,000001  	-0,000000  	25,706911  	25,019222  	25,949091  	25,697151  	28,234407  	27,027911  	28,204084  	27,707498  	30,109463  	29,392538  	31,927920  	57,933292  	28,138876  	27,425566  	27,620323  	63,276009  	0,310971  	0,157572  	-3553,710444  	25491,144373  	-0,018511  	-0,049991  	0,302990  	0,153527  	-3,989515  	9635,855314  	143711,808355  	20,843636  	-0,047944  
