06/22/2020 14:45:53
Tempo T_f_e T_f_s AR AR T_q_e T_q_s Corrente_P_f Corrente_P_q Corrente_P_RESERVA Corrente_eletromag_f Corrente_eletromag_q AR AR T_1 T_2 T_3 T_4 T_5 T_6 T_7 T_8 T_9 T_10 T_11 T_12 T_13 T_14 T_15 T_16 Velocidade_f_(m/s) Vazao_f_(L/s) q_f_(W) AR AR AR Velocidade_q_(m/s) Vazao_q_(L/s) q_q_(W) DeltaP_q_(Pa) DeltaP_f_(Pa) DeltaP_f_(Psi) AR
0,008000  	23,799456  	34,686678  	25,221543  	956,927186  	80,517376  	74,640525  	0,006529  	0,011653  	0,003959  	0,004257  	0,004442  	-0,000001  	-0,000000  	28,504371  	25,745916  	26,878074  	27,115667  	31,680346  	29,764155  	31,323075  	31,241780  	35,625712  	34,368758  	37,672865  	67,672036  	27,728724  	26,725848  	29,900400  	73,763732  	0,214503  	0,108690  	-4947,346635  	22482,859908  	-0,022164  	-0,050017  	0,376184  	0,190615  	-4,696982  	16480,277879  	55414,672362  	8,037219  	-0,047966  
2,567000  	23,752644  	34,696231  	25,221543  	357,439972  	80,519938  	74,649383  	0,006534  	0,011650  	0,003963  	0,004193  	0,004439  	0,000001  	-0,000000  	28,507763  	25,760824  	26,875792  	27,107639  	31,686656  	29,761151  	31,322716  	31,250513  	35,623668  	34,371321  	37,674422  	67,665612  	27,734933  	26,708187  	29,886318  	73,766119  	0,163279  	0,082735  	-3785,412648  	12482,638048  	-0,036450  	-0,049991  	0,373890  	0,189453  	-4,663349  	16472,560349  	55518,082073  	8,052217  	-0,047943  
3,570000  	23,713942  	34,705290  	25,222281  	357,439972  	80,521375  	74,651535  	0,006534  	0,011693  	0,003957  	0,004268  	0,004436  	-0,000000  	-0,000000  	28,501949  	25,751657  	26,872108  	27,110705  	31,678074  	29,762894  	31,321191  	31,237388  	35,616031  	34,363446  	37,667635  	67,673239  	27,726582  	26,699046  	29,880308  	73,770402  	0,223952  	0,113478  	-5214,692928  	12485,980283  	-0,036460  	-0,050006  	0,371763  	0,188375  	-4,636256  	16566,062091  	55528,998524  	8,053800  	-0,047956  
4,572000  	23,707184  	34,715459  	25,223387  	-242,047242  	80,519563  	74,648665  	0,006522  	0,011632  	0,003961  	0,004249  	0,004429  	0,000001  	-0,000000  	28,512265  	25,754974  	26,884681  	27,120845  	31,693763  	29,762965  	31,332470  	31,255504  	35,630968  	34,375145  	37,677837  	67,676651  	27,731468  	26,707805  	29,887480  	73,766992  	0,208617  	0,105708  	-4865,121725  	-27071,135838  	-0,102757  	-0,049982  	0,366330  	0,185622  	-4,569324  	16434,293173  	55268,091126  	8,015959  	-0,047936  
5,569000  	23,704727  	34,722824  	25,223356  	57,696365  	80,514845  	74,649009  	0,006530  	0,011673  	0,003959  	0,004216  	0,004425  	-0,000000  	-0,000000  	28,512345  	25,750076  	26,880742  	27,119200  	31,680133  	29,759628  	31,326277  	31,249766  	35,621882  	34,369643  	37,669800  	67,671820  	27,722059  	26,704909  	29,884923  	73,758270  	0,181591  	0,092014  	-4238,625225  	1758,382191  	-0,053828  	-0,050005  	0,363197  	0,184034  	-4,526335  	16522,918488  	55447,019230  	8,041910  	-0,047955  
6,566000  	23,700058  	34,715182  	25,224463  	1256,670793  	80,512970  	74,643956  	0,006535  	0,011648  	0,003962  	0,004233  	0,004427  	0,000001  	-0,000000  	28,508146  	25,740850  	26,880129  	27,110816  	31,683446  	29,753781  	31,321429  	31,241121  	35,619301  	34,370387  	37,662082  	67,665026  	27,718760  	26,702196  	29,885268  	73,761470  	0,195731  	0,099178  	-4567,435458  	25524,211472  	-0,018522  	-0,049992  	0,364418  	0,184654  	-4,544019  	16468,058162  	55551,142112  	8,057012  	-0,047944  
7,574000  	23,705034  	34,706400  	25,224739  	357,439972  	80,506689  	74,641055  	0,006524  	0,011695  	0,003961  	0,004239  	0,004472  	-0,000000  	-0,000000  	28,502901  	25,745042  	26,886291  	27,116654  	31,691570  	29,766894  	31,323828  	31,251476  	35,622407  	34,371010  	37,667035  	67,667679  	27,723685  	26,700687  	29,888162  	73,778835  	0,199888  	0,101285  	-4658,626620  	12485,930639  	-0,036460  	-0,050006  	0,400457  	0,202914  	-4,990512  	16569,895034  	55301,871396  	8,020858  	-0,047957  
8,567000  	23,737961  	34,697833  	25,224801  	-242,047242  	80,502877  	74,642178  	0,006527  	0,011672  	0,003962  	0,004230  	0,004494  	-0,000000  	-0,000000  	28,510601  	25,749609  	26,884067  	27,119789  	31,693151  	29,775687  	31,332223  	31,251517  	35,623434  	34,371544  	37,679749  	67,677697  	27,719567  	26,692585  	29,891491  	73,774454  	0,193265  	0,097929  	-4487,257638  	-27081,909213  	-0,102798  	-0,050005  	0,417572  	0,211587  	-5,199429  	16519,501523  	55365,887268  	8,030143  	-0,047955  
9,571000  	23,774145  	34,690684  	25,225784  	57,696365  	80,505002  	74,631948  	0,006532  	0,011696  	0,003964  	0,004212  	0,004482  	0,000001  	-0,000000  	28,509830  	25,749140  	26,879632  	27,116755  	31,681265  	29,764464  	31,322237  	31,240836  	35,614734  	34,368467  	37,677878  	67,674865  	27,713583  	26,686605  	29,891388  	73,759675  	0,178246  	0,090318  	-4122,170560  	1757,709987  	-0,053811  	-0,049988  	0,407951  	0,206712  	-5,090329  	16572,921489  	55489,844761  	8,048122  	-0,047941  
10,569000  	23,759033  	34,686616  	25,226398  	657,183579  	80,510439  	74,634505  	0,006528  	0,011713  	0,003963  	0,004258  	0,004511  	-0,000000  	-0,000000  	28,500726  	25,747388  	26,880521  	27,111382  	31,681489  	29,762792  	31,319100  	31,245023  	35,611523  	34,369130  	37,669109  	67,670836  	27,714376  	26,684525  	29,892401  	73,761521  	0,215939  	0,109418  	-4998,930374  	18444,265740  	-0,027564  	-0,050002  	0,431013  	0,218397  	-5,380725  	16608,545647  	55394,004542  	8,034221  	-0,047953  
11,568000  	23,711761  	34,685692  	25,227320  	-242,047242  	80,516688  	74,633788  	0,006518  	0,011631  	0,003964  	0,004159  	0,004495  	0,000001  	-0,000000  	28,500839  	25,751596  	26,876447  	27,118690  	31,680652  	29,767012  	31,322212  	31,245892  	35,620582  	34,370298  	37,667282  	67,668342  	27,715818  	26,676406  	29,892020  	73,765231  	0,135164  	0,068489  	-3142,291830  	-27071,645708  	-0,102758  	-0,049983  	0,418394  	0,212003  	-5,229391  	16431,720899  	55188,964514  	8,004483  	-0,047937  
12,568000  	23,696219  	34,693087  	25,229533  	-242,047242  	80,515813  	74,638965  	0,006531  	0,011709  	0,003962  	0,004253  	0,004453  	-0,000002  	-0,000000  	28,510902  	25,754272  	26,876503  	27,123958  	31,686795  	29,771257  	31,326525  	31,249561  	35,628200  	34,374981  	37,669148  	67,670820  	27,721842  	26,673538  	29,892449  	73,765273  	0,211610  	0,107224  	-4929,807534  	-27090,169542  	-0,102827  	-0,050022  	0,384828  	0,194995  	-4,804907  	16600,446803  	55458,472324  	8,043571  	-0,047970  
13,568000  	23,723095  	34,702486  	25,231346  	1256,670793  	80,513688  	74,644704  	0,006537  	0,011676  	0,003958  	0,004218  	0,004467  	-0,000001  	-0,000000  	28,510797  	25,749418  	26,879538  	27,119516  	31,685251  	29,769251  	31,319120  	31,246952  	35,622186  	34,369389  	37,666989  	67,669685  	27,721200  	26,666723  	29,884369  	73,757891  	0,183542  	0,093002  	-4269,100503  	25531,049121  	-0,018527  	-0,050007  	0,395823  	0,200566  	-4,935580  	16529,025163  	55592,329470  	8,062986  	-0,047958  
14,568000  	23,741156  	34,704212  	25,232391  	1256,670793  	80,508876  	74,645328  	0,006519  	0,011656  	0,003960  	0,004227  	0,004478  	0,000001  	-0,000000  	28,509036  	25,746657  	26,879372  	27,115924  	31,677494  	29,763855  	31,314282  	31,246016  	35,613910  	34,358579  	37,667444  	67,667659  	27,716910  	26,655907  	29,877553  	73,752323  	0,190276  	0,096414  	-4419,156370  	25523,692906  	-0,018522  	-0,049991  	0,405224  	0,205330  	-5,048127  	16485,942401  	55193,956707  	8,005207  	-0,047944  
15,569000  	23,744658  	34,695984  	25,233497  	1256,670793  	80,506814  	74,651379  	0,006522  	0,011672  	0,003961  	0,004263  	0,004476  	-0,000000  	-0,000000  	28,517657  	25,748017  	26,884711  	27,120470  	31,684193  	29,769922  	31,321899  	31,250682  	35,616830  	34,366889  	37,675379  	67,673762  	27,722795  	26,658674  	29,886704  	73,760829  	0,220089  	0,111521  	-5106,086442  	25529,368011  	-0,018526  	-0,050004  	0,403504  	0,204459  	-5,019755  	16520,840719  	55256,186122  	8,014232  	-0,047955  
16,571000  	23,747483  	34,691115  	25,236508  	1256,670793  	80,508876  	74,650568  	0,006533  	0,011693  	0,003964  	0,004260  	0,004445  	-0,000001  	-0,000000  	28,519171  	25,750290  	26,885344  	27,119759  	31,685979  	29,775585  	31,322290  	31,248745  	35,621824  	34,376571  	37,676215  	67,674207  	27,727227  	26,664014  	29,891330  	73,767378  	0,217353  	0,110134  	-5039,068180  	25535,852475  	-0,018531  	-0,050018  	0,378695  	0,191888  	-4,713433  	16564,754023  	55499,363115  	8,049502  	-0,047967  
17,569000  	23,767080  	34,692933  	25,237830  	1256,670793  	80,512970  	74,649258  	0,006538  	0,011663  	0,003961  	0,004282  	0,004459  	-0,000000  	-0,000000  	28,512260  	25,750110  	26,876353  	27,113891  	31,678926  	29,770170  	31,321725  	31,248568  	35,622937  	34,369894  	37,669476  	67,669844  	27,728238  	26,660052  	29,886057  	73,762159  	0,234845  	0,118998  	-5435,746322  	25529,433239  	-0,018526  	-0,050004  	0,389664  	0,197446  	-4,854427  	16500,797355  	55606,444595  	8,065033  	-0,047955  
18,570000  	23,786186  	34,697802  	25,238936  	1256,670793  	80,514845  	74,641960  	0,006524  	0,011651  	0,003961  	0,004239  	0,004470  	-0,000000  	-0,000000  	28,514715  	25,747113  	26,879529  	27,120455  	31,684362  	29,769610  	31,330557  	31,250410  	35,627767  	34,371657  	37,676127  	67,674587  	27,734657  	26,660803  	29,891434  	73,758449  	0,199948  	0,101315  	-4621,973838  	25530,231127  	-0,018527  	-0,050006  	0,398584  	0,201965  	-4,973314  	16474,575156  	55313,847010  	8,022595  	-0,047957  
19,571000  	23,786002  	34,701223  	25,241148  	1256,670793  	80,519438  	74,643956  	0,006528  	0,011681  	0,003965  	0,004245  	0,004490  	-0,000000  	-0,000000  	28,519687  	25,754828  	26,884600  	27,120920  	31,684312  	29,767862  	31,333985  	31,256946  	35,632321  	34,378219  	37,684885  	67,674179  	27,735840  	26,667624  	29,899704  	73,758856  	0,204975  	0,103862  	-4739,752634  	25528,712546  	-0,018525  	-0,050003  	0,414251  	0,209904  	-5,171087  	16538,707271  	55400,832619  	8,035211  	-0,047954  
20,570000  	23,765053  	34,702825  	25,241271  	57,696365  	80,515626  	74,644829  	0,006535  	0,011650  	0,003963  	0,004235  	0,004458  	0,000000  	-0,000000  	28,516082  	25,753703  	26,889928  	27,128292  	31,682795  	29,770213  	31,332921  	31,255373  	35,634592  	34,375883  	37,678491  	67,674562  	27,746006  	26,674540  	29,908032  	73,760313  	0,197377  	0,100012  	-4573,480160  	1757,085994  	-0,053818  	-0,049996  	0,389303  	0,197263  	-4,855785  	16472,558227  	55553,528762  	8,057358  	-0,047948  
21,570000  	23,740879  	34,707540  	25,243361  	-242,047242  	80,513376  	74,646888  	0,006524  	0,011665  	0,003961  	0,004119  	0,004467  	0,000001  	-0,000000  	28,514713  	25,751629  	26,888894  	27,126576  	31,684103  	29,770719  	31,324951  	31,253839  	35,626852  	34,369579  	37,675700  	67,668372  	27,748471  	26,675884  	29,896643  	73,753849  	0,103329  	0,052357  	-2400,592435  	-27075,678598  	-0,102767  	-0,049991  	0,396415  	0,200866  	-4,940864  	16505,344111  	55314,602547  	8,022705  	-0,047944  
22,569000  	23,745487  	34,715552  	25,244651  	-242,047242  	80,511689  	74,643270  	0,006523  	0,011655  	0,003961  	0,004200  	0,004496  	-0,000001  	-0,000000  	28,514550  	25,755597  	26,885553  	27,128245  	31,687672  	29,772651  	31,332603  	31,252346  	35,624927  	34,374712  	37,671743  	67,673083  	27,743373  	26,673433  	29,896882  	73,769978  	0,169061  	0,085664  	-3928,938244  	-27085,815010  	-0,102805  	-0,050012  	0,419276  	0,212450  	-5,227521  	16482,632260  	55292,098843  	8,019441  	-0,047962  
23,568000  	23,761521  	34,718510  	25,246219  	-242,047242  	80,506470  	74,647917  	0,006528  	0,011697  	0,003965  	0,004249  	0,004477  	-0,000001  	-0,000000  	28,521472  	25,766215  	26,892861  	27,135109  	31,700530  	29,774026  	31,336315  	31,261522  	35,635189  	34,381996  	37,682628  	67,675581  	27,751461  	26,687084  	29,903906  	73,769869  	0,208437  	0,105616  	-4838,239859  	-27085,393388  	-0,102803  	-0,050011  	0,403967  	0,204693  	-5,028180  	16573,676334  	55391,596709  	8,033872  	-0,047961  
24,571000  	23,730743  	34,714936  	25,247817  	-242,047242  	80,508970  	74,640806  	0,006535  	0,011678  	0,003957  	0,004257  	0,004461  	-0,000001  	-0,000000  	28,511436  	25,757646  	26,881489  	27,118970  	31,690493  	29,769880  	31,326581  	31,250417  	35,627290  	34,383013  	37,677289  	67,665463  	27,746275  	26,663690  	29,890997  	73,756448  	0,214998  	0,108941  	-5002,937937  	-27083,695306  	-0,102795  	-0,050007  	0,391252  	0,198250  	-4,877907  	16534,164759  	55550,718447  	8,056951  	-0,047958  
25,568000  	23,681721  	34,713426  	25,249015  	1256,670793  	80,513564  	74,637437  	0,006523  	0,011648  	0,003964  	0,004191  	0,004425  	-0,000001  	-0,000000  	28,514477  	25,745382  	26,880289  	27,116877  	31,687749  	29,770741  	31,326230  	31,254194  	35,621323  	34,375329  	37,673087  	67,662034  	27,744601  	26,668242  	29,888510  	73,760154  	0,161524  	0,081845  	-3774,892935  	25530,513910  	-0,018527  	-0,050007  	0,362533  	0,183698  	-4,525988  	16468,618460  	55297,380541  	8,020207  	-0,047958  
26,567000  	23,654138  	34,714288  	25,250613  	1256,670793  	80,518751  	74,643238  	0,006528  	0,011683  	0,003962  	0,004262  	0,004486  	-0,000001  	-0,000000  	28,516069  	25,750961  	26,883716  	27,129365  	31,689401  	29,770788  	31,337723  	31,260469  	35,631080  	34,379390  	37,677365  	67,668172  	27,754661  	26,649792  	29,894141  	73,764569  	0,218660  	0,110797  	-5123,364061  	25530,544379  	-0,018527  	-0,050008  	0,411137  	0,208326  	-5,132245  	16543,837671  	55389,838497  	8,033617  	-0,047958  
27,567000  	23,641883  	34,714381  	25,252457  	357,439972  	80,521813  	74,646763  	0,006536  	0,011692  	0,003967  	0,004259  	0,004478  	0,000001  	-0,000000  	28,514959  	25,752844  	26,885351  	27,119720  	31,690570  	29,770138  	31,328361  	31,269205  	35,632701  	34,377356  	37,668212  	67,665897  	27,729318  	26,628338  	29,887906  	73,760730  	0,216145  	0,109522  	-5070,102069  	12480,969259  	-0,036449  	-0,049990  	0,404859  	0,205145  	-5,053472  	16563,127604  	55573,045624  	8,060189  	-0,047943  
28,567000  	23,656749  	34,706431  	25,254177  	956,927186  	80,520188  	74,643457  	0,006527  	0,011661  	0,003962  	0,004228  	0,004440  	0,000000  	-0,000000  	28,515779  	25,753667  	26,873427  	27,127688  	31,697184  	29,756629  	31,328299  	31,251167  	35,631617  	34,379563  	37,672672  	67,665119  	27,725648  	26,602554  	29,886007  	73,766182  	0,191489  	0,097029  	-4482,476006  	22474,358098  	-0,022157  	-0,049999  	0,374381  	0,189701  	-4,674377  	16495,566498  	55375,730432  	8,031571  	-0,047951  
29,568000  	23,632392  	34,689328  	25,255284  	1256,670793  	80,514501  	74,642771  	0,006526  	0,011659  	0,003961  	0,004184  	0,004499  	0,000002  	-0,000000  	28,527071  	25,757990  	26,893783  	27,129595  	31,700714  	29,770268  	31,337625  	31,268861  	35,634816  	34,391316  	37,676550  	67,676130  	27,717368  	26,591861  	29,898729  	73,773533  	0,155373  	0,078728  	-3639,445568  	25515,593571  	-0,018516  	-0,049975  	0,421379  	0,213516  	-5,256702  	16492,227352  	55344,929943  	8,027103  	-0,047930  
30,592000  	23,603766  	34,675954  	25,257066  	1256,670793  	80,508251  	74,638841  	0,006531  	0,011676  	0,003964  	0,004213  	0,004457  	0,000001  	-0,000000  	28,533219  	25,761922  	26,885351  	27,130428  	31,693825  	29,773837  	31,331485  	31,261877  	35,638200  	34,373707  	37,677439  	67,672131  	27,717235  	26,564845  	29,891929  	73,767424  	0,179039  	0,090721  	-4199,603959  	25523,248663  	-0,018522  	-0,049992  	0,388370  	0,196790  	-4,842996  	16528,495993  	55457,963925  	8,043498  	-0,047945  
31,569000  	23,607636  	34,664676  	25,258910  	1256,670793  	80,505502  	74,629920  	0,006531  	0,011669  	0,003964  	0,004285  	0,004491  	-0,000000  	-0,000000  	28,531272  	25,756458  	26,888563  	27,133971  	31,702441  	29,774207  	31,333286  	31,257591  	35,635330  	34,383042  	37,678387  	67,669301  	27,712975  	26,550161  	29,887677  	73,764919  	0,237213  	0,120198  	-5556,536420  	25529,383844  	-0,018526  	-0,050006  	0,415499  	0,210537  	-5,186743  	16514,359097  	55469,671218  	8,045196  	-0,047956  
32,569000  	23,642528  	34,655246  	25,260323  	1256,670793  	80,507002  	74,631168  	0,006525  	0,011675  	0,003962  	0,004221  	0,004472  	0,000000  	-0,000000  	28,530932  	25,761944  	26,897496  	27,139735  	31,699635  	29,778975  	31,339477  	31,266854  	35,640317  	34,385620  	37,687488  	67,666741  	27,711044  	26,534224  	29,894420  	73,769628  	0,185685  	0,094088  	-4332,082584  	25523,917032  	-0,018522  	-0,049994  	0,399821  	0,202592  	-4,991247  	16527,226835  	55328,929506  	8,024783  	-0,047946  
33,569000  	23,668022  	34,645910  	25,262136  	57,696365  	80,507564  	74,629421  	0,006529  	0,011692  	0,003958  	0,004253  	0,004418  	0,000001  	-0,000000  	28,519413  	25,761643  	26,894172  	27,132875  	31,698388  	29,776470  	31,335637  	31,257903  	35,631393  	34,386133  	37,681495  	67,669013  	27,689873  	26,506526  	29,882036  	73,768247  	0,211212  	0,107023  	-4912,045197  	1755,610564  	-0,053807  	-0,049986  	0,357429  	0,181112  	-4,463787  	16564,130056  	55422,333648  	8,038330  	-0,047940  
34,568000  	23,696649  	34,636234  	25,263304  	1256,670793  	80,511126  	74,633788  	0,006536  	0,011668  	0,003959  	0,004226  	0,004442  	-0,000001  	-0,000000  	28,520919  	25,757400  	26,895333  	27,138290  	31,699048  	29,776983  	31,334993  	31,263076  	35,634243  	34,388602  	37,685271  	67,682934  	27,686231  	26,495859  	29,888100  	73,764006  	0,189992  	0,096271  	-4403,125563  	25530,161147  	-0,018527  	-0,050008  	0,376567  	0,190810  	-4,702160  	16512,136301  	55566,690640  	8,059267  	-0,047958  
35,569000  	23,704020  	34,630595  	25,264226  	357,439972  	80,509283  	74,634131  	0,006524  	0,011706  	0,003964  	0,004198  	0,004447  	-0,000001  	-0,000000  	28,528154  	25,759195  	26,890323  	27,133870  	31,703358  	29,774271  	31,333432  	31,262893  	35,633348  	34,390431  	37,686113  	67,674974  	27,677749  	26,484732  	29,891336  	73,763051  	0,167052  	0,084647  	-3866,873141  	12486,071871  	-0,036465  	-0,050016  	0,380198  	0,192649  	-4,745726  	16592,552412  	55317,045686  	8,023059  	-0,047965  
36,568000  	23,686451  	34,629978  	25,265148  	956,927186  	80,510470  	74,633070  	0,006527  	0,011640  	0,003960  	0,004242  	0,004431  	0,000001  	-0,000000  	28,513840  	25,750228  	26,883546  	27,124665  	31,692725  	29,763280  	31,331189  	31,250274  	35,631158  	34,384800  	37,672253  	67,660570  	27,668839  	26,466082  	29,886264  	73,754529  	0,202964  	0,102843  	-4705,446936  	22468,229379  	-0,022151  	-0,049985  	0,367234  	0,186080  	-4,585664  	16451,166471  	55376,563641  	8,031692  	-0,047938  
37,570000  	23,663752  	34,635525  	25,267729  	1256,670793  	80,509626  	74,637874  	0,006528  	0,011667  	0,003960  	0,004234  	0,004498  	-0,000001  	-0,000000  	28,514199  	25,749870  	26,886074  	27,125093  	31,693949  	29,763777  	31,331134  	31,255158  	35,627116  	34,377982  	37,673901  	67,670142  	27,663185  	26,465813  	29,885279  	73,757275  	0,196548  	0,099592  	-4568,459034  	25529,836428  	-0,018527  	-0,050007  	0,420676  	0,213160  	-5,247956  	16509,288831  	55400,698458  	8,035192  	-0,047958  
38,569000  	23,673888  	34,643660  	25,268221  	657,183579  	80,505002  	74,637312  	0,006530  	0,011680  	0,003960  	0,004222  	0,004486  	0,000001  	-0,000000  	28,520972  	25,755222  	26,892646  	27,126930  	31,705185  	29,775979  	31,331194  	31,262712  	35,631770  	34,382953  	37,677058  	67,678583  	27,662305  	26,466184  	29,891215  	73,765333  	0,186408  	0,094454  	-4331,980024  	18438,219402  	-0,027556  	-0,049989  	0,411182  	0,208349  	-5,125967  	16537,324921  	55438,976645  	8,040744  	-0,047942  
39,567000  	23,678311  	34,650501  	25,269696  	657,183579  	80,503689  	74,633632  	0,006526  	0,011686  	0,003960  	0,004227  	0,004440  	-0,000000  	-0,000000  	28,518269  	25,758901  	26,892818  	27,124919  	31,703833  	29,776062  	31,330259  	31,254518  	35,633785  	34,385071  	37,676788  	67,671778  	27,655341  	26,451676  	29,886378  	73,763545  	0,190639  	0,096598  	-4431,291131  	18443,768011  	-0,027565  	-0,050006  	0,374582  	0,189804  	-4,671578  	16549,309766  	55345,501892  	8,027186  	-0,047956  
40,567000  	23,665472  	34,650747  	25,271171  	57,696365  	80,503814  	74,636564  	0,006530  	0,011685  	0,003959  	0,004241  	0,004445  	0,000001  	-0,000000  	28,513891  	25,763694  	26,886260  	27,123887  	31,698515  	29,767831  	31,329744  	31,249528  	35,631666  	34,380535  	37,679802  	67,672160  	27,655181  	26,441343  	29,884345  	73,768223  	0,202246  	0,102480  	-4706,697511  	1754,947909  	-0,053802  	-0,049982  	0,378418  	0,191747  	-4,717165  	16549,026788  	55435,439037  	8,040231  	-0,047936  
41,568000  	23,672383  	34,650624  	25,272246  	956,927186  	80,505689  	74,633694  	0,006531  	0,011684  	0,003959  	0,004224  	0,004479  	0,000001  	-0,000000  	28,509547  	25,759653  	26,883407  	27,121303  	31,695887  	29,760573  	31,325000  	31,250264  	35,631943  	34,375078  	37,677527  	67,676822  	27,655801  	26,440915  	29,892137  	73,774591  	0,187919  	0,095220  	-4370,470675  	22470,682542  	-0,022153  	-0,049991  	0,405293  	0,205365  	-5,056251  	16546,178610  	55468,774459  	8,045066  	-0,047944  
42,570000  	23,666424  	34,652473  	25,273537  	357,439972  	80,507502  	74,634567  	0,006522  	0,011701  	0,003962  	0,004245  	0,004480  	-0,000002  	-0,000000  	28,508217  	25,754059  	26,887977  	27,122759  	31,693963  	29,763266  	31,325489  	31,252926  	35,631926  	34,372098  	37,676996  	67,676139  	27,651953  	26,441668  	29,893402  	73,775573  	0,204973  	0,103862  	-4770,500434  	12487,414794  	-0,036470  	-0,050024  	0,406231  	0,205840  	-5,068764  	16582,041884  	55257,817235  	8,014469  	-0,047972  
43,572000  	23,674994  	34,653767  	25,273352  	1256,670793  	80,515095  	74,635815  	0,006528  	0,011696  	0,003961  	0,004219  	0,004380  	0,000000  	-0,000000  	28,508712  	25,755829  	26,887034  	27,123916  	31,690879  	29,774480  	31,331733  	31,255674  	35,625071  	34,372424  	37,674601  	67,676204  	27,655720  	26,437064  	29,889860  	73,775370  	0,183873  	0,093170  	-4276,584643  	25524,265057  	-0,018523  	-0,049996  	0,327030  	0,165709  	-4,084942  	16572,272053  	55396,440619  	8,034574  	-0,047948  
44,572000  	23,656196  	34,649453  	25,271693  	57,696365  	80,516282  	74,647480  	0,006530  	0,011650  	0,003965  	0,004236  	0,004436  	0,000000  	-0,000000  	28,506085  	25,749950  	26,878999  	27,116103  	31,681927  	29,768476  	31,325518  	31,247525  	35,615348  	34,367884  	37,666179  	67,671872  	27,646998  	26,427227  	29,886520  	73,764239  	0,197990  	0,100323  	-4611,004375  	1755,376928  	-0,053816  	-0,049996  	0,371893  	0,188441  	-4,637058  	16472,211579  	55442,288298  	8,041224  	-0,047948  
45,569000  	23,641084  	34,648590  	25,270710  	57,696365  	80,517469  	74,634817  	0,006532  	0,011701  	0,003959  	0,004218  	0,004485  	0,000000  	-0,000000  	28,508191  	25,748769  	26,878148  	27,120298  	31,683573  	29,763167  	31,325408  	31,250493  	35,626416  	34,368228  	37,677484  	67,671585  	27,642773  	26,431289  	29,892232  	73,766377  	0,183437  	0,092949  	-4277,613208  	1755,422234  	-0,053815  	-0,049996  	0,410364  	0,207935  	-5,128810  	16582,039762  	55481,117250  	8,046856  	-0,047948  
46,573000  	23,647842  	34,647666  	25,269419  	1256,670793  	80,521782  	74,638248  	0,006521  	0,011670  	0,003961  	0,004258  	0,004414  	0,000001  	-0,000000  	28,508162  	25,747302  	26,877720  	27,108545  	31,684248  	29,762202  	31,322738  	31,249737  	35,620017  	34,364291  	37,668748  	67,672568  	27,642458  	26,441865  	29,894287  	73,766555  	0,215383  	0,109136  	-5019,066845  	25523,229794  	-0,018522  	-0,049993  	0,354299  	0,179526  	-4,428758  	16516,922175  	55246,293531  	8,012797  	-0,047945  
47,571000  	23,638259  	34,647574  	25,267207  	1256,670793  	80,517126  	74,635129  	0,006530  	0,011680  	0,003962  	0,004265  	0,004474  	-0,000000  	-0,000000  	28,517154  	25,744027  	26,882870  	27,115673  	31,685624  	29,759931  	31,320874  	31,250178  	35,614528  	34,366935  	37,665747  	67,674090  	27,653897  	26,454487  	29,886021  	73,774197  	0,221117  	0,112042  	-5157,131649  	25527,526083  	-0,018525  	-0,050002  	0,401425  	0,203405  	-5,016530  	16536,500039  	55431,138831  	8,039607  	-0,047953  
48,573000  	23,621918  	34,643752  	25,263949  	1256,670793  	80,513376  	74,637375  	0,006534  	0,011688  	0,003964  	0,004222  	0,004443  	-0,000001  	-0,000000  	28,521942  	25,754839  	26,881936  	27,129656  	31,691332  	29,756777  	31,323302  	31,248551  	35,631616  	34,375519  	37,678095  	67,683210  	27,665035  	26,463758  	29,892948  	73,773430  	0,186529  	0,094515  	-4355,376353  	25530,626254  	-0,018527  	-0,050009  	0,377362  	0,191212  	-4,711013  	16555,555101  	55528,313598  	8,053701  	-0,047959  
49,571000  	23,623607  	34,640394  	25,260753  	57,696365  	80,509376  	74,642646  	0,006526  	0,011673  	0,003958  	0,004226  	0,004422  	0,000002  	-0,000000  	28,508863  	25,748640  	26,867920  	27,114594  	31,676417  	29,755865  	31,326683  	31,239738  	35,623058  	34,370655  	37,669801  	67,675896  	27,669668  	26,463863  	29,896220  	73,769074  	0,189556  	0,096050  	-4424,043563  	1755,344055  	-0,053797  	-0,049975  	0,360787  	0,182813  	-4,496984  	16521,379085  	55358,593159  	8,029085  	-0,047930  
50,568000  	23,640255  	34,637620  	25,257558  	657,183579  	80,507002  	74,645079  	0,006523  	0,011658  	0,003962  	0,004263  	0,004451  	-0,000000  	-0,000000  	28,509004  	25,751659  	26,876682  	27,114975  	31,676485  	29,761518  	31,319212  	31,235991  	35,617298  	34,368455  	37,667136  	67,671755  	27,671597  	26,470236  	29,893187  	73,773278  	0,219987  	0,111469  	-5125,208566  	18444,281196  	-0,027565  	-0,050006  	0,383506  	0,194325  	-4,776250  	16489,585041  	55279,939640  	8,017677  	-0,047956  
51,570000  	23,655735  	34,631796  	25,255069  	657,183579  	80,506939  	74,640275  	0,006529  	0,011679  	0,003964  	0,004257  	0,004438  	-0,000000  	-0,000000  	28,500546  	25,732567  	26,872418  	27,102894  	31,669902  	29,751710  	31,315857  	31,238394  	35,611068  	34,365629  	37,662578  	67,674757  	27,666914  	26,474475  	29,880128  	73,765403  	0,214916  	0,108900  	-4997,361031  	18443,048608  	-0,027563  	-0,050002  	0,373284  	0,189146  	-4,652694  	16534,971248  	55414,721789  	8,037226  	-0,047953  
52,569000  	23,653954  	34,625633  	25,251688  	1256,670793  	80,513126  	74,630856  	0,006533  	0,011675  	0,003958  	0,004205  	0,004449  	-0,000001  	-0,000000  	28,509374  	25,756464  	26,887069  	27,117984  	31,678986  	29,768464  	31,320039  	31,235374  	35,628011  	34,368544  	37,669799  	67,683355  	27,682375  	26,485531  	29,892031  	73,764973  	0,172919  	0,087619  	-4019,209441  	25530,926386  	-0,018527  	-0,050009  	0,381604  	0,193362  	-4,769048  	16526,131001  	55513,181675  	8,051506  	-0,047959  
53,568000  	23,692778  	34,625140  	25,249107  	956,927186  	80,513064  	74,624431  	0,006522  	0,011706  	0,003963  	0,004205  	0,004467  	0,000000  	-0,000000  	28,501981  	25,741446  	26,870493  	27,113382  	31,677842  	29,751665  	31,309915  	31,239275  	35,609744  	34,364660  	37,663725  	67,665296  	27,678084  	26,478701  	29,882468  	73,771093  	0,173039  	0,087680  	-4007,571811  	22472,646726  	-0,022155  	-0,049994  	0,396075  	0,200694  	-4,955246  	16593,613581  	55261,270110  	8,014970  	-0,047947  
54,571000  	23,717720  	34,628592  	25,246034  	357,439972  	80,509751  	74,629858  	0,006534  	0,011653  	0,003959  	0,004236  	0,004512  	-0,000000  	-0,000000  	28,503967  	25,737906  	26,865173  	27,109832  	31,673647  	29,757396  	31,314097  	31,240801  	35,614772  	34,366840  	37,662338  	67,672532  	27,684636  	26,483713  	29,887463  	73,760710  	0,197706  	0,100179  	-4569,854352  	12483,734394  	-0,036456  	-0,050001  	0,431902  	0,218848  	-5,395455  	16478,848838  	55526,837829  	8,053487  	-0,047952  
55,570000  	23,719010  	34,634138  	25,244098  	357,439972  	80,506033  	74,640650  	0,006532  	0,011665  	0,003963  	0,004221  	0,004449  	-0,000000  	-0,000000  	28,502826  	25,749890  	26,878181  	27,111473  	31,679049  	29,758525  	31,317480  	31,247077  	35,610663  	34,373336  	37,673173  	67,677766  	27,687860  	26,489843  	29,894841  	73,769735  	0,185530  	0,094010  	-4290,097669  	12484,259819  	-0,036458  	-0,050003  	0,381575  	0,193347  	-4,754996  	16505,299542  	55476,591089  	8,046199  	-0,047954  
56,571000  	23,738176  	34,639931  	25,242316  	-242,047242  	80,503971  	74,636158  	0,006528  	0,011683  	0,003963  	0,004244  	0,004488  	-0,000001  	-0,000000  	28,512476  	25,748557  	26,885113  	27,113966  	31,693157  	29,762689  	31,319823  	31,248533  	35,617028  	34,376818  	37,671400  	67,673749  	27,692458  	26,519634  	29,900604  	73,770643  	0,204076  	0,103407  	-4713,155508  	-27083,345261  	-0,102796  	-0,050007  	0,412778  	0,209158  	-5,145966  	16543,487485  	55398,869635  	8,034927  	-0,047957  
57,572000  	23,750401  	34,646248  	25,241763  	1256,670793  	80,507502  	74,630232  	0,006523  	0,011678  	0,003960  	0,004237  	0,004482  	-0,000000  	-0,000000  	28,500612  	25,741973  	26,862760  	27,094822  	31,667549  	29,749489  	31,303863  	31,226189  	35,603627  	34,363072  	37,650669  	67,669506  	27,673464  	26,520466  	29,890633  	73,760442  	0,198288  	0,100474  	-4577,000739  	25527,466333  	-0,018525  	-0,050000  	0,408242  	0,206859  	-5,097617  	16532,670633  	55294,280721  	8,019757  	-0,047952  
58,572000  	23,720914  	34,653644  	25,239858  	1256,670793  	80,509189  	74,640088  	0,006531  	0,011683  	0,003960  	0,004263  	0,004412  	-0,000000  	-0,000000  	28,497404  	25,735290  	26,867469  	27,098204  	31,674327  	29,754074  	31,306680  	31,226953  	35,607201  	34,358273  	37,660032  	67,669640  	27,681444  	26,538219  	29,884489  	73,761293  	0,219472  	0,111208  	-5083,122999  	25528,602949  	-0,018525  	-0,050003  	0,352786  	0,178759  	-4,399038  	16544,443244  	55452,067912  	8,042642  	-0,047954  
59,569000  	23,717689  	34,659561  	25,238567  	1256,670793  	80,509251  	74,639652  	0,006540  	0,011661  	0,003959  	0,004245  	0,004473  	-0,000000  	-0,000000  	28,499480  	25,737925  	26,859707  	27,100085  	31,670644  	29,747826  	31,303605  	31,238778  	35,613049  	34,359592  	37,659308  	67,668436  	27,682746  	26,542932  	29,886900  	73,761091  	0,204748  	0,103747  	-4746,073692  	25529,822470  	-0,018526  	-0,050005  	0,400694  	0,203034  	-4,996836  	16496,583098  	55652,482923  	8,071710  	-0,047956  
60,570000  	23,710501  	34,671394  	25,237768  	1256,670793  	80,509564  	74,637718  	0,006520  	0,011672  	0,003963  	0,004182  	0,004445  	0,000000  	-0,000000  	28,501443  	25,743930  	26,866609  	27,109361  	31,680541  	29,758108  	31,311506  	31,247028  	35,612880  	34,362770  	37,665319  	67,682241  	27,684618  	26,565589  	29,892514  	73,766187  	0,153863  	0,077963  	-3572,755431  	25526,935888  	-0,018524  	-0,049999  	0,378818  	0,191950  	-4,725841  	16519,866565  	55225,724566  	8,009814  	-0,047950  
61,575000  	23,726873  	34,677772  	25,237461  	1256,670793  	80,510126  	74,633881  	0,006533  	0,011676  	0,003962  	0,004246  	0,004448  	-0,000001  	-0,000000  	28,499663  	25,740524  	26,865814  	27,104017  	31,679584  	29,757396  	31,310694  	31,239879  	35,610255  	34,364385  	37,669574  	67,674866  	27,686041  	26,576291  	29,893833  	73,761762  	0,205872  	0,104317  	-4776,064603  	25531,494014  	-0,018527  	-0,050009  	0,380911  	0,193010  	-4,755510  	16529,321583  	55494,017867  	8,048727  	-0,047959  
62,568000  	23,738176  	34,677341  	25,236785  	1256,670793  	80,509189  	74,632197  	0,006534  	0,011720  	0,003962  	0,004181  	0,004479  	0,000001  	-0,000000  	28,502505  	25,740791  	26,868343  	27,105146  	31,675940  	29,756414  	31,314556  	31,236234  	35,610498  	34,363238  	37,664432  	67,675118  	27,690422  	26,582961  	29,893503  	73,758004  	0,153284  	0,077670  	-3552,244990  	25523,516895  	-0,018522  	-0,049991  	0,405528  	0,205484  	-5,063485  	16624,502094  	55514,304388  	8,051669  	-0,047944  
63,569000  	23,741033  	34,674198  	25,235955  	1256,670793  	80,506689  	74,637125  	0,006526  	0,011617  	0,003961  	0,004231  	0,004417  	-0,000001  	-0,000000  	28,498871  	25,741048  	26,866308  	27,105653  	31,677298  	29,753060  	31,315526  	31,236437  	35,613084  	34,370519  	37,659164  	67,677789  	27,694050  	26,590684  	29,893211  	73,765184  	0,193944  	0,098273  	-4492,063017  	25530,916572  	-0,018527  	-0,050007  	0,356498  	0,180640  	-4,445672  	16400,527476  	55342,924593  	8,026813  	-0,047958  
64,570000  	23,740972  	34,675122  	25,235586  	1256,670793  	80,507689  	74,634942  	0,006525  	0,011697  	0,003964  	0,004237  	0,004459  	-0,000000  	-0,000000  	28,492838  	25,740752  	26,861788  	27,100029  	31,673091  	29,748430  	31,310775  	31,235091  	35,616950  	34,367109  	37,655207  	67,669100  	27,693424  	26,591660  	29,881933  	73,759760  	0,198320  	0,100490  	-4593,832028  	25529,816245  	-0,018526  	-0,050005  	0,389928  	0,197579  	-4,865185  	16574,413493  	55338,094805  	8,026112  	-0,047956  
65,573000  	23,736671  	34,677834  	25,235402  	956,927186  	80,508064  	74,636657  	0,006531  	0,011664  	0,003962  	0,004261  	0,004466  	-0,000000  	-0,000000  	28,494453  	25,743063  	26,862046  	27,103528  	31,675008  	29,753211  	31,309074  	31,232110  	35,614146  	34,361650  	37,658288  	67,675826  	27,701153  	26,589890  	29,879802  	73,757396  	0,217947  	0,110435  	-5051,697748  	22475,495548  	-0,022157  	-0,050000  	0,395499  	0,200402  	-4,933577  	16503,057645  	55462,129970  	8,044102  	-0,047952  
66,574000  	23,728931  	34,682148  	25,235771  	-242,047242  	80,510501  	74,631667  	0,006534  	0,011666  	0,003962  	0,004286  	0,004466  	-0,000001  	-0,000000  	28,495244  	25,743413  	26,858008  	27,101590  	31,670768  	29,749703  	31,304250  	31,227868  	35,603454  	34,354897  	37,658003  	67,670602  	27,706719  	26,587612  	29,878743  	73,754753  	0,238064  	0,120629  	-5524,066144  	-27086,126599  	-0,102809  	-0,050013  	0,395575  	0,200441  	-4,940764  	16507,158710  	55520,249829  	8,052531  	-0,047962  
67,569000  	23,750217  	34,685014  	25,234572  	-242,047242  	80,512220  	74,637624  	0,006515  	0,011689  	0,003958  	0,004200  	0,004439  	0,000001  	-0,000000  	28,497841  	25,741094  	26,857346  	27,097531  	31,661152  	29,744673  	31,302759  	31,227787  	35,603538  	34,352456  	37,657749  	67,664647  	27,708183  	26,586840  	29,877128  	73,754576  	0,168699  	0,085481  	-3907,911036  	-27075,198946  	-0,102768  	-0,049990  	0,374088  	0,189553  	-4,669020  	16556,681355  	55119,864655  	7,994460  	-0,047943  
68,569000  	23,794387  	34,687787  	25,234142  	-242,047242  	80,510720  	74,640494  	0,006530  	0,011688  	0,003961  	0,004288  	0,004488  	-0,000001  	-0,000000  	28,502095  	25,740638  	26,863104  	27,102588  	31,669157  	29,750906  	31,308653  	31,230402  	35,610271  	34,359746  	37,663752  	67,678086  	27,712715  	26,586660  	29,883873  	73,763870  	0,240296  	0,121760  	-5545,383733  	-27087,691158  	-0,102816  	-0,050016  	0,412675  	0,209106  	-5,146804  	16555,647776  	55430,164400  	8,039466  	-0,047965  
69,574000  	23,816657  	34,687417  	25,232544  	956,927186  	80,510501  	74,640369  	0,006532  	0,011673  	0,003964  	0,004213  	0,004518  	-0,000002  	-0,000000  	28,500499  	25,741444  	26,866913  	27,102971  	31,678478  	29,749587  	31,307446  	31,232600  	35,609994  	34,360264  	37,663320  	67,674222  	27,719015  	26,584095  	29,883410  	73,762774  	0,179190  	0,090797  	-4126,612202  	22484,030718  	-0,022166  	-0,050021  	0,436897  	0,221379  	-5,448804  	16521,294899  	55477,650253  	8,046353  	-0,047969  
70,569000  	23,810514  	34,691547  	25,232298  	357,439972  	80,507127  	74,642802  	0,006524  	0,011644  	0,003961  	0,004258  	0,004437  	-0,000001  	-0,000000  	28,504974  	25,745267  	26,877987  	27,108370  	31,679966  	29,752294  	31,310809  	31,243115  	35,617103  	34,367894  	37,667034  	67,675363  	27,734838  	26,586005  	29,888547  	73,767996  	0,215796  	0,109345  	-4974,330965  	12488,130242  	-0,036468  	-0,050018  	0,372758  	0,188879  	-4,644291  	16459,026905  	55305,804425  	8,021429  	-0,047967  
71,575000  	23,781302  	34,701808  	25,232114  	357,439972  	80,502283  	74,648946  	0,006524  	0,011700  	0,003964  	0,004229  	0,004410  	-0,000000  	-0,000000  	28,505803  	25,747528  	26,879268  	27,110009  	31,680810  	29,756318  	31,319101  	31,248627  	35,618730  	34,372998  	37,666806  	67,673751  	27,739044  	26,583932  	29,889429  	73,770958  	0,192532  	0,097557  	-4454,182819  	12484,198284  	-0,036456  	-0,050000  	0,351248  	0,177980  	-4,368096  	16580,028493  	55308,628862  	8,021838  	-0,047951  
72,568000  	23,749419  	34,714751  	25,230885  	956,927186  	80,497784  	74,640712  	0,006529  	0,011684  	0,003961  	0,004191  	0,004462  	-0,000000  	-0,000000  	28,501171  	25,734696  	26,868467  	27,103355  	31,671984  	29,741992  	31,308428  	31,231873  	35,609771  	34,360627  	37,653014  	67,667671  	27,740472  	26,571102  	29,878732  	73,759083  	0,161718  	0,081944  	-3756,664492  	22477,667834  	-0,022159  	-0,050005  	0,392074  	0,198667  	-4,878916  	16547,082726  	55421,479256  	8,038206  	-0,047956  
73,572000  	23,732648  	34,728988  	25,231837  	956,927186  	80,498315  	74,643644  	0,006533  	0,011673  	0,003965  	0,004270  	0,004456  	0,000001  	-0,000000  	28,505110  	25,746381  	26,864916  	27,108911  	31,676829  	29,750933  	31,308771  	31,224089  	35,610013  	34,360265  	37,660457  	67,668624  	27,745233  	26,563338  	29,889967  	73,750700  	0,225037  	0,114028  	-5242,331105  	22469,089081  	-0,022151  	-0,049984  	0,387485  	0,196341  	-4,819829  	16522,860478  	55494,822832  	8,048844  	-0,047938  
74,571000  	23,741617  	34,732131  	25,230916  	-242,047242  	80,503377  	74,639464  	0,006525  	0,011676  	0,003961  	0,004225  	0,004449  	-0,000000  	-0,000000  	28,498888  	25,751502  	26,858344  	27,104072  	31,684002  	29,756769  	31,310123  	31,236770  	35,611716  	34,360507  	37,660805  	67,667784  	27,745364  	26,567892  	29,885947  	73,761067  	0,189204  	0,095871  	-4405,264764  	-27080,655825  	-0,102791  	-0,050002  	0,381785  	0,193453  	-4,756427  	16527,786425  	55320,420888  	8,023549  	-0,047953  
75,567000  	23,742170  	34,730189  	25,231100  	-242,047242  	80,500846  	74,639932  	0,006529  	0,011658  	0,003963  	0,004230  	0,004461  	0,000002  	-0,000000  	28,499135  	25,742760  	26,865636  	27,115837  	31,681771  	29,751311  	31,317027  	31,242930  	35,610946  	34,368762  	37,663347  	67,673721  	27,747461  	26,579968  	29,889940  	73,762595  	0,193159  	0,097875  	-4496,313505  	-27069,719201  	-0,102749  	-0,049979  	0,391648  	0,198451  	-4,876808  	16490,723322  	55410,230934  	8,036575  	-0,047934  
76,573000  	23,742047  	34,720698  	25,231039  	-242,047242  	80,498659  	74,635940  	0,006537  	0,011698  	0,003959  	0,004256  	0,004449  	-0,000001  	-0,000000  	28,516251  	25,748045  	26,874375  	27,119768  	31,686951  	29,765982  	31,319240  	31,245947  	35,611904  	34,372210  	37,664002  	67,682210  	27,759919  	26,587170  	29,891481  	73,755845  	0,214185  	0,108529  	-4981,502572  	-27085,598133  	-0,102809  	-0,050012  	0,381838  	0,193480  	-4,756110  	16575,391183  	55578,235527  	8,060942  	-0,047962  
77,569000  	23,721498  	34,710498  	25,229533  	57,696365  	80,501127  	74,636657  	0,006524  	0,011648  	0,003957  	0,004227  	0,004448  	0,000000  	-0,000000  	28,497905  	25,746570  	26,863822  	27,115709  	31,688099  	29,761528  	31,315672  	31,245683  	35,620438  	34,376848  	37,670615  	67,678657  	27,761855  	26,584944  	29,884826  	73,758578  	0,190275  	0,096414  	-4429,588982  	1757,735226  	-0,053818  	-0,049995  	0,380701  	0,192904  	-4,743375  	16467,409434  	55319,411152  	8,023402  	-0,047947  
78,568000  	23,691642  	34,706431  	25,229717  	1256,670793  	80,504064  	74,640587  	0,006527  	0,011705  	0,003965  	0,004202  	0,004480  	-0,000000  	-0,000000  	28,505166  	25,742565  	26,886453  	27,111153  	31,681582  	29,767016  	31,322034  	31,245767  	35,619864  	34,373420  	37,673605  	67,667837  	27,747645  	26,582658  	29,882547  	73,755284  	0,170416  	0,086351  	-3976,586604  	25528,236132  	-0,018525  	-0,050001  	0,406750  	0,206103  	-5,067079  	16590,660701  	55372,962484  	8,031169  	-0,047952  
79,569000  	23,686758  	34,703750  	25,228795  	1256,670793  	80,511189  	74,635441  	0,006529  	0,011688  	0,003960  	0,004263  	0,004431  	-0,000001  	-0,000000  	28,508395  	25,748799  	26,880197  	27,109733  	31,686815  	29,764271  	31,323878  	31,255818  	35,620282  	34,369266  	37,669402  	67,669530  	27,739262  	26,587855  	29,887268  	73,761227  	0,219425  	0,111184  	-5121,225705  	25531,643987  	-0,018527  	-0,050009  	0,367297  	0,186112  	-4,585165  	16554,843410  	55425,271063  	8,038756  	-0,047959  
80,567000  	23,718764  	34,704304  	25,228488  	1256,670793  	80,512251  	74,635191  	0,006534  	0,011653  	0,003963  	0,004215  	0,004476  	0,000001  	-0,000000  	28,521994  	25,762654  	26,885070  	27,129411  	31,693426  	29,766832  	31,331278  	31,262432  	35,628184  	34,379811  	37,675406  	67,680157  	27,743555  	26,596574  	29,903455  	73,763469  	0,180618  	0,091520  	-4203,448473  	25519,291681  	-0,018518  	-0,049981  	0,403543  	0,204478  	-5,038766  	16478,309764  	55521,231321  	8,052674  	-0,047935  
81,571000  	23,687096  	34,693735  	25,227689  	956,927186  	80,510283  	74,635597  	0,006521  	0,011714  	0,003959  	0,004207  	0,004484  	0,000001  	-0,000000  	28,511584  	25,753711  	26,880482  	27,121840  	31,701162  	29,772030  	31,325490  	31,251818  	35,622921  	34,371917  	37,676729  	67,675885  	27,732752  	26,593571  	29,890212  	73,768938  	0,174361  	0,088350  	-4065,627305  	22471,489731  	-0,022153  	-0,049989  	0,409865  	0,207682  	-5,115637  	16610,928325  	55249,668733  	8,013287  	-0,047942  
82,569000  	23,645446  	34,685230  	25,227013  	357,439972  	80,508783  	74,642396  	0,006524  	0,011657  	0,003962  	0,004247  	0,004455  	-0,000000  	-0,000000  	28,515487  	25,747814  	26,882465  	27,122902  	31,685441  	29,759543  	31,323348  	31,254068  	35,620595  	34,370356  	37,679763  	67,668512  	27,737802  	26,592805  	29,882468  	73,755949  	0,206404  	0,104587  	-4827,306522  	12485,426687  	-0,036459  	-0,050004  	0,386666  	0,195926  	-4,819269  	16488,734691  	55316,297210  	8,022951  	-0,047955  
83,567000  	23,641484  	34,680330  	25,226276  	1256,670793  	80,509814  	74,644392  	0,006537  	0,011692  	0,003962  	0,004191  	0,004424  	0,000000  	-0,000000  	28,503801  	25,749264  	26,874734  	27,123792  	31,689435  	29,766856  	31,319480  	31,241086  	35,614845  	34,366850  	37,677864  	67,668501  	27,726444  	26,586934  	29,880611  	73,750353  	0,161251  	0,081707  	-3770,952888  	25525,642640  	-0,018523  	-0,049995  	0,362398  	0,183630  	-4,516054  	16562,856653  	55590,041675  	8,062654  	-0,047947  
84,567000  	23,658746  	34,680392  	25,225231  	57,696365  	80,506877  	74,634474  	0,006528  	0,011659  	0,003963  	0,004182  	0,004492  	0,000001  	-0,000000  	28,504526  	25,745934  	26,871378  	27,123014  	31,686608  	29,765964  	31,318185  	31,245155  	35,623319  	34,366225  	37,679252  	67,662053  	27,714003  	26,581961  	29,881715  	73,751787  	0,153917  	0,077991  	-3593,841677  	1757,768180  	-0,053812  	-0,049988  	0,416130  	0,210856  	-5,191806  	16491,537592  	55391,822664  	8,033905  	-0,047941  
85,568000  	23,702423  	34,673581  	25,225446  	57,696365  	80,504346  	74,629983  	0,006527  	0,011657  	0,003961  	0,004312  	0,004424  	-0,000000  	-0,000000  	28,521680  	25,749515  	26,880480  	27,127271  	31,690241  	29,771552  	31,327929  	31,254412  	35,629451  	34,369812  	37,680276  	67,667933  	27,716243  	26,579468  	29,887670  	73,751352  	0,259712  	0,131598  	-6036,275255  	1758,218807  	-0,053826  	-0,050003  	0,361965  	0,183410  	-4,517524  	16488,321542  	55367,581930  	8,030389  	-0,047954  
86,568000  	23,718211  	34,662673  	25,224954  	657,183579  	80,510470  	74,629296  	0,006530  	0,011704  	0,003961  	0,004247  	0,004450  	0,000000  	-0,000000  	28,523240  	25,755781  	26,881112  	27,132599  	31,694611  	29,776692  	31,331906  	31,259554  	35,633366  	34,375653  	37,679560  	67,678460  	27,712704  	26,580071  	29,897142  	73,755481  	0,207054  	0,104916  	-4800,671078  	18443,231763  	-0,027562  	-0,049998  	0,382786  	0,193960  	-4,782926  	16590,215010  	55436,265185  	8,040350  	-0,047950  
87,569000  	23,743183  	34,654260  	25,223387  	-242,047242  	80,514001  	74,628142  	0,006535  	0,011694  	0,003963  	0,004268  	0,004475  	-0,000001  	-0,000000  	28,517865  	25,757915  	26,877137  	27,124187  	31,690993  	29,768026  	31,323913  	31,253376  	35,633424  	34,377412  	37,675570  	67,671200  	27,702372  	26,570548  	29,882414  	73,757436  	0,223595  	0,113297  	-5168,358446  	-27084,013641  	-0,102806  	-0,050009  	0,402567  	0,203984  	-5,034101  	16568,089632  	55545,168427  	8,056146  	-0,047959  
88,567000  	23,759770  	34,653398  	25,222588  	956,927186  	80,514438  	74,630388  	0,006521  	0,011702  	0,003963  	0,004271  	0,004460  	-0,000001  	-0,000000  	28,515753  	25,753658  	26,879020  	27,117524  	31,692354  	29,769296  	31,320192  	31,249894  	35,628934  	34,378477  	37,675167  	67,669443  	27,707267  	26,571026  	29,880245  	73,751671  	0,226483  	0,114761  	-5226,734548  	22481,392868  	-0,022163  	-0,050014  	0,390884  	0,198064  	-4,886502  	16584,313494  	55246,477119  	8,012824  	-0,047963  
89,567000  	23,752797  	34,657496  	25,222588  	1256,670793  	80,513751  	74,640400  	0,006533  	0,011663  	0,003963  	0,004223  	0,004528  	0,000001  	-0,000000  	28,519798  	25,758295  	26,883895  	27,119829  	31,696134  	29,772951  	31,330252  	31,253676  	35,626781  	34,378517  	37,676028  	67,669993  	27,714983  	26,576953  	29,881636  	73,755066  	0,187071  	0,094790  	-4321,586801  	25524,683469  	-0,018522  	-0,049993  	0,444227  	0,225093  	-5,543265  	16499,993696  	55512,193122  	8,051363  	-0,047945  
90,571000  	23,719194  	34,666925  	25,222096  	1256,670793  	80,510376  	74,650818  	0,006532  	0,012151  	0,003963  	0,004253  	0,004457  	0,000000  	-0,000000  	28,523482  	25,765861  	26,887442  	27,127261  	31,693962  	29,768144  	31,335724  	31,254420  	35,625951  	34,379404  	37,679301  	67,673316  	27,726863  	26,576778  	29,885135  	73,763041  	0,211499  	0,107168  	-4905,196966  	25526,557585  	-0,018524  	-0,049997  	0,388594  	0,196904  	-4,837670  	17553,820324  	55488,503153  	8,047927  	-0,047949  
91,570000  	23,720853  	34,679036  	25,222189  	357,439972  	80,509220  	74,650225  	0,006524  	0,012372  	0,003963  	0,004269  	0,004480  	-0,000001  	-0,000000  	28,516462  	25,761423  	26,885632  	27,120147  	31,691069  	29,762813  	31,328778  	31,251067  	35,625690  	34,377881  	37,676528  	67,671496  	27,730267  	26,578223  	29,884729  	73,761661  	0,224374  	0,113692  	-5208,756024  	12486,329560  	-0,036461  	-0,050007  	0,406036  	0,205741  	-5,054319  	18030,606481  	55312,646624  	8,022421  	-0,047958  
92,568000  	23,743398  	34,690006  	25,222004  	956,927186  	80,512720  	74,670062  	0,006524  	0,011624  	0,003960  	0,004202  	0,004451  	0,000000  	-0,000000  	28,508254  	25,749764  	26,875679  	27,112849  	31,684242  	29,755496  	31,322573  	31,243467  	35,622834  	34,370193  	37,665003  	67,663828  	27,729677  	26,571221  	29,883921  	73,754536  	0,170254  	0,086269  	-3948,213148  	22475,688223  	-0,022157  	-0,049999  	0,383438  	0,194291  	-4,759724  	16417,300316  	55315,146252  	8,022784  	-0,047951  
93,569000  	23,750401  	34,691762  	25,221451  	956,927186  	80,511970  	74,723180  	0,006531  	0,011664  	0,003963  	0,004210  	0,004444  	0,000000  	-0,000000  	28,513306  	25,748513  	26,872954  	27,117693  	31,682125  	29,755977  	31,318504  	31,245916  	35,620972  	34,371401  	37,664712  	67,664134  	27,734841  	26,571812  	29,888799  	73,754985  	0,176514  	0,089441  	-4091,410941  	22475,922512  	-0,022158  	-0,050000  	0,377621  	0,191343  	-4,644346  	16502,788816  	55465,865288  	8,044644  	-0,047951  
94,568000  	23,751753  	34,693673  	25,219915  	357,439972  	80,507095  	74,717316  	0,006532  	0,011712  	0,003960  	0,004217  	0,004467  	-0,000000  	-0,000000  	28,520723  	25,756410  	26,876796  	27,121387  	31,686317  	29,766619  	31,318105  	31,256053  	35,620836  	34,376131  	37,678273  	67,670542  	27,739750  	26,592719  	29,889362  	73,757450  	0,182757  	0,092604  	-4236,324822  	12484,827647  	-0,036457  	-0,050000  	0,395962  	0,200637  	-4,870746  	16606,723973  	55470,906909  	8,045375  	-0,047952  
95,569000  	23,753412  	34,706893  	25,218440  	357,439972  	80,501658  	74,699163  	0,006523  	0,011730  	0,003958  	0,004239  	0,004451  	-0,000000  	-0,000000  	28,520202  	25,758322  	26,876088  	27,123635  	31,685007  	29,768992  	31,322621  	31,252817  	35,621286  	34,370573  	37,681475  	67,673875  	27,746764  	26,610878  	29,886085  	73,755062  	0,200133  	0,101409  	-4644,013466  	12485,139932  	-0,036457  	-0,050001  	0,383610  	0,194378  	-4,729151  	16644,691900  	55294,330148  	8,019765  	-0,047952  
96,570000  	23,766435  	34,724026  	25,217395  	-242,047242  	80,499784  	74,683880  	0,006532  	0,011673  	0,003963  	0,004208  	0,004496  	0,000000  	-0,000000  	28,516846  	25,756433  	26,881541  	27,125698  	31,691682  	29,766522  	31,322209  	31,250322  	35,625670  	34,373499  	37,671539  	67,675436  	27,753005  	26,628844  	29,884085  	73,759270  	0,175313  	0,088832  	-4069,587502  	-27079,443431  	-0,102791  	-0,050000  	0,419099  	0,212361  	-5,178590  	16522,716866  	55473,420658  	8,045739  	-0,047951  
97,572000  	23,752244  	34,727416  	25,215029  	1256,670793  	80,497378  	74,670093  	0,006534  	0,011707  	0,003959  	0,004220  	0,004459  	-0,000001  	-0,000000  	28,511183  	25,758149  	26,881528  	27,127905  	31,696886  	29,761150  	31,327439  	31,249558  	35,617939  	34,376130  	37,668754  	67,677617  	27,762194  	26,633335  	29,885100  	73,760940  	0,184866  	0,093673  	-4298,239026  	25532,480838  	-0,018528  	-0,050009  	0,389527  	0,197376  	-4,822594  	16595,208165  	55514,367938  	8,051678  	-0,047959  
98,569000  	23,717842  	34,725012  	25,214414  	1256,670793  	80,490441  	74,660549  	0,006530  	0,011699  	0,003967  	0,004202  	0,004479  	0,000001  	-0,000000  	28,514815  	25,759135  	26,880793  	27,118551  	31,690323  	29,758550  	31,327759  	31,243267  	35,612825  	34,373753  	37,674170  	67,676704  	27,770366  	26,628085  	29,886258  	73,755516  	0,170435  	0,086361  	-3974,281835  	25522,624601  	-0,018521  	-0,049988  	0,405320  	0,205379  	-5,020351  	16577,941527  	55428,490921  	8,039223  	-0,047941  
99,571000  	23,713972  	34,720113  	25,213308  	1256,670793  	80,484316  	74,652970  	0,006522  	0,011723  	0,003964  	0,004246  	0,004497  	-0,000001  	-0,000000  	28,506585  	25,745002  	26,875507  	27,116185  	31,681183  	29,756998  	31,320560  	31,239865  	35,614716  	34,370004  	37,664235  	67,666648  	27,762943  	26,624873  	29,886013  	73,749039  	0,206080  	0,104422  	-4805,023724  	25532,560910  	-0,018528  	-0,050009  	0,420231  	0,212934  	-5,206342  	16629,142234  	55255,585929  	8,014145  	-0,047959  
100,571000  	23,750463  	34,716785  	25,213923  	57,696365  	80,484754  	74,647667  	0,006529  	0,011641  	0,003964  	0,004234  	0,004435  	0,000000  	-0,000000  	28,505888  	25,749466  	26,873279  	27,122134  	31,681239  	29,758910  	31,323349  	31,242122  	35,609547  	34,361391  	37,669192  	67,661450  	27,763749  	26,625311  	29,889022  	73,753189  	0,196257  	0,099445  	-4559,418500  	1758,733057  	-0,053823  	-0,049999  	0,370909  	0,187942  	-4,599790  	16453,414027  	55425,892439  	8,038846  	-0,047950  
101,569000  	23,774852  	34,710776  	25,214445  	1256,670793  	80,481223  	74,632852  	0,006537  	0,011715  	0,003962  	0,004232  	0,004431  	0,000000  	-0,000000  	28,517804  	25,757292  	26,876513  	27,118158  	31,696423  	29,769380  	31,332648  	31,255524  	35,625279  	34,375494  	37,675860  	67,667490  	27,774400  	26,645066  	29,888189  	73,753881  	0,194990  	0,098803  	-4517,407480  	25526,510133  	-0,018524  	-0,049996  	0,367399  	0,186164  	-4,565068  	16612,910589  	55581,949662  	8,061480  	-0,047948  
102,570000  	23,784189  	34,702517  	25,214199  	657,183579  	80,477161  	74,622934  	0,006523  	0,011652  	0,003959  	0,004243  	0,004461  	-0,000001  	-0,000000  	28,521916  	25,760419  	26,885334  	27,127916  	31,698640  	29,776059  	31,339115  	31,265299  	35,628620  	34,379918  	37,688121  	67,677637  	27,786959  	26,660163  	29,893561  	73,758722  	0,203721  	0,103227  	-4712,084663  	18448,083893  	-0,027569  	-0,050012  	0,391512  	0,198382  	-4,869538  	16476,461915  	55295,071563  	8,019872  	-0,047962  
103,570000  	23,770736  	34,698912  	25,214937  	657,183579  	80,476973  	74,625273  	0,006528  	0,011720  	0,003962  	0,004207  	0,004456  	0,000000  	-0,000000  	28,508063  	25,755666  	26,878599  	27,120013  	31,695217  	29,766116  	31,326738  	31,255859  	35,619857  	34,376367  	37,675490  	67,670593  	27,788160  	26,657689  	29,884133  	73,760203  	0,174390  	0,088365  	-4037,294312  	18442,663415  	-0,027561  	-0,049995  	0,387401  	0,196299  	-4,816330  	16624,100265  	55386,244400  	8,033096  	-0,047948  
104,569000  	23,747514  	34,703534  	25,215305  	1256,670793  	80,473974  	74,629265  	0,006535  	0,011676  	0,003964  	0,004232  	0,004427  	-0,000001  	-0,000000  	28,507522  	25,745388  	26,874327  	27,108008  	31,688764  	29,762710  	31,320256  	31,246762  	35,616059  	34,366638  	37,666203  	67,661685  	27,783426  	26,651181  	29,872796  	73,733474  	0,194851  	0,098732  	-4522,491293  	25532,615821  	-0,018528  	-0,050010  	0,364612  	0,184752  	-4,527593  	16529,244472  	55539,194742  	8,055279  	-0,047960  
105,568000  	23,752859  	34,710930  	25,215244  	1256,670793  	80,474755  	74,622871  	0,006530  	0,011695  	0,003961  	0,004242  	0,004473  	0,000001  	-0,000000  	28,510449  	25,757081  	26,892722  	27,136296  	31,699053  	29,779411  	31,335327  	31,260953  	35,624482  	34,379187  	37,688451  	67,677495  	27,797139  	26,667442  	29,881430  	73,763145  	0,202435  	0,102575  	-4699,401314  	25524,310112  	-0,018522  	-0,049991  	0,400847  	0,203112  	-4,983652  	16569,798822  	55433,624336  	8,039967  	-0,047944  
106,570000  	23,753719  	34,717832  	25,215551  	1256,670793  	80,479254  	74,618255  	0,006522  	0,011679  	0,003965  	0,004224  	0,004466  	0,000000  	-0,000000  	28,524083  	25,758138  	26,890536  	27,129470  	31,707659  	29,778700  	31,329335  	31,258776  	35,633934  	34,387113  	37,687065  	67,677638  	27,794635  	26,667809  	29,887307  	73,760710  	0,188104  	0,095314  	-4369,131758  	25525,547059  	-0,018523  	-0,049994  	0,395602  	0,200454  	-4,926094  	16534,989642  	55256,680399  	8,014304  	-0,047946  
107,571000  	23,759893  	34,718387  	25,215182  	357,439972  	80,487972  	74,626801  	0,006528  	0,011677  	0,003961  	0,004244  	0,004457  	0,000000  	-0,000000  	28,517954  	25,759525  	26,885337  	27,124926  	31,703144  	29,771559  	31,329156  	31,262248  	35,633464  	34,378165  	37,685876  	67,675090  	27,799950  	26,657995  	29,884300  	73,764233  	0,204209  	0,103474  	-4740,750738  	12484,995413  	-0,036457  	-0,050000  	0,388487  	0,196849  	-4,837650  	16531,652618  	55403,438162  	8,035589  	-0,047951  
108,570000  	23,777278  	34,712717  	25,215736  	-242,047242  	80,488035  	74,628735  	0,006531  	0,011678  	0,003961  	0,004253  	0,004436  	0,000000  	-0,000000  	28,512339  	25,758248  	26,876406  	27,130656  	31,696087  	29,765712  	31,331003  	31,255720  	35,623564  	34,376375  	37,675271  	67,666123  	27,787185  	26,640444  	29,877879  	73,758369  	0,211392  	0,107114  	-4897,191142  	-27079,099670  	-0,102791  	-0,049999  	0,371553  	0,188268  	-4,625297  	16533,594558  	55449,370574  	8,042251  	-0,047951  
109,571000  	23,800469  	34,709605  	25,215459  	1256,670793  	80,489378  	74,617662  	0,006521  	0,011682  	0,003959  	0,004239  	0,004425  	0,000002  	-0,000000  	28,519720  	25,757820  	26,887951  	27,132778  	31,699355  	29,779036  	31,331789  	31,260888  	35,631370  	34,390005  	37,680296  	67,673156  	27,793058  	26,639663  	29,885283  	73,761422  	0,199923  	0,101303  	-4620,354026  	25518,644411  	-0,018518  	-0,049979  	0,362746  	0,183806  	-4,525230  	16541,241343  	55250,325415  	8,013382  	-0,047933  
110,568000  	23,794387  	34,709789  	25,214722  	657,183579  	80,493815  	74,612423  	0,006530  	0,011725  	0,003961  	0,004219  	0,004447  	0,000000  	-0,000000  	28,508099  	25,758782  	26,889317  	27,128840  	31,693417  	29,773345  	31,327940  	31,262285  	35,625855  	34,377864  	37,674646  	67,669755  	27,793834  	26,635023  	29,879372  	73,754874  	0,184249  	0,093360  	-4260,548869  	18443,432977  	-0,027562  	-0,049998  	0,380257  	0,192679  	-4,751487  	16635,160478  	55431,597802  	8,039674  	-0,047949  
111,572000  	23,798258  	34,713950  	25,214445  	657,183579  	80,489285  	74,621436  	0,006532  	0,011693  	0,003962  	0,004216  	0,004407  	0,000001  	-0,000000  	28,509041  	25,762399  	26,889519  	27,126511  	31,701604  	29,767626  	31,326466  	31,258800  	35,628148  	34,377589  	37,674814  	67,671559  	27,797666  	26,630274  	29,883591  	73,756775  	0,181869  	0,092154  	-4205,625941  	18440,848761  	-0,027558  	-0,049990  	0,348251  	0,176461  	-4,341539  	16566,417229  	55492,019578  	8,048437  	-0,047943  
112,568000  	23,790701  	34,721715  	25,213892  	57,696365  	80,490722  	74,629296  	0,006528  	0,011703  	0,003961  	0,004274  	0,004417  	-0,000001  	-0,000000  	28,509052  	25,751016  	26,888469  	27,131372  	31,699403  	29,775077  	31,325983  	31,254672  	35,634505  	34,378796  	37,680963  	67,675235  	27,790620  	26,629466  	29,885817  	73,752930  	0,228291  	0,115677  	-5286,528665  	1759,290808  	-0,053840  	-0,050016  	0,356542  	0,180663  	-4,440049  	16586,912651  	55404,391410  	8,035728  	-0,047965  
113,568000  	23,766405  	34,729419  	25,214015  	956,927186  	80,494878  	74,639714  	0,006526  	0,011680  	0,003960  	0,004222  	0,004474  	0,000001  	-0,000000  	28,520359  	25,753482  	26,891196  	27,138960  	31,700046  	29,779142  	31,326886  	31,256837  	35,636534  	34,385281  	37,684792  	67,670774  	27,795332  	26,632055  	29,884650  	73,755811  	0,186188  	0,094343  	-4324,189978  	22470,902426  	-0,022152  	-0,049987  	0,401992  	0,203692  	-5,000700  	16537,344022  	55350,331680  	8,027887  	-0,047940  
114,570000  	23,758296  	34,732870  	25,213339  	357,439972  	80,500315  	74,635410  	0,006528  	0,011675  	0,003960  	0,004225  	0,004491  	-0,000001  	-0,000000  	28,530777  	25,767394  	26,897659  	27,145937  	31,703179  	29,787563  	31,340432  	31,267750  	35,641775  	34,385772  	37,693091  	67,668251  	27,797083  	26,638451  	29,889851  	73,764746  	0,188606  	0,095568  	-4384,961139  	12488,056162  	-0,036465  	-0,050013  	0,414750  	0,210157  	-5,167985  	16526,694836  	55394,244619  	8,034256  	-0,047963  
115,570000  	23,741985  	34,735181  	25,212233  	1256,670793  	80,501471  	74,635316  	0,006533  	0,011704  	0,003959  	0,004233  	0,004472  	-0,000000  	-0,000000  	28,528185  	25,766288  	26,897400  	27,143552  	31,707240  	29,785553  	31,338617  	31,264741  	35,642642  	34,381730  	37,687864  	67,674052  	27,798018  	26,640410  	29,887038  	73,763643  	0,195281  	0,098950  	-4547,849860  	25530,713253  	-0,018527  	-0,050005  	0,400386  	0,202878  	-4,990064  	16590,145680  	55493,106986  	8,048595  	-0,047956  
116,568000  	23,737009  	34,736106  	25,210819  	57,696365  	80,498971  	74,630388  	0,006522  	0,011651  	0,003962  	0,004219  	0,004463  	0,000002  	-0,000000  	28,527909  	25,765164  	26,894955  	27,135785  	31,708969  	29,781365  	31,339369  	31,267167  	35,641879  	34,388666  	37,690767  	67,680289  	27,799660  	26,641058  	29,885572  	73,766438  	0,183932  	0,093200  	-4285,852906  	1758,243428  	-0,053803  	-0,049977  	0,393263  	0,199269  	-4,903314  	16474,660757  	55276,338483  	8,017155  	-0,047932  
117,569000  	23,735719  	34,731576  	25,209067  	1256,670793  	80,499471  	74,633102  	0,006529  	0,011679  	0,003961  	0,004235  	0,004437  	-0,000000  	-0,000000  	28,531976  	25,768126  	26,896240  	27,136821  	31,701648  	29,781689  	31,341481  	31,272500  	35,643957  	34,392447  	37,695062  	67,679055  	27,800020  	26,643188  	29,890138  	73,770736  	0,196975  	0,099809  	-4588,418399  	25530,236296  	-0,018526  	-0,050004  	0,372282  	0,188638  	-4,639975  	16535,629173  	55407,371191  	8,036160  	-0,047955  
118,580000  	23,690321  	34,725721  	25,208945  	657,183579  	80,501346  	74,635722  	0,006529  	0,011706  	0,003962  	0,004225  	0,004445  	-0,000001  	-0,000000  	28,529293  	25,766763  	26,894286  	27,136746  	31,698823  	29,780882  	31,341446  	31,269674  	35,637087  	34,390069  	37,692449  	67,676165  	27,800584  	26,643090  	29,887505  	73,773540  	0,188865  	0,095699  	-4415,344804  	18447,267243  	-0,027567  	-0,050009  	0,378548  	0,191813  	-4,717476  	16592,492279  	55426,443204  	8,038926  	-0,047959  
119,569000  	23,647289  	34,718880  	25,208115  	657,183579  	80,504033  	74,628891  	0,006526  	0,011691  	0,003961  	0,004187  	0,004458  	0,000000  	-0,000000  	28,528251  	25,769287  	26,894327  	27,137855  	31,709434  	29,780558  	31,343901  	31,271164  	35,634698  	34,393365  	37,692409  	67,677782  	27,803838  	26,645380  	29,889044  	73,779238  	0,158015  	0,080067  	-3706,231786  	18443,840717  	-0,027562  	-0,049998  	0,389325  	0,197274  	-4,859639  	16561,965270  	55345,692541  	8,027214  	-0,047950  
120,570000  	23,628737  	34,711299  	25,207070  	1256,670793  	80,505783  	74,628579  	0,006522  	0,011673  	0,003964  	0,004257  	0,004445  	-0,000000  	-0,000000  	28,528440  	25,772906  	26,896796  	27,137285  	31,712369  	29,782731  	31,338642  	31,269734  	35,641951  	34,393567  	37,687782  	67,673523  	27,803088  	26,645440  	29,894853  	73,780388  	0,214921  	0,108902  	-5045,971657  	25529,708410  	-0,018526  	-0,050003  	0,378900  	0,191991  	-4,731175  	16522,469260  	55274,657942  	8,016911  	-0,047954  
121,569000  	23,621242  	34,704828  	25,205872  	1256,670793  	80,508408  	74,634318  	0,006527  	0,011686  	0,003958  	0,004220  	0,004457  	0,000001  	-0,000000  	28,529690  	25,773275  	26,897742  	27,134778  	31,707562  	29,790317  	31,337633  	31,266851  	35,640916  	34,392284  	37,686790  	67,668948  	27,800873  	26,642254  	29,892422  	73,781509  	0,184491  	0,093483  	-4331,937098  	25524,825004  	-0,018522  	-0,049992  	0,387835  	0,196519  	-4,840175  	16550,851999  	55369,636709  	8,030687  	-0,047945  
122,569000  	23,625788  	34,692933  	25,204827  	1256,670793  	80,514157  	74,634692  	0,006539  	0,011621  	0,003960  	0,004169  	0,004485  	0,000001  	-0,000000  	28,537836  	25,773991  	26,905479  	27,146564  	31,712037  	29,796542  	31,344949  	31,275950  	35,642379  	34,400259  	37,692329  	67,676898  	27,807715  	26,648293  	29,892123  	73,780717  	0,143809  	0,072869  	-3371,684764  	25522,441662  	-0,018520  	-0,049987  	0,410521  	0,208014  	-5,127987  	16411,058519  	55635,020840  	8,069178  	-0,047940  
123,572000  	23,645139  	34,677125  	25,204182  	1256,670793  	80,515063  	74,639402  	0,006523  	0,011777  	0,003964  	0,004223  	0,004477  	-0,000000  	-0,000000  	28,528113  	25,768439  	26,904975  	27,138400  	31,709500  	29,787282  	31,340380  	31,270588  	35,642857  	34,400765  	37,684481  	67,676515  	27,803640  	26,648396  	29,883538  	73,768457  	0,187021  	0,094765  	-4370,887309  	25530,557268  	-0,018526  	-0,050004  	0,403834  	0,204626  	-5,041196  	16745,888533  	55285,496721  	8,018483  	-0,047955  
124,570000  	23,649807  	34,661594  	25,202952  	57,696365  	80,511126  	74,637281  	0,006533  	0,011665  	0,003960  	0,004262  	0,004448  	-0,000000  	-0,000000  	28,532340  	25,777876  	26,902559  	27,144106  	31,710450  	29,787094  	31,340358  	31,269117  	35,643748  	34,394031  	37,691362  	67,678115  	27,799267  	26,652751  	29,883582  	73,776501  	0,219021  	0,110979  	-5109,378890  	1759,513682  	-0,053829  	-0,050004  	0,381356  	0,193236  	-4,759120  	16504,336000  	55495,331231  	8,048917  	-0,047955  
125,567000  	23,646060  	34,653120  	25,203383  	956,927186  	80,511032  	74,638778  	0,006532  	0,011661  	0,003964  	0,004222  	0,004477  	0,000000  	-0,000000  	28,539049  	25,774092  	26,897644  	27,141309  	31,704732  	29,790847  	31,339501  	31,272367  	35,643294  	34,388236  	37,697003  	67,672686  	27,807519  	26,667884  	29,882147  	73,774807  	0,186466  	0,094484  	-4348,063318  	22475,256420  	-0,022156  	-0,049997  	0,403968  	0,204694  	-5,039948  	16497,422129  	55475,313031  	8,046014  	-0,047948  
126,569000  	23,671615  	34,644739  	25,202276  	-242,047242  	80,512157  	74,640400  	0,006531  	0,011703  	0,003959  	0,004254  	0,004441  	-0,000000  	-0,000000  	28,539554  	25,768108  	26,901906  	27,135332  	31,692216  	29,780734  	31,342059  	31,266156  	35,640763  	34,387457  	37,691289  	67,674344  	27,811321  	26,678323  	29,874921  	73,769770  	0,212498  	0,107674  	-4939,798033  	-27079,276651  	-0,102797  	-0,050000  	0,375218  	0,190125  	-4,680859  	16587,749560  	55457,561443  	8,043439  	-0,047952  
127,568000  	23,688939  	34,639562  	25,202737  	657,183579  	80,512907  	74,639652  	0,006525  	0,011692  	0,003957  	0,004235  	0,004445  	-0,000001  	-0,000000  	28,536480  	25,768539  	26,901556  	27,146528  	31,711643  	29,787749  	31,336985  	31,267072  	35,643456  	34,398082  	37,691013  	67,674691  	27,817475  	26,680504  	29,888502  	73,774091  	0,196732  	0,099685  	-4563,916612  	18447,901186  	-0,027568  	-0,050010  	0,379065  	0,192075  	-4,730063  	16563,563391  	55324,897621  	8,024198  	-0,047960  
128,569000  	23,673090  	34,638452  	25,202184  	1256,670793  	80,515845  	74,644891  	0,006528  	0,011676  	0,003961  	0,004225  	0,004383  	0,000000  	-0,000000  	28,531990  	25,769679  	26,896086  	27,137523  	31,698955  	29,783300  	31,337055  	31,264670  	35,639438  	34,391170  	37,685795  	67,670336  	27,831165  	26,685568  	29,886956  	73,766445  	0,189323  	0,095931  	-4397,960893  	25526,423208  	-0,018523  	-0,049995  	0,329517  	0,166969  	-4,110186  	16529,651253  	55386,639821  	8,033153  	-0,047947  
129,573000  	23,664059  	34,640856  	25,201478  	57,696365  	80,519001  	74,643394  	0,006536  	0,011672  	0,003960  	0,004229  	0,004454  	-0,000001  	-0,000000  	28,546483  	25,781610  	26,900857  	27,138869  	31,706501  	29,778553  	31,345971  	31,278759  	35,646545  	34,392652  	37,688641  	67,677315  	27,835721  	26,682105  	29,901633  	73,764978  	0,192556  	0,097569  	-4477,718397  	1759,786755  	-0,053835  	-0,050010  	0,385514  	0,195343  	-4,812469  	16519,206518  	55577,296402  	8,060805  	-0,047960  
130,570000  	23,654353  	34,646218  	25,201109  	657,183579  	80,518563  	74,636345  	0,006519  	0,011706  	0,003962  	0,004174  	0,004467  	0,000002  	-0,000000  	28,536440  	25,775303  	26,900159  	27,137287  	31,712187  	29,798942  	31,339697  	31,274322  	35,647388  	34,389545  	37,689821  	67,675035  	27,841770  	26,698995  	29,887173  	73,762700  	0,147798  	0,074890  	-3441,635758  	18438,562778  	-0,027554  	-0,049981  	0,396327  	0,200822  	-4,953000  	16592,444173  	55202,846623  	8,006496  	-0,047935  
131,571000  	23,634173  	34,652966  	25,201385  	657,183579  	80,514126  	74,633413  	0,006530  	0,011682  	0,003966  	0,004208  	0,004463  	-0,000001  	-0,000000  	28,525664  	25,769800  	26,901619  	27,128617  	31,704472  	29,774860  	31,329178  	31,264998  	35,646323  	34,387793  	37,680287  	67,676192  	27,839049  	26,680149  	29,896395  	73,748417  	0,175469  	0,088911  	-4095,991596  	18447,510227  	-0,027568  	-0,050008  	0,393156  	0,199215  	-4,912117  	16542,103720  	55442,224748  	8,041215  	-0,047959  
132,568000  	23,595657  	34,652720  	25,201078  	1256,670793  	80,511314  	74,636844  	0,006535  	0,011698  	0,003957  	0,004207  	0,004456  	-0,000001  	-0,000000  	28,532114  	25,776930  	26,902235  	27,138072  	31,698044  	29,779759  	31,339353  	31,260989  	35,632904  	34,386429  	37,688929  	67,665980  	27,836508  	26,684238  	29,897166  	73,757116  	0,174678  	0,088511  	-4091,713162  	25533,538670  	-0,018528  	-0,050011  	0,387789  	0,196496  	-4,839922  	16575,647279  	55549,299167  	8,056745  	-0,047961  
133,569000  	23,586105  	34,650285  	25,201662  	57,696365  	80,505096  	74,640026  	0,006533  	0,011657  	0,003964  	0,004218  	0,004400  	0,000000  	-0,000000  	28,518530  	25,766944  	26,885819  	27,130076  	31,690898  	29,773733  	31,327016  	31,259636  	35,640828  	34,388977  	37,684803  	67,675156  	27,834626  	26,685596  	29,887398  	73,748545  	0,183266  	0,092862  	-4295,654278  	1759,277132  	-0,053819  	-0,049994  	0,342914  	0,173757  	-4,273000  	16488,103649  	55492,838665  	8,048556  	-0,047946  
134,569000  	23,634941  	34,646711  	25,201355  	1256,670793  	80,500096  	74,635098  	0,006525  	0,011680  	0,003960  	0,004279  	0,004483  	-0,000001  	-0,000000  	28,522833  	25,776237  	26,903920  	27,138339  	31,705103  	29,778490  	31,335637  	31,275755  	35,644057  	34,393306  	37,685850  	67,673856  	27,833695  	26,692827  	29,897490  	73,758632  	0,233040  	0,118083  	-5436,415433  	25532,866051  	-0,018528  	-0,050009  	0,408407  	0,206943  	-5,089033  	16537,098539  	55320,286727  	8,023529  	-0,047959  
135,573000  	23,671615  	34,639315  	25,201539  	1256,670793  	80,500221  	74,635784  	0,006528  	0,011712  	0,003961  	0,004239  	0,004417  	-0,000000  	-0,000000  	28,511848  	25,755211  	26,883363  	27,122732  	31,683237  	29,768455  	31,327955  	31,262355  	35,629999  	34,374458  	37,673507  	67,668018  	27,821707  	26,683451  	29,885194  	73,740661  	0,200001  	0,101342  	-4647,003635  	25530,362488  	-0,018526  	-0,050004  	0,356152  	0,180465  	-4,437471  	16607,333791  	55394,858934  	8,034345  	-0,047955  
136,567000  	23,689738  	34,624524  	25,201355  	57,696365  	80,497909  	74,639464  	0,006533  	0,011719  	0,003963  	0,004235  	0,004424  	0,000001  	-0,000000  	28,516591  	25,756278  	26,884835  	27,123761  	31,690789  	29,773559  	31,326228  	31,254428  	35,633102  	34,378992  	37,666387  	67,668941  	27,822582  	26,693281  	29,888823  	73,745916  	0,197323  	0,099985  	-4571,016124  	1758,998369  	-0,053810  	-0,049984  	0,362165  	0,183512  	-4,507782  	16621,128991  	55505,033173  	8,050324  	-0,047938  
137,568000  	23,690106  	34,612845  	25,202522  	1256,670793  	80,501065  	74,626209  	0,006524  	0,011664  	0,003961  	0,004237  	0,004467  	-0,000001  	-0,000000  	28,512154  	25,750188  	26,875915  	27,111805  	31,681030  	29,765334  	31,325114  	31,241446  	35,628248  	34,376290  	37,658910  	67,669209  	27,813167  	26,694772  	29,882651  	73,746398  	0,198396  	0,100529  	-4590,810408  	25532,177639  	-0,018527  	-0,050008  	0,396201  	0,200758  	-4,945227  	16502,070050  	55310,740129  	8,022145  	-0,047958  
138,570000  	23,664059  	34,617714  	25,202031  	657,183579  	80,503314  	74,630201  	0,006529  	0,011658  	0,003963  	0,004228  	0,004466  	0,000000  	-0,000000  	28,518156  	25,755819  	26,882776  	27,123636  	31,694515  	29,769290  	31,336493  	31,260880  	35,626776  	34,378273  	37,664361  	67,673704  	27,819939  	26,696521  	29,886874  	73,745573  	0,191451  	0,097010  	-4442,656102  	18443,993942  	-0,027562  	-0,049998  	0,394978  	0,200138  	-4,928500  	16489,722993  	55408,889326  	8,036380  	-0,047950  
139,567000  	23,645630  	34,627606  	25,202492  	-242,047242  	80,506408  	74,621249  	0,006534  	0,011757  	0,003963  	0,004242  	0,004446  	0,000000  	-0,000000  	28,518175  	25,754271  	26,882934  	27,119945  	31,692418  	29,765241  	31,328322  	31,255663  	35,625864  	34,368719  	37,668563  	67,669610  	27,811849  	26,691969  	29,889068  	73,747971  	0,202507  	0,102612  	-4711,346922  	-27076,762703  	-0,102787  	-0,049995  	0,379770  	0,192432  	-4,748449  	16703,511802  	55533,376401  	8,054435  	-0,047947  
140,567000  	23,673274  	34,639438  	25,202184  	956,927186  	80,510408  	74,621000  	0,006535  	0,011685  	0,003962  	0,004219  	0,004497  	-0,000001  	-0,000000  	28,511768  	25,744601  	26,878992  	27,120498  	31,686513  	29,754432  	31,324279  	31,253718  	35,622320  	34,372266  	37,670048  	67,666411  	27,793104  	26,689122  	29,885935  	73,752436  	0,183954  	0,093211  	-4273,543688  	22481,324652  	-0,022162  	-0,050012  	0,419708  	0,212669  	-5,251604  	16547,287178  	55550,379514  	8,056901  	-0,047961  
141,571000  	23,714064  	34,645355  	25,201816  	57,696365  	80,512501  	74,631604  	0,006528  	0,011687  	0,003962  	0,004198  	0,004449  	0,000001  	-0,000000  	28,508600  	25,753153  	26,883555  	27,122712  	31,693366  	29,759976  	31,325550  	31,255952  	35,627449  	34,378499  	37,674000  	67,676017  	27,786050  	26,690241  	29,891624  	73,756611  	0,166919  	0,084579  	-3865,451231  	1759,110570  	-0,053814  	-0,049989  	0,381908  	0,193515  	-4,771729  	16552,648912  	55385,757185  	8,033025  	-0,047942  
142,566000  	23,732740  	34,640116  	25,201631  	657,183579  	80,512001  	74,639028  	0,006530  	0,011643  	0,003963  	0,004229  	0,004496  	0,000001  	-0,000000  	28,508436  	25,756326  	26,879537  	27,120168  	31,689843  	29,758636  	31,327166  	31,249748  	35,628798  	34,372607  	37,661934  	67,674984  	27,782191  	26,685991  	29,889628  	73,751945  	0,192506  	0,097544  	-4448,245524  	18441,763354  	-0,027559  	-0,049991  	0,419255  	0,212440  	-5,231315  	16457,996156  	55439,209661  	8,040778  	-0,047944  
143,568000  	23,718641  	34,637343  	25,201078  	657,183579  	80,516282  	74,640930  	0,006539  	0,011688  	0,003960  	0,004245  	0,004423  	-0,000000  	-0,000000  	28,508622  	25,750815  	26,874464  	27,121808  	31,686232  	29,755782  	31,325958  	31,245971  	35,627740  	34,368374  	37,663974  	67,671050  	27,781204  	26,683234  	29,884033  	73,748748  	0,205114  	0,103933  	-4744,504102  	18446,121261  	-0,027565  	-0,050004  	0,361583  	0,183217  	-4,513526  	16554,873123  	55638,445470  	8,069674  	-0,047955  
144,568000  	23,728532  	34,646033  	25,201262  	57,696365  	80,521219  	74,642116  	0,006527  	0,011667  	0,003962  	0,004240  	0,004449  	-0,000000  	-0,000000  	28,502652  	25,748370  	26,876355  	27,118837  	31,681734  	29,754999  	31,323195  	31,244883  	35,620737  	34,370032  	37,669143  	67,673762  	27,774936  	26,680718  	29,887475  	73,751028  	0,200681  	0,101686  	-4641,430227  	1759,565249  	-0,053827  	-0,050002  	0,381480  	0,193299  	-4,764939  	16508,652129  	55370,914767  	8,030872  	-0,047953  
145,630000  	23,756668  	34,657373  	25,200894  	1256,670793  	80,518344  	74,640556  	0,006529  	0,011703  	0,003963  	0,004209  	0,004519  	-0,000001  	-0,000000  	28,497399  	25,747058  	26,876629  	27,109765  	31,674965  	29,754059  	31,322706  	31,243688  	35,616158  	34,372883  	37,663557  	67,670961  	27,767393  	26,675157  	29,889306  	73,748310  	0,176282  	0,089323  	-4070,850449  	25533,133366  	-0,018528  	-0,050010  	0,437282  	0,221574  	-5,460718  	16586,558221  	55425,179269  	8,038743  	-0,047960  
146,569000  	23,768463  	34,666802  	25,199542  	1256,670793  	80,514532  	74,643800  	0,006533  	0,011663  	0,003963  	0,004216  	0,004474  	-0,000001  	-0,000000  	28,503687  	25,745323  	26,875164  	27,106036  	31,678000  	29,753874  	31,320558  	31,246632  	35,615564  	34,372179  	37,663821  	67,670003  	27,768138  	26,670468  	29,888397  	73,747335  	0,181395  	0,091914  	-4188,017429  	25531,711531  	-0,018527  	-0,050007  	0,401491  	0,203438  	-5,007747  	16500,619786  	55512,397893  	8,051393  	-0,047957  
147,582000  	23,763302  	34,670500  	25,199818  	357,439972  	80,514063  	74,646046  	0,006533  	0,011662  	0,003961  	0,004256  	0,004464  	-0,000000  	-0,000001  	28,509560  	25,743992  	26,871914  	27,108366  	31,678889  	29,749351  	31,318574  	31,245789  	35,612148  	34,367168  	37,659215  	67,676522  	27,762910  	26,662305  	29,886788  	73,753688  	0,214031  	0,108451  	-4945,519859  	12486,944980  	-0,036461  	-0,050005  	0,393952  	0,199618  	-4,911445  	16498,719585  	55497,689636  	8,049259  	-0,047956  
148,568000  	23,772149  	34,675615  	25,199388  	-242,047242  	80,513189  	74,643613  	0,006521  	0,011670  	0,003963  	0,004261  	0,004468  	-0,000000  	-0,000000  	28,507761  	25,747130  	26,872827  	27,113257  	31,678185  	29,753433  	31,322356  	31,241268  	35,621896  	34,368367  	37,656824  	67,674603  	27,759612  	26,654656  	29,880705  	73,753345  	0,217866  	0,110394  	-5032,410205  	-27079,942524  	-0,102800  	-0,050002  	0,396863  	0,201093  	-4,949053  	16515,565293  	55245,396772  	8,012667  	-0,047953  
149,568000  	23,788275  	34,688280  	25,198343  	57,696365  	80,512501  	74,649196  	0,006532  	0,011705  	0,003961  	0,004207  	0,004430  	-0,000001  	-0,000000  	28,508348  	25,749314  	26,880026  	27,113189  	31,681739  	29,758805  	31,323959  	31,244521  	35,619463  	34,370458  	37,658003  	67,670415  	27,767457  	26,651463  	29,886706  	73,753599  	0,174563  	0,088453  	-4030,894914  	1760,071285  	-0,053838  	-0,050013  	0,367130  	0,186027  	-4,573375  	16591,341971  	55483,143784  	8,047150  	-0,047963  
150,570000  	23,791469  	34,698080  	25,197852  	657,183579  	80,510376  	74,643332  	0,006537  	0,011627  	0,003960  	0,004252  	0,004463  	-0,000000  	-0,000000  	28,509723  	25,751356  	26,875305  	27,118083  	31,686392  	29,769878  	31,324230  	31,246314  	35,619002  	34,373563  	37,668783  	67,680198  	27,772704  	26,646436  	29,896131  	73,764825  	0,211190  	0,107011  	-4879,599138  	18445,462832  	-0,027564  	-0,050002  	0,392647  	0,198957  	-4,894358  	16423,762837  	55585,783836  	8,062036  	-0,047953  
151,574000  	23,752214  	34,703719  	25,196838  	-242,047242  	80,511782  	74,640494  	0,006520  	0,011688  	0,003963  	0,004213  	0,004412  	0,000000  	-0,000000  	28,507115  	25,751388  	26,884997  	27,123095  	31,690538  	29,766621  	31,328609  	31,255599  	35,618968  	34,377324  	37,676024  	67,680648  	27,775578  	26,646687  	29,898622  	73,756182  	0,178807  	0,090603  	-4148,403919  	-27078,202103  	-0,102795  	-0,049998  	0,352269  	0,178497  	-4,394221  	16553,723523  	55233,265813  	8,010908  	-0,047950  
152,569000  	23,699505  	34,710128  	25,197022  	-242,047242  	80,513220  	74,644486  	0,006529  	0,011710  	0,003957  	0,004280  	0,004449  	-0,000000  	-0,000000  	28,497998  	25,741288  	26,871044  	27,108813  	31,682076  	29,749872  	31,314343  	31,241886  	35,611669  	34,359701  	37,661356  	67,666740  	27,766111  	26,627371  	29,887778  	73,751163  	0,233361  	0,118246  	-5443,320054  	-27080,581550  	-0,102804  	-0,050003  	0,382070  	0,193597  	-4,763888  	16601,195281  	55409,906124  	8,036527  	-0,047954  
153,569000  	23,628890  	34,717709  	25,196008  	1256,670793  	80,507689  	74,649133  	0,006533  	0,011653  	0,003960  	0,004220  	0,004464  	0,000001  	-0,000000  	28,499099  	25,748089  	26,880579  	27,115694  	31,687910  	29,764419  	31,319898  	31,242439  	35,623510  	34,367112  	37,658467  	67,677149  	27,762505  	26,626249  	29,889910  	73,753536  	0,185146  	0,093815  	-4349,370980  	25524,970723  	-0,018522  	-0,049992  	0,394063  	0,199675  	-4,904909  	16480,167518  	55504,680118  	8,050273  	-0,047944  
154,574000  	23,614946  	34,719250  	25,196315  	1256,670793  	80,503627  	74,650942  	0,006529  	0,011733  	0,003963  	0,004243  	0,004454  	0,000001  	-0,000000  	28,500878  	25,749191  	26,881196  	27,117085  	31,678732  	29,761861  	31,313712  	31,247549  	35,614951  	34,370523  	37,659142  	67,672474  	27,757020  	26,613923  	29,894117  	73,754825  	0,203160  	0,102943  	-4779,216924  	25523,078216  	-0,018521  	-0,049987  	0,385653  	0,195413  	-4,795419  	16651,832861  	55414,573506  	8,037204  	-0,047941  
155,568000  	23,642313  	34,713056  	25,195670  	357,439972  	80,502190  	74,645453  	0,006526  	0,011723  	0,003959  	0,004265  	0,004466  	0,000001  	-0,000000  	28,512477  	25,745976  	26,883905  	27,124158  	31,682887  	29,760780  	31,328546  	31,244092  	35,618314  	34,368540  	37,668300  	67,676347  	27,753555  	26,615088  	29,877149  	73,759170  	0,221608  	0,112290  	-5197,413889  	12483,492974  	-0,036450  	-0,049989  	0,395376  	0,200340  	-4,919721  	16629,382765  	55341,710085  	8,026636  	-0,047942  
156,568000  	23,672783  	34,694813  	25,196161  	-242,047242  	80,500752  	74,642521  	0,006532  	0,011671  	0,003962  	0,004226  	0,004411  	-0,000000  	-0,000000  	28,507453  	25,740939  	26,874036  	27,117384  	31,682744  	29,755982  	31,315831  	31,238445  	35,604579  	34,362690  	37,667551  	67,666367  	27,752577  	26,598190  	29,891602  	73,745760  	0,189848  	0,096197  	-4432,935071  	-27079,705070  	-0,102801  	-0,050001  	0,351948  	0,178335  	-4,380463  	16517,444977  	55481,837481  	8,046960  	-0,047953  
157,570000  	23,698184  	34,667018  	25,196653  	956,927186  	80,502346  	74,638872  	0,006537  	0,011723  	0,003962  	0,004262  	0,004444  	-0,000000  	-0,000000  	28,506523  	25,753837  	26,878708  	27,110085  	31,695188  	29,760105  	31,316738  	31,246538  	35,621545  	34,371674  	37,668006  	67,676220  	27,762700  	26,599342  	29,881959  	73,751578  	0,218958  	0,110948  	-5087,976537  	22477,776742  	-0,022159  	-0,050002  	0,378140  	0,191606  	-4,710659  	16629,226420  	55580,622177  	8,061288  	-0,047953  
158,570000  	23,704389  	34,652658  	25,196407  	357,439972  	80,508095  	74,640057  	0,006523  	0,011681  	0,003958  	0,004216  	0,004432  	0,000000  	-0,000000  	28,523921  	25,746276  	26,878030  	27,123772  	31,693413  	29,768004  	31,324185  	31,254228  	35,624819  	34,377365  	37,667082  	67,689069  	27,764196  	26,601061  	29,892269  	73,759692  	0,181600  	0,092018  	-4211,978187  	12484,966643  	-0,036455  	-0,049995  	0,368372  	0,186657  	-4,592556  	16539,810887  	55294,605531  	8,019804  	-0,047948  
159,567000  	23,714433  	34,649145  	25,197514  	1256,670793  	80,511251  	74,638747  	0,006532  	0,011706  	0,003964  	0,004240  	0,004430  	-0,000002  	-0,000000  	28,510076  	25,744713  	26,877778  	27,112470  	31,685736  	29,751456  	31,316714  	31,245887  	35,618010  	34,363077  	37,661987  	67,675367  	27,759155  	26,600261  	29,878945  	73,748685  	0,201301  	0,102001  	-4663,115680  	25537,660452  	-0,018531  	-0,050019  	0,367123  	0,186024  	-4,580458  	16593,355363  	55480,552362  	8,046774  	-0,047968  
160,569000  	23,715907  	34,649576  	25,198251  	57,696365  	80,512626  	74,631511  	0,006533  	0,011669  	0,003961  	0,004245  	0,004460  	0,000001  	-0,000000  	28,503404  	25,741213  	26,864725  	27,108333  	31,674318  	29,752875  	31,306812  	31,240225  	35,609503  	34,363157  	37,651619  	67,662800  	27,753550  	26,590965  	29,872194  	73,746223  	0,204955  	0,103852  	-4747,310168  	1759,092164  	-0,053808  	-0,049982  	0,390244  	0,197740  	-4,876071  	16513,233550  	55506,113520  	8,050481  	-0,047936  
161,568000  	23,686820  	34,654322  	25,199480  	1256,670793  	80,512626  	74,629484  	0,006534  	0,011698  	0,003958  	0,004241  	0,004484  	-0,000000  	-0,000000  	28,507731  	25,742730  	26,883438  	27,118534  	31,686126  	29,763149  	31,313879  	31,251295  	35,620500  	34,375813  	37,668614  	67,672132  	27,757452  	26,592190  	29,876418  	73,751817  	0,202293  	0,102503  	-4700,156696  	25531,434973  	-0,018527  	-0,050006  	0,409212  	0,207351  	-5,114834  	16577,096129  	55528,920852  	8,053789  	-0,047957  
162,569000  	23,683625  	34,659314  	25,200648  	1256,670793  	80,512189  	74,635597  	0,006521  	0,011675  	0,003961  	0,004276  	0,004458  	0,000001  	-0,000000  	28,504802  	25,744920  	26,875051  	27,117111  	31,678621  	29,761877  	31,314334  	31,247345  	35,618467  	34,366168  	37,668921  	67,672327  	27,757688  	26,590179  	29,875625  	73,743347  	0,230268  	0,116679  	-5354,142828  	25525,298972  	-0,018522  	-0,049993  	0,389083  	0,197151  	-4,857827  	16526,223676  	55249,859383  	8,013315  	-0,047945  
163,570000  	23,659391  	34,666710  	25,200556  	1256,670793  	80,513720  	74,638747  	0,006532  	0,011707  	0,003960  	0,004216  	0,004453  	0,000002  	-0,000000  	28,500026  	25,744539  	26,876092  	27,114413  	31,685781  	29,760432  	31,319145  	31,243970  	35,623545  	34,370028  	37,675464  	67,675154  	27,749375  	26,595224  	29,883805  	73,747648  	0,181451  	0,091943  	-4231,231961  	25519,644990  	-0,018518  	-0,049980  	0,385313  	0,195241  	-4,809431  	16594,867883  	55473,992607  	8,045822  	-0,047934  
164,567000  	23,637583  	34,670962  	25,200556  	1256,670793  	80,515220  	74,641804  	0,006534  	0,011711  	0,003960  	0,004245  	0,004481  	-0,000000  	-0,000000  	28,513225  	25,747261  	26,876719  	27,120785  	31,697902  	29,760222  	31,321248  	31,253289  	35,630744  	34,375643  	37,673152  	67,683254  	27,746433  	26,600626  	29,893764  	73,749889  	0,205096  	0,103924  	-4793,924379  	25531,164568  	-0,018527  	-0,050005  	0,407127  	0,206294  	-5,080363  	16603,323987  	55523,978086  	8,053072  	-0,047956  
165,568000  	23,626003  	34,666617  	25,199634  	956,927186  	80,518282  	74,640026  	0,006525  	0,011653  	0,003962  	0,004253  	0,004447  	0,000000  	-0,000000  	28,511104  	25,748518  	26,875326  	27,115313  	31,693600  	29,759850  	31,321536  	31,251489  	35,622192  	34,359847  	37,669972  	67,680381  	27,750061  	26,602046  	29,889100  	73,748432  	0,211475  	0,107156  	-4946,283031  	22476,368559  	-0,022158  	-0,049999  	0,380510  	0,192807  	-4,752134  	16478,715838  	55326,218046  	8,024390  	-0,047951  
166,573000  	23,630488  	34,665569  	25,199265  	-242,047242  	80,519407  	74,636844  	0,006527  	0,011640  	0,003961  	0,004259  	0,004422  	-0,000002  	-0,000000  	28,505142  	25,745786  	26,870923  	27,112753  	31,686209  	29,759993  	31,319258  	31,249232  	35,614975  	34,362718  	37,666894  	67,674777  	27,741433  	26,601073  	29,884457  	73,749492  	0,216798  	0,109853  	-5068,226862  	-27088,669116  	-0,102833  	-0,050020  	0,360255  	0,182544  	-4,502470  	16451,623481  	55365,866085  	8,030140  	-0,047968  
167,568000  	23,647442  	34,656972  	25,198343  	657,183579  	80,518782  	74,645671  	0,006531  	0,011739  	0,003964  	0,004226  	0,004481  	0,000000  	-0,000000  	28,506202  	25,745631  	26,872047  	27,113186  	31,678747  	29,761713  	31,319077  	31,245866  	35,614665  	34,366934  	37,665026  	67,672083  	27,739769  	26,604300  	29,881391  	73,750666  	0,189944  	0,096246  	-4430,169912  	18444,609898  	-0,027563  	-0,049999  	0,407586  	0,206527  	-5,085832  	16664,052578  	55460,823668  	8,043912  	-0,047951  
168,569000  	23,648364  	34,645632  	25,198835  	1256,670793  	80,517469  	74,647979  	0,006529  	0,011675  	0,003960  	0,004191  	0,004419  	0,000001  	-0,000000  	28,507517  	25,750306  	26,876104  	27,116782  	31,678550  	29,764404  	31,322388  	31,248659  	35,622507  	34,370304  	37,666069  	67,678894  	27,745110  	26,606275  	29,881285  	73,757150  	0,161418  	0,081792  	-3760,647409  	25525,004384  	-0,018522  	-0,049992  	0,358457  	0,181633  	-4,470054  	16526,156469  	55426,852748  	8,038985  	-0,047944  
169,568000  	23,661571  	34,635956  	25,198589  	956,927186  	80,513876  	74,641866  	0,006517  	0,011659  	0,003960  	0,004230  	0,004454  	0,000000  	-0,000000  	28,499055  	25,738374  	26,870231  	27,109796  	31,674987  	29,758901  	31,313664  	31,243527  	35,619478  	34,363358  	37,657477  	67,671904  	27,741536  	26,593797  	29,871537  	73,750908  	0,192757  	0,097671  	-4481,417312  	22475,946073  	-0,022157  	-0,049998  	0,386016  	0,195597  	-4,815777  	16492,440293  	55158,206392  	8,000021  	-0,047950  
170,568000  	23,690137  	34,634600  	25,198650  	-242,047242  	80,513126  	74,640868  	0,006532  	0,011678  	0,003964  	0,004256  	0,004496  	-0,000000  	-0,000000  	28,499508  	25,737943  	26,874449  	27,108156  	31,679295  	29,753622  	31,311585  	31,240352  	35,614781  	34,359205  	37,656966  	67,668070  	27,740357  	26,592507  	29,873116  	73,749654  	0,213837  	0,108353  	-4957,936549  	-27081,418440  	-0,102806  	-0,050005  	0,419273  	0,212449  	-5,230900  	16533,984361  	55475,129443  	8,045987  	-0,047955  
171,569000  	23,717228  	34,635710  	25,198650  	-242,047242  	80,512220  	74,640431  	0,006538  	0,011717  	0,003960  	0,004250  	0,004443  	0,000001  	-0,000000  	28,504789  	25,751305  	26,884514  	27,116636  	31,684428  	29,755902  	31,320346  	31,244194  	35,620188  	34,363794  	37,668782  	67,673928  	27,737459  	26,594635  	29,880298  	73,754407  	0,208950  	0,105877  	-4833,128134  	-27074,797225  	-0,102781  	-0,049991  	0,377222  	0,191141  	-4,705894  	16617,644112  	55618,166010  	8,066733  	-0,047944  
172,573000  	23,744565  	34,634724  	25,197852  	956,927186  	80,512720  	74,638622  	0,006524  	0,011695  	0,003962  	0,004259  	0,004465  	-0,000001  	-0,000000  	28,500113  	25,747317  	26,875708  	27,112473  	31,671023  	29,759535  	31,314747  	31,238506  	35,617793  	34,361196  	37,667341  	67,665758  	27,728347  	26,580245  	29,876330  	73,745510  	0,216212  	0,109556  	-4988,121404  	22481,383469  	-0,022162  	-0,050011  	0,394280  	0,199785  	-4,920626  	16570,008226  	55298,460888  	8,020364  	-0,047961  
173,569000  	23,779643  	34,637127  	25,197145  	57,696365  	80,515313  	74,638965  	0,006526  	0,011690  	0,003961  	0,004259  	0,004479  	-0,000000  	-0,000000  	28,499986  	25,742931  	26,867069  	27,105907  	31,667428  	29,762991  	31,312446  	31,235543  	35,613883  	34,362083  	37,663392  	67,662121  	27,729662  	26,575176  	29,882629  	73,748077  	0,216348  	0,109625  	-4976,279339  	1759,743512  	-0,053826  	-0,050000  	0,405703  	0,205573  	-5,065125  	16559,303858  	55359,094496  	8,029158  	-0,047952  
174,572000  	23,808578  	34,644461  	25,196100  	1256,670793  	80,515813  	74,641461  	0,006531  	0,011699  	0,003962  	0,004199  	0,004429  	-0,000000  	-0,000000  	28,499500  	25,739862  	26,866597  	27,102195  	31,674441  	29,755524  	31,317905  	31,236468  	35,614951  	34,363224  	37,663413  	67,669379  	27,729168  	26,574903  	29,879711  	73,754614  	0,167865  	0,085058  	-3853,415176  	25529,562881  	-0,018526  	-0,050002  	0,365707  	0,185306  	-4,564227  	16578,035617  	55452,428028  	8,042695  	-0,047953  
175,571000  	23,839172  	34,655000  	25,196469  	1256,670793  	80,517157  	74,639776  	0,006532  	0,011699  	0,003966  	0,004221  	0,004465  	-0,000000  	-0,000000  	28,497924  	25,736789  	26,863724  	27,096919  	31,670646  	29,743103  	31,305722  	31,233323  	35,607278  	34,361707  	37,650827  	67,672501  	27,725888  	26,571721  	29,870771  	73,748900  	0,185792  	0,094142  	-4257,038937  	25530,106163  	-0,018526  	-0,050003  	0,394729  	0,200012  	-4,928982  	16578,538611  	55486,222420  	8,047596  	-0,047954  
176,569000  	23,856681  	34,671578  	25,195301  	57,696365  	80,515220  	74,649383  	0,006527  	0,011667  	0,003963  	0,004261  	0,004480  	-0,000001  	-0,000000  	28,498389  	25,743395  	26,871578  	27,106926  	31,677419  	29,753542  	31,310918  	31,237677  	35,612821  	34,369780  	37,654379  	67,672873  	27,733670  	26,565858  	29,881678  	73,760818  	0,218378  	0,110654  	-5003,235267  	1760,308715  	-0,053840  	-0,050015  	0,406790  	0,206124  	-5,069621  	16508,526911  	55378,597236  	8,031986  	-0,047964  
177,571000  	23,836746  	34,695799  	25,195055  	-242,047242  	80,510126  	74,651566  	0,006532  	0,011694  	0,003964  	0,004209  	0,004439  	-0,000001  	-0,000000  	28,498906  	25,748551  	26,877374  	27,111882  	31,682904  	29,753416  	31,317579  	31,237093  	35,617756  	34,369892  	37,664471  	67,677987  	27,740681  	26,563572  	29,884827  	73,768962  	0,176104  	0,089233  	-4051,180798  	-27084,802203  	-0,102820  	-0,050012  	0,373905  	0,189461  	-4,654013  	16566,995213  	55483,419166  	8,047190  	-0,047962  
178,573000  	23,803203  	34,713241  	25,195301  	357,439972  	80,505377  	74,653625  	0,006540  	0,011681  	0,003962  	0,004269  	0,004450  	-0,000001  	-0,000000  	28,509397  	25,748706  	26,870615  	27,116874  	31,686444  	29,764740  	31,317403  	31,244890  	35,624644  	34,369216  	37,660083  	67,677867  	27,747773  	26,572883  	29,891060  	73,762577  	0,224908  	0,113963  	-5198,199359  	12489,419895  	-0,036467  	-0,050015  	0,382322  	0,193725  	-4,753243  	16539,550547  	55655,999348  	8,072220  	-0,047964  
179,570000  	23,748466  	34,729511  	25,195485  	1256,670793  	80,499034  	74,659551  	0,006518  	0,011687  	0,003961  	0,004250  	0,004469  	-0,000000  	-0,000000  	28,502020  	25,743938  	26,865238  	27,103211  	31,672070  	29,756875  	31,309000  	31,240113  	35,613173  	34,357704  	37,651479  	67,669711  	27,736881  	26,564908  	29,878922  	73,751285  	0,209169  	0,105988  	-4865,911601  	25530,052032  	-0,018526  	-0,050003  	0,397469  	0,201401  	-4,931214  	16552,082248  	55182,736630  	8,003579  	-0,047954  
180,572000  	23,692686  	34,742762  	25,195117  	1256,670793  	80,497909  	74,659800  	0,006530  	0,011673  	0,003961  	0,004256  	0,004466  	0,000001  	-0,000000  	28,502666  	25,744345  	26,862619  	27,104644  	31,673588  	29,756216  	31,316155  	31,233047  	35,611690  	34,358817  	37,659604  	67,671476  	27,739872  	26,553402  	29,877353  	73,756647  	0,213933  	0,108401  	-5008,024201  	25524,863123  	-0,018522  	-0,049991  	0,395285  	0,200294  	-4,902954  	16522,537882  	55433,010021  	8,039878  	-0,047944  
181,568000  	23,650944  	34,746491  	25,194502  	57,696365  	80,500096  	74,647137  	0,006528  	0,011660  	0,003961  	0,004239  	0,004435  	-0,000000  	-0,000000  	28,496980  	25,742821  	26,871123  	27,108570  	31,678589  	29,744970  	31,311062  	31,239003  	35,616900  	34,363758  	37,653425  	67,679621  	27,746005  	26,554170  	29,888882  	73,754968  	0,200229  	0,101457  	-4706,524099  	1760,051517  	-0,053831  	-0,050006  	0,370891  	0,187933  	-4,612078  	16493,678324  	55397,810471  	8,034773  	-0,047956  
182,571000  	23,649838  	34,740574  	25,194994  	1256,670793  	80,505283  	74,636158  	0,006533  	0,011690  	0,003958  	0,004260  	0,004501  	-0,000001  	-0,000000  	28,499224  	25,743522  	26,872437  	27,111873  	31,682757  	29,750518  	31,311980  	31,240752  	35,621492  	34,366819  	37,656415  	67,672670  	27,751231  	26,572890  	29,887044  	73,769287  	0,217270  	0,110092  	-5104,874203  	25533,474135  	-0,018528  	-0,050010  	0,423078  	0,214377  	-5,275553  	16558,116056  	55509,411051  	8,050959  	-0,047960  
183,569000  	23,673428  	34,727447  	25,193611  	357,439972  	80,509814  	74,631979  	0,006526  	0,011655  	0,003961  	0,004216  	0,004424  	0,000000  	-0,000000  	28,500502  	25,731896  	26,862831  	27,113088  	31,664255  	29,745596  	31,313484  	31,238294  	35,611736  	34,361167  	37,651426  	67,669336  	27,757238  	26,547580  	29,876968  	73,746937  	0,181754  	0,092096  	-4256,272456  	12485,726222  	-0,036457  	-0,049998  	0,361772  	0,183312  	-4,517786  	16484,102333  	55345,643114  	8,027207  	-0,047950  
184,569000  	23,698369  	34,706246  	25,192935  	-242,047242  	80,506814  	74,630419  	0,006529  	0,011678  	0,003966  	0,004242  	0,004475  	-0,000000  	-0,000000  	28,504783  	25,750570  	26,866529  	27,114576  	31,687960  	29,767506  	31,315332  	31,241537  	35,622419  	34,370766  	37,665554  	67,669457  	27,751841  	26,560308  	29,890757  	73,760161  	0,202676  	0,102698  	-4726,402382  	-27080,603867  	-0,102805  	-0,050003  	0,402570  	0,203985  	-5,026044  	16532,123070  	55419,996426  	8,037991  	-0,047954  
185,569000  	23,712682  	34,681932  	25,191306  	-242,047242  	80,505908  	74,631854  	0,006531  	0,011688  	0,003959  	0,004267  	0,004476  	0,000001  	-0,000000  	28,506736  	25,745282  	26,877135  	27,121063  	31,688387  	29,768713  	31,322031  	31,243852  	35,620414  	34,362823  	37,660773  	67,674899  	27,749160  	26,575118  	29,885289  	73,749677  	0,222759  	0,112873  	-5176,488327  	-27075,390538  	-0,102786  	-0,049993  	0,403559  	0,204486  	-5,036378  	16554,256937  	55469,162819  	8,045122  	-0,047945  
186,571000  	23,754333  	34,668990  	25,190077  	357,439972  	80,507970  	74,633039  	0,006521  	0,011705  	0,003961  	0,004252  	0,004457  	-0,000001  	-0,000000  	28,518456  	25,753511  	26,877909  	27,111966  	31,683363  	29,764731  	31,323650  	31,255006  	35,622479  	34,366592  	37,671036  	67,673696  	27,752083  	26,566529  	29,889107  	73,750193  	0,210412  	0,106617  	-4865,217175  	12488,555284  	-0,036464  	-0,050010  	0,388374  	0,196792  	-4,847605  	16592,065689  	55237,333003  	8,011498  	-0,047960  
187,571000  	23,799026  	34,663813  	25,187773  	1256,670793  	80,508127  	74,634599  	0,006526  	0,011724  	0,003964  	0,004207  	0,004433  	0,000000  	-0,000001  	28,513908  	25,750113  	26,880503  	27,126603  	31,688751  	29,761539  	31,328469  	31,255251  	35,621736  	34,377288  	37,672860  	67,679277  	27,750556  	26,581224  	29,875984  	73,755072  	0,174641  	0,088492  	-4019,660057  	25528,871815  	-0,018525  	-0,050000  	0,369310  	0,187132  	-4,608550  	16631,377056  	55350,840078  	8,027961  	-0,047951  
188,572000  	23,822063  	34,663690  	25,185990  	57,696365  	80,504689  	74,636844  	0,006536  	0,011643  	0,003958  	0,004224  	0,004449  	-0,000002  	-0,000000  	28,515122  	25,755128  	26,883784  	27,121744  	31,689010  	29,769842  	31,330817  	31,254483  	35,617719  	34,375388  	37,672515  	67,685351  	27,753263  	26,580360  	29,880486  	73,754840  	0,188486  	0,095507  	-4329,065771  	1761,004111  	-0,053846  	-0,050020  	0,381992  	0,193558  	-4,762192  	16458,572724  	55563,922691  	8,058866  	-0,047969  
189,568000  	23,813800  	34,675954  	25,182918  	1256,670793  	80,505002  	74,641305  	0,006524  	0,011713  	0,003961  	0,004254  	0,004457  	-0,000001  	-0,000000  	28,507817  	25,741148  	26,880086  	27,115026  	31,684412  	29,759442  	31,317203  	31,251194  	35,613795  	34,371286  	37,673405  	67,675996  	27,745943  	26,573031  	29,877157  	73,749242  	0,212269  	0,107558  	-4884,548166  	25532,502662  	-0,018527  	-0,050007  	0,388335  	0,196772  	-4,837856  	16609,046519  	55308,346419  	8,021797  	-0,047958  
190,568000  	23,820189  	34,692101  	25,180213  	1256,670793  	80,509876  	74,640244  	0,006529  	0,011667  	0,003964  	0,004199  	0,004444  	0,000000  	-0,000000  	28,510374  	25,740669  	26,872316  	27,123225  	31,687239  	29,758854  	31,318487  	31,253417  	35,627081  	34,366754  	37,672687  	67,674378  	27,762225  	26,567995  	29,890045  	73,761856  	0,168172  	0,085214  	-3873,298581  	25528,157707  	-0,018524  	-0,049997  	0,377844  	0,191456  	-4,711914  	16509,934022  	55412,497545  	8,036903  	-0,047949  
191,572000  	23,824244  	34,711053  	25,177909  	1256,670793  	80,510189  	74,642084  	0,006531  	0,011681  	0,003960  	0,004259  	0,004491  	-0,000001  	-0,000000  	28,516245  	25,747551  	26,875888  	27,119586  	31,684615  	29,761733  	31,327718  	31,251655  	35,626348  	34,374965  	37,667025  	67,677038  	27,764553  	26,564319  	29,887574  	73,761489  	0,216402  	0,109652  	-4990,937681  	25532,898676  	-0,018528  	-0,050008  	0,414876  	0,210221  	-5,172384  	16538,885548  	55468,343732  	8,045003  	-0,047958  
192,568000  	23,814537  	34,725290  	25,175758  	57,696365  	80,505627  	74,648385  	0,006536  	0,011672  	0,003961  	0,004205  	0,004452  	-0,000001  	-0,000000  	28,515215  	25,744010  	26,879147  	27,121372  	31,686686  	29,754458  	31,325810  	31,249324  	35,619131  	34,369787  	37,666470  	67,675275  	27,764435  	26,560073  	29,884223  	73,758438  	0,172914  	0,087617  	-3996,727655  	1761,525190  	-0,053845  	-0,050019  	0,384589  	0,194874  	-4,785918  	16520,398565  	55567,940453  	8,059448  	-0,047967  
193,570000  	23,764009  	34,736168  	25,171425  	1256,670793  	80,510095  	74,642583  	0,006526  	0,011697  	0,003963  	0,004187  	0,004394  	0,000001  	-0,000000  	28,516294  	25,750264  	26,879717  	27,127024  	31,695230  	29,760082  	31,325015  	31,253413  	35,623642  	34,371258  	37,674801  	67,674162  	27,758791  	26,556828  	29,888757  	73,759903  	0,158491  	0,080309  	-3683,992617  	25524,084614  	-0,018521  	-0,049988  	0,338402  	0,171471  	-4,218538  	16574,235216  	55345,904374  	8,027245  	-0,047941  
194,570000  	23,702884  	34,744858  	25,169827  	1256,670793  	80,519657  	74,642334  	0,006531  	0,011681  	0,003959  	0,004248  	0,004450  	-0,000001  	-0,000000  	28,514798  	25,757763  	26,881735  	27,128930  	31,694891  	29,770878  	31,324440  	31,253772  	35,623250  	34,378676  	37,675251  	67,668621  	27,752344  	26,549968  	29,887705  	73,753919  	0,207856  	0,105322  	-4862,204471  	25533,540104  	-0,018528  	-0,050008  	0,382391  	0,193760  	-4,774868  	16540,576344  	55454,376889  	8,042977  	-0,047959  
195,568000  	23,677451  	34,748001  	25,167430  	1256,670793  	80,521719  	74,645983  	0,006535  	0,011694  	0,003962  	0,004240  	0,004480  	-0,000000  	-0,000000  	28,509974  	25,756015  	26,878099  	27,122303  	31,691575  	29,769431  	31,326003  	31,250793  	35,619306  	34,378129  	37,672018  	67,667057  	27,747157  	26,539957  	29,882822  	73,750790  	0,201422  	0,102062  	-4723,902009  	25530,933134  	-0,018526  	-0,050003  	0,406392  	0,205922  	-5,073202  	16567,409068  	55554,658537  	8,057522  	-0,047954  
196,571000  	23,672721  	34,744365  	25,165710  	1256,670793  	80,521407  	74,645796  	0,006520  	0,011670  	0,003962  	0,004236  	0,004426  	0,000000  	-0,000000  	28,517184  	25,761252  	26,882919  	27,124359  	31,693622  	29,773766  	31,332204  	31,252401  	35,624306  	34,380391  	37,676303  	67,680725  	27,751041  	26,532347  	29,889233  	73,761441  	0,197522  	0,100086  	-4632,904287  	25527,947161  	-0,018524  	-0,049996  	0,364042  	0,184463  	-4,544426  	16515,569538  	55227,857016  	8,010123  	-0,047948  
197,568000  	23,686297  	34,729481  	25,163743  	57,696365  	80,517751  	74,648790  	0,006528  	0,011695  	0,003962  	0,004248  	0,004491  	-0,000000  	-0,000000  	28,528965  	25,767513  	26,890742  	27,131775  	31,697219  	29,779260  	31,331462  	31,257807  	35,631434  	34,384574  	37,678211  	67,678918  	27,753399  	26,523118  	29,894645  	73,766411  	0,207329  	0,105055  	-4850,416765  	1761,761945  	-0,053833  	-0,050004  	0,415288  	0,210429  	-5,178275  	16568,930078  	55402,520220  	8,035456  	-0,047955  
198,572000  	23,706263  	34,710683  	25,162268  	1256,670793  	80,513626  	74,647917  	0,006530  	0,011671  	0,003957  	0,004212  	0,004489  	0,000001  	-0,000000  	28,527543  	25,762695  	26,885961  	27,129076  	31,694386  	29,771410  	31,332428  	31,257980  	35,628738  	34,377778  	37,676008  	67,666614  	27,743905  	26,509448  	29,883590  	73,756747  	0,178616  	0,090506  	-4164,013008  	25523,420334  	-0,018521  	-0,049986  	0,413823  	0,209687  	-5,157151  	16518,964572  	55429,634819  	8,039389  	-0,047939  
199,568000  	23,705986  	34,696631  	25,159687  	1256,670793  	80,511970  	74,650849  	0,006532  	0,011729  	0,003965  	0,004231  	0,004455  	-0,000000  	-0,000000  	28,521905  	25,761440  	26,884569  	27,129481  	31,691570  	29,767818  	31,335417  	31,258603  	35,628728  	34,376149  	37,679505  	67,676498  	27,743569  	26,501263  	29,879370  	73,751239  	0,193416  	0,098005  	-4503,385814  	25531,653330  	-0,018527  	-0,050004  	0,386828  	0,196008  	-4,816965  	16643,265688  	55486,949713  	8,047702  	-0,047955  
200,568000  	23,714464  	34,686832  	25,158335  	57,696365  	80,510158  	74,648541  	0,006522  	0,011646  	0,003960  	0,004214  	0,004437  	-0,000001  	-0,000000  	28,522219  	25,760796  	26,887364  	27,133380  	31,701907  	29,766735  	31,327512  	31,268284  	35,635300  	34,385070  	37,679869  	67,676785  	27,748502  	26,497946  	29,886718  	73,751883  	0,179900  	0,091156  	-4181,710673  	1762,381485  	-0,053843  	-0,050014  	0,371998  	0,188494  	-4,632686  	16464,918516  	55266,742457  	8,015763  	-0,047964  
201,571000  	23,701471  	34,681563  	25,156891  	1256,670793  	80,511657  	74,646014  	0,006531  	0,011685  	0,003962  	0,004213  	0,004462  	-0,000001  	-0,000000  	28,522924  	25,752172  	26,885973  	27,132514  	31,700971  	29,762406  	31,332306  	31,263642  	35,622923  	34,377452  	37,673865  	67,667770  	27,745451  	26,487769  	29,874535  	73,748253  	0,179405  	0,090906  	-4173,150445  	25537,545187  	-0,018531  	-0,050016  	0,392152  	0,198706  	-4,887025  	16549,030325  	55461,339127  	8,043987  	-0,047965  
202,568000  	23,678803  	34,683227  	25,154494  	1256,670793  	80,513220  	74,643394  	0,006532  	0,011671  	0,003961  	0,004281  	0,004531  	-0,000000  	-0,000000  	28,518825  	25,756582  	26,881554  	27,123952  	31,688871  	29,765145  	31,326237  	31,255059  	35,625007  	34,375698  	37,676896  	67,667845  	27,742767  	26,479610  	29,862048  	73,749457  	0,233912  	0,118525  	-5453,120281  	25532,692838  	-0,018527  	-0,050006  	0,446684  	0,226338  	-5,570575  	16518,559205  	55480,156941  	8,046716  	-0,047956  
203,569000  	23,671062  	34,683411  	25,152927  	1256,670793  	80,513970  	74,641897  	0,006520  	0,011645  	0,003962  	0,004269  	0,004476  	-0,000000  	-0,000000  	28,511689  	25,761367  	26,891053  	27,125328  	31,697759  	29,765036  	31,336152  	31,256723  	35,621229  	34,381874  	37,680433  	67,673291  	27,742022  	26,474902  	29,866925  	73,760644  	0,224892  	0,113954  	-5246,605260  	25530,769363  	-0,018526  	-0,050001  	0,403134  	0,204271  	-5,029389  	16462,451652  	55219,715575  	8,008943  	-0,047952  
204,568000  	23,697294  	34,686431  	25,150714  	57,696365  	80,518594  	74,642833  	0,006529  	0,011662  	0,003962  	0,004220  	0,004532  	-0,000001  	-0,000000  	28,514941  	25,753343  	26,884668  	27,132204  	31,696280  	29,772839  	31,330664  	31,257482  	35,618696  	34,378973  	37,680566  	67,671414  	27,734830  	26,470134  	29,874038  	73,758053  	0,184493  	0,093484  	-4295,045723  	1762,902082  	-0,053846  	-0,050017  	0,447619  	0,226812  	-5,587882  	16499,700813  	55426,457327  	8,038928  	-0,047966  
205,569000  	23,748528  	34,684305  	25,149608  	1256,670793  	80,524875  	74,640400  	0,006532  	0,011707  	0,003961  	0,004256  	0,004481  	-0,000000  	-0,000000  	28,530161  	25,772779  	26,889697  	27,144387  	31,709153  	29,779885  	31,338552  	31,262105  	35,629138  	34,382321  	37,686255  	67,679556  	27,752444  	26,473948  	29,880264  	73,759583  	0,214054  	0,108463  	-4959,024583  	25530,454383  	-0,018526  	-0,050000  	0,407220  	0,206342  	-5,091099  	16595,545616  	55485,135012  	8,047438  	-0,047952  
206,569000  	23,769599  	34,678943  	25,148563  	1256,670793  	80,524875  	74,640712  	0,006531  	0,011645  	0,003963  	0,004262  	0,004451  	-0,000001  	-0,000000  	28,523746  	25,776709  	26,895878  	27,139130  	31,711767  	29,785785  	31,339582  	31,266958  	35,633660  	34,385861  	37,682113  	67,682061  	27,749128  	26,474074  	29,893211  	73,762964  	0,218788  	0,110862  	-5056,436031  	25534,350786  	-0,018528  	-0,050009  	0,383536  	0,194341  	-4,794744  	16462,545034  	55461,826343  	8,044058  	-0,047959  
207,570000  	23,802404  	34,673766  	25,148102  	1256,670793  	80,518657  	74,646638  	0,006525  	0,011684  	0,003961  	0,004232  	0,004473  	0,000001  	-0,000000  	28,507873  	25,756001  	26,883862  	27,126039  	31,693507  	29,769178  	31,325421  	31,256294  	35,612983  	34,385562  	37,667238  	67,670234  	27,736691  	26,459679  	29,870064  	73,762853  	0,194838  	0,098726  	-4487,242949  	25526,588276  	-0,018523  	-0,049992  	0,400686  	0,203031  	-4,998807  	16547,094753  	55324,099718  	8,024082  	-0,047944  
208,568000  	23,813401  	34,675307  	25,147119  	1256,670793  	80,512157  	74,647823  	0,006529  	0,011682  	0,003960  	0,004236  	0,004428  	0,000002  	-0,000000  	28,521202  	25,761177  	26,887779  	27,129513  	31,687944  	29,769485  	31,333211  	31,261075  	35,628487  	34,385939  	37,675954  	67,671488  	27,736213  	26,468487  	29,865398  	73,748639  	0,198186  	0,100422  	-4560,371859  	25519,111897  	-0,018517  	-0,049975  	0,365297  	0,185099  	-4,551351  	16542,439049  	55409,856696  	8,036520  	-0,047930  
209,568000  	23,779428  	34,688619  	25,147304  	57,696365  	80,505189  	74,647480  	0,006530  	0,011705  	0,003960  	0,004275  	0,004454  	-0,000001  	-0,000000  	28,512236  	25,762560  	26,885564  	27,127299  	31,693533  	29,766270  	31,326562  	31,258640  	35,626062  	34,370709  	37,675370  	67,674273  	27,738614  	26,472273  	29,862743  	73,741130  	0,229724  	0,116403  	-5309,091350  	1763,041988  	-0,053845  	-0,050015  	0,385671  	0,195423  	-4,799766  	16590,557414  	55437,416143  	8,040517  	-0,047965  
210,570000  	23,729607  	34,702301  	25,147119  	657,183579  	80,497877  	74,644486  	0,006523  	0,011721  	0,003965  	0,004224  	0,004467  	-0,000000  	-0,000000  	28,516320  	25,754928  	26,877314  	27,120818  	31,687300  	29,769247  	31,324032  	31,249543  	35,614810  	34,370198  	37,678581  	67,667754  	27,729487  	26,474191  	29,875896  	73,750296  	0,187877  	0,095199  	-4367,265158  	18447,562451  	-0,027565  	-0,050002  	0,396263  	0,200789  	-4,927942  	16626,193598  	55278,887537  	8,017525  	-0,047953  
211,567000  	23,702055  	34,717462  	25,148133  	657,183579  	80,492347  	74,647917  	0,006522  	0,011662  	0,003959  	0,004280  	0,004436  	0,000000  	-0,000000  	28,516880  	25,752244  	26,887564  	27,126057  	31,696110  	29,765113  	31,333175  	31,252964  	35,623587  	34,373755  	37,678519  	67,666672  	27,740550  	26,477676  	29,880050  	73,746781  	0,233362  	0,118246  	-5445,703221  	18445,692977  	-0,027563  	-0,049996  	0,371707  	0,188347  	-4,615489  	16498,002942  	55271,995910  	8,016525  	-0,047948  
212,569000  	23,701686  	34,726584  	25,150100  	57,696365  	80,496221  	74,646046  	0,006534  	0,011737  	0,003960  	0,004194  	0,004466  	0,000000  	-0,000000  	28,530098  	25,758157  	26,890532  	27,134862  	31,691877  	29,779326  	31,338048  	31,263404  	35,630039  	34,383140  	37,682223  	67,674986  	27,749755  	26,485178  	29,879464  	73,750489  	0,163999  	0,083099  	-3830,360230  	1762,377020  	-0,053829  	-0,049999  	0,395659  	0,200484  	-4,917736  	16660,100784  	55514,516221  	8,051700  	-0,047951  
213,572000  	23,702546  	34,724088  	25,150960  	1256,670793  	80,498534  	74,647917  	0,006532  	0,011672  	0,003965  	0,004300  	0,004484  	0,000000  	-0,000000  	28,517228  	25,766164  	26,891048  	27,120378  	31,694508  	29,769750  	31,324167  	31,258084  	35,620493  	34,382116  	37,662861  	67,669589  	27,745700  	26,489300  	29,878613  	73,742249  	0,249487  	0,126417  	-5825,243914  	25527,866082  	-0,018524  	-0,049995  	0,409422  	0,207457  	-5,089173  	16519,939432  	55478,518768  	8,046479  	-0,047947  
214,569000  	23,708628  	34,712378  	25,152681  	1256,670793  	80,501658  	74,646170  	0,006519  	0,011717  	0,003957  	0,004258  	0,004480  	0,000001  	-0,000000  	28,531263  	25,774446  	26,898360  	27,137743  	31,703474  	29,775172  	31,336368  	31,259276  	35,631764  	34,378841  	37,684169  	67,674721  	27,756053  	26,497933  	29,890342  	73,754645  	0,215786  	0,109340  	-5030,228175  	25522,605447  	-0,018520  	-0,049983  	0,406332  	0,205891  	-5,054974  	16617,369622  	55195,644308  	8,005451  	-0,047937  
215,569000  	23,746316  	34,701192  	25,154709  	1256,670793  	80,508564  	74,634567  	0,006528  	0,011704  	0,003960  	0,004223  	0,004476  	0,000000  	-0,000000  	28,521827  	25,769327  	26,889876  	27,134804  	31,697393  	29,775317  	31,330331  	31,258696  	35,631626  	34,382324  	37,676451  	67,670740  	27,744592  	26,499983  	29,881833  	73,758713  	0,187344  	0,094928  	-4347,800008  	25529,096306  	-0,018525  	-0,049998  	0,403102  	0,204255  	-5,030632  	16589,760122  	55400,952657  	8,035229  	-0,047949  
216,567000  	23,778875  	34,693118  	25,156553  	1256,670793  	80,508626  	74,635191  	0,006537  	0,011715  	0,003966  	0,004232  	0,004515  	0,000001  	-0,000000  	28,522326  	25,764849  	26,881681  	27,135120  	31,694187  	29,773777  	31,331049  	31,257029  	35,632212  	34,382527  	37,678360  	67,672454  	27,748119  	26,496771  	29,879292  	73,753015  	0,194565  	0,098587  	-4498,627903  	25525,252576  	-0,018522  	-0,049989  	0,434107  	0,219965  	-5,417049  	16613,894647  	55581,497752  	8,061415  	-0,047942  
217,569000  	23,770336  	34,686216  	25,159257  	1256,670793  	80,507095  	74,643394  	0,006523  	0,011651  	0,003960  	0,004229  	0,004434  	0,000000  	-0,000000  	28,522269  	25,763897  	26,892538  	27,129280  	31,691857  	29,776934  	31,328424  	31,258651  	35,632028  	34,386851  	37,677238  	67,676224  	27,744659  	26,495029  	29,874543  	73,757713  	0,192300  	0,097440  	-4446,922861  	25528,419858  	-0,018524  	-0,049997  	0,369720  	0,187340  	-4,605955  	16475,639863  	55278,294406  	8,017439  	-0,047948  
218,567000  	23,719655  	34,686770  	25,161285  	1256,670793  	80,507283  	74,641149  	0,006523  	0,011662  	0,003967  	0,004236  	0,004446  	-0,000001  	-0,000000  	28,527697  	25,768602  	26,903694  	27,138372  	31,699075  	29,785075  	31,337947  	31,268294  	35,632059  	34,397270  	37,681849  	67,679680  	27,755424  	26,504554  	29,881246  	73,764317  	0,197450  	0,100049  	-4587,460118  	25533,358922  	-0,018528  	-0,050007  	0,379244  	0,192166  	-4,726559  	16499,517585  	55290,933763  	8,019272  	-0,047958  
219,567000  	23,690628  	34,698973  	25,163682  	1256,670793  	80,509470  	74,642771  	0,006532  	0,011739  	0,003963  	0,004263  	0,004449  	0,000000  	-0,000000  	28,526649  	25,764703  	26,893786  	27,136808  	31,695757  	29,777360  	31,334426  	31,266874  	35,628370  	34,389160  	37,681208  	67,677544  	27,752650  	26,505259  	29,880241  	73,760196  	0,220028  	0,111490  	-5131,269753  	25529,622550  	-0,018525  	-0,049999  	0,382057  	0,193591  	-4,762083  	16664,454408  	55480,545301  	8,046773  	-0,047951  
220,571000  	23,720361  	34,709635  	25,165341  	1256,670793  	80,514095  	74,643644  	0,006533  	0,011635  	0,003965  	0,004274  	0,004507  	-0,000000  	-0,000000  	28,526036  	25,758925  	26,880702  	27,133672  	31,691590  	29,774690  	31,332420  	31,258926  	35,628913  	34,383467  	37,674177  	67,676352  	27,748665  	26,506170  	29,877402  	73,754798  	0,228253  	0,115657  	-5313,837430  	25531,206496  	-0,018526  	-0,050003  	0,427482  	0,216608  	-5,331678  	16440,034098  	55495,317108  	8,048915  	-0,047954  
221,567000  	23,742139  	34,714073  	25,167953  	1256,670793  	80,517282  	74,643956  	0,006525  	0,011718  	0,003961  	0,004222  	0,004445  	-0,000000  	-0,000000  	28,527118  	25,764638  	26,884558  	27,141541  	31,696290  	29,776258  	31,334618  	31,260986  	35,635678  	34,385777  	37,674130  	67,676369  	27,757976  	26,516424  	29,879192  	73,750519  	0,186112  	0,094305  	-4325,948539  	25530,921814  	-0,018526  	-0,050003  	0,378703  	0,191892  	-4,725605  	16618,453430  	55329,409660  	8,024852  	-0,047954  
222,567000  	23,739743  	34,703411  	25,169121  	1256,670793  	80,513720  	74,640151  	0,006529  	0,011684  	0,003963  	0,004217  	0,004468  	-0,000000  	-0,000000  	28,533413  	25,771170  	26,898485  	27,147399  	31,703332  	29,780230  	31,340456  	31,270012  	35,639845  	34,395106  	37,682347  	67,684119  	27,767043  	26,531139  	29,884383  	73,760733  	0,182055  	0,092249  	-4228,463428  	25531,489702  	-0,018527  	-0,050004  	0,396846  	0,201085  	-4,952197  	16545,904121  	55417,666265  	8,037653  	-0,047955  
223,571000  	23,708505  	34,693519  	25,171425  	357,439972  	80,506158  	74,646950  	0,006537  	0,011674  	0,003960  	0,004216  	0,004472  	0,000000  	-0,000000  	28,531239  	25,772107  	26,900357  	27,139658  	31,700878  	29,783451  	31,342241  	31,265585  	35,633837  	34,398036  	37,682461  	67,685789  	27,770074  	26,538642  	29,883762  	73,766420  	0,181795  	0,092117  	-4230,645423  	12487,093060  	-0,036458  	-0,049999  	0,400391  	0,202881  	-4,984228  	16525,562214  	55594,772608  	8,063340  	-0,047951  
224,603000  	23,687741  	34,691670  	25,173883  	956,927186  	80,499409  	74,651254  	0,006524  	0,011690  	0,003956  	0,004242  	0,004459  	-0,000001  	-0,000000  	28,522066  	25,777625  	26,894693  	27,134308  	31,694689  	29,781324  	31,337880  	31,258697  	35,631142  	34,388644  	37,676572  	67,677424  	27,773462  	26,537335  	29,881541  	73,758331  	0,202680  	0,102700  	-4724,803246  	22481,403397  	-0,022162  	-0,050009  	0,389784  	0,197506  	-4,843040  	16558,165577  	55303,827319  	8,021142  	-0,047959  
225,567000  	23,691918  	34,693950  	25,175481  	-242,047242  	80,501877  	74,648229  	0,006527  	0,011656  	0,003963  	0,004197  	0,004445  	0,000001  	-0,000000  	28,529066  	25,779858  	26,896554  	27,140367  	31,699732  	29,784458  	31,341091  	31,262751  	35,639400  	34,387995  	37,676953  	67,680324  	27,777436  	26,541065  	29,886141  	73,761900  	0,166418  	0,084325  	-3878,799226  	-27073,928107  	-0,102787  	-0,049990  	0,378957  	0,192021  	-4,712941  	16485,832039  	55371,564387  	8,030966  	-0,047943  
226,568000  	23,704327  	34,694998  	25,177264  	357,439972  	80,505939  	74,644236  	0,006534  	0,011702  	0,003963  	0,004273  	0,004471  	-0,000000  	-0,000000  	28,531923  	25,770037  	26,896214  	27,138481  	31,701741  	29,781213  	31,337191  	31,259038  	35,635702  	34,386780  	37,674869  	67,682648  	27,777614  	26,548319  	29,876033  	73,764007  	0,228220  	0,115641  	-5313,763249  	12487,946301  	-0,036461  	-0,050005  	0,399307  	0,202332  	-4,972852  	16583,881244  	55524,585340  	8,053160  	-0,047955  
227,568000  	23,710225  	34,689174  	25,178923  	357,439972  	80,499877  	74,634193  	0,006529  	0,011667  	0,003958  	0,004253  	0,004475  	-0,000000  	-0,000000  	28,529550  	25,767832  	26,897634  	27,138510  	31,697764  	29,775297  	31,337731  	31,262121  	35,627400  	34,384093  	37,672962  	67,679843  	27,781165  	26,555347  	29,866737  	73,767022  	0,211386  	0,107111  	-4916,560730  	12488,077389  	-0,036462  	-0,050006  	0,402207  	0,203801  	-5,012361  	16509,131070  	55426,951603  	8,039000  	-0,047956  
228,568000  	23,732586  	34,678080  	25,180336  	956,927186  	80,495315  	74,631448  	0,006519  	0,011634  	0,003964  	0,004187  	0,004479  	0,000001  	-0,000000  	28,523816  	25,769717  	26,895110  	27,132781  	31,699046  	29,777341  	31,340597  	31,259167  	35,629171  	34,381256  	37,667156  	67,670216  	27,779666  	26,562304  	29,877144  	73,755844  	0,158139  	0,080130  	-3666,896658  	22470,806238  	-0,022152  	-0,049983  	0,405350  	0,205394  	-5,049956  	16437,344388  	55209,434624  	8,007451  	-0,047937  
229,569000  	23,737224  	34,673735  	25,182549  	956,927186  	80,494503  	74,630357  	0,006532  	0,011702  	0,003963  	0,004203  	0,004462  	0,000001  	-0,000000  	28,519845  	25,771572  	26,893226  	27,133808  	31,700105  	29,779978  	31,331766  	31,261042  	35,631742  	34,379277  	37,670093  	67,672851  	27,777966  	26,563034  	29,886311  	73,753805  	0,170779  	0,086535  	-3956,717692  	22473,445829  	-0,022154  	-0,049990  	0,392525  	0,198895  	-4,890412  	16584,916238  	55483,468594  	8,047197  	-0,047943  
230,571000  	23,731695  	34,676262  	25,184638  	357,439972  	80,493815  	74,622497  	0,006536  	0,011642  	0,003958  	0,004313  	0,004517  	-0,000000  	-0,000000  	28,539821  	25,776296  	26,901293  	27,143641  	31,708282  	29,781598  	31,340941  	31,272341  	35,648439  	34,398773  	37,677485  	67,675742  	27,783586  	26,574593  	29,884794  	73,762315  	0,260462  	0,131978  	-6039,004970  	12486,745840  	-0,036459  	-0,050001  	0,435462  	0,220652  	-5,431987  	16456,088881  	55574,923875  	8,060461  	-0,047952  
231,568000  	23,702024  	34,679036  	25,186390  	1256,670793  	80,491597  	74,629702  	0,006525  	0,011678  	0,003962  	0,004224  	0,004480  	-0,000000  	-0,000000  	28,525074  	25,767347  	26,894722  	27,135497  	31,696130  	29,773399  	31,338807  	31,262028  	35,627343  	34,387858  	37,673097  	67,681265  	27,782028  	26,577815  	29,881834  	73,759296  	0,187760  	0,095140  	-4366,284904  	25531,535775  	-0,018527  	-0,050005  	0,406499  	0,205976  	-5,062568  	16533,327851  	55327,623203  	8,024593  	-0,047956  
232,568000  	23,668237  	34,686123  	25,189155  	57,696365  	80,492972  	74,631823  	0,006528  	0,011689  	0,003959  	0,004257  	0,004424  	-0,000001  	-0,000000  	28,543729  	25,779964  	26,908801  	27,141286  	31,713024  	29,789809  	31,355578  	31,272233  	35,643664  	34,393297  	37,688016  	67,687574  	27,790037  	26,604922  	29,892050  	73,763542  	0,215079  	0,108982  	-5020,195371  	1760,477112  	-0,053835  	-0,050009  	0,361703  	0,183278  	-4,504106  	16555,796340  	55400,338342  	8,035140  	-0,047959  
233,571000  	23,649654  	34,688897  	25,190231  	57,696365  	80,496690  	74,629951  	0,006538  	0,011664  	0,003961  	0,004162  	0,004498  	0,000000  	-0,000000  	28,522787  	25,768243  	26,891955  	27,130014  	31,699096  	29,778462  	31,341488  	31,269682  	35,637616  	34,389875  	37,685686  	67,679920  	27,790952  	26,602134  	29,890272  	73,770159  	0,137900  	0,069875  	-3225,002168  	1760,082426  	-0,053825  	-0,049999  	0,420905  	0,213276  	-5,246320  	16503,577618  	55608,478190  	8,065328  	-0,047950  
234,568000  	23,638719  	34,686555  	25,193488  	657,183579  	80,501502  	74,622840  	0,006528  	0,011696  	0,003966  	0,004254  	0,004490  	-0,000001  	-0,000000  	28,508565  	25,752657  	26,877672  	27,132529  	31,682238  	29,770871  	31,328405  	31,257659  	35,617092  	34,387106  	37,675839  	67,670031  	27,793381  	26,617390  	29,883880  	73,746960  	0,212477  	0,107664  	-4972,956587  	18447,949928  	-0,027568  	-0,050009  	0,414650  	0,210106  	-5,178848  	16572,617994  	55403,247513  	8,035562  	-0,047959  
235,568000  	23,604257  	34,678327  	25,195977  	657,183579  	80,504752  	74,623401  	0,006524  	0,011645  	0,003961  	0,004264  	0,004460  	0,000001  	-0,000000  	28,528667  	25,761286  	26,879322  	27,118986  	31,690528  	29,774416  	31,327817  	31,266411  	35,635399  	34,384630  	37,672866  	67,676515  	27,800273  	26,644786  	29,878589  	73,770221  	0,220622  	0,111791  	-5175,870420  	18442,235944  	-0,027559  	-0,049992  	0,390960  	0,198102  	-4,885205  	16460,922860  	55301,242959  	8,020767  	-0,047944  
236,570000  	23,566662  	34,664337  	25,197575  	1256,670793  	80,501627  	74,627207  	0,006523  	0,011690  	0,003964  	0,004239  	0,004457  	-0,000001  	-0,000000  	28,526973  	25,774192  	26,896968  	27,136407  	31,700612  	29,783085  	31,338234  	31,273418  	35,628128  	34,385470  	37,680728  	67,679725  	27,805337  	26,668869  	29,873724  	73,760111  	0,200005  	0,101344  	-4702,198432  	25532,562308  	-0,018528  	-0,050008  	0,387974  	0,196589  	-4,842176  	16558,858874  	55297,896001  	8,020282  	-0,047959  
237,568000  	23,595442  	34,652381  	25,199787  	956,927186  	80,500908  	74,626739  	0,006536  	0,011644  	0,003960  	0,004258  	0,004458  	0,000001  	-0,000000  	28,518951  	25,770363  	26,887057  	27,130090  	31,698869  	29,778673  	31,330738  	31,256990  	35,630502  	34,390499  	37,675993  	67,676121  	27,807634  	26,682342  	29,885320  	73,761924  	0,215281  	0,109085  	-5042,760395  	22473,625676  	-0,022155  	-0,049992  	0,389202  	0,197212  	-4,857300  	16460,495563  	55568,293508  	8,059500  	-0,047945  
238,572000  	23,669957  	34,643506  	25,200525  	357,439972  	80,501596  	74,623495  	0,006523  	0,011654  	0,003962  	0,004243  	0,004427  	-0,000001  	-0,000000  	28,515123  	25,762984  	26,884205  	27,128159  	31,688898  	29,778155  	31,336201  	31,250390  	35,628423  	34,382181  	37,674058  	67,677283  	27,811571  	26,695090  	29,874940  	73,754350  	0,203308  	0,103018  	-4726,364877  	12487,759089  	-0,036463  	-0,050009  	0,364394  	0,184641  	-4,550731  	16481,336926  	55283,350148  	8,018172  	-0,047959  
239,571000  	23,730313  	34,630379  	25,202737  	357,439972  	80,498846  	74,622029  	0,006525  	0,011677  	0,003963  	0,004235  	0,004500  	-0,000002  	-0,000000  	28,517809  	25,775413  	26,887607  	27,139184  	31,695832  	29,777201  	31,340338  	31,260271  	35,630207  	34,384241  	37,676961  	67,679033  	27,805170  	26,695756  	29,872464  	73,759348  	0,197344  	0,099996  	-4556,968986  	12490,485707  	-0,036471  	-0,050022  	0,422448  	0,214057  	-5,274584  	16530,757699  	55333,039062  	8,025379  	-0,047970  
240,569000  	23,763732  	34,616820  	25,203844  	956,927186  	80,496971  	74,623838  	0,006528  	0,011703  	0,003966  	0,004242  	0,004450  	0,000000  	-0,000000  	28,515612  	25,762626  	26,885767  	27,120734  	31,687363  	29,765969  	31,328829  	31,254440  	35,626811  	34,374294  	37,663391  	67,665237  	27,797473  	26,689931  	29,878045  	73,753939  	0,202849  	0,102785  	-4663,886874  	22476,240225  	-0,022157  	-0,049999  	0,382593  	0,193863  	-4,773974  	16586,967125  	55393,256066  	8,034113  	-0,047951  
241,570000  	23,780442  	34,613215  	25,207715  	1256,670793  	80,500658  	74,618130  	0,006532  	0,011631  	0,003962  	0,004311  	0,004490  	-0,000001  	-0,000000  	28,523156  	25,758297  	26,889944  	27,131070  	31,692080  	29,767249  	31,330181  	31,257444  	35,622997  	34,382337  	37,672236  	67,668775  	27,808378  	26,683180  	29,884805  	73,753062  	0,258335  	0,130900  	-5928,500709  	25535,779996  	-0,018530  	-0,050016  	0,414487  	0,210023  	-5,180211  	16431,775372  	55481,780993  	8,046952  	-0,047965  
242,569000  	23,790640  	34,626404  	25,209805  	1256,670793  	80,496909  	74,624181  	0,006524  	0,011663  	0,003964  	0,004272  	0,004521  	-0,000002  	-0,000000  	28,528859  	25,765563  	26,890027  	27,127894  	31,692438  	29,773276  	31,333502  	31,261214  	35,628067  	34,379511  	37,672201  	67,670031  	27,797080  	26,658604  	29,879865  	73,761029  	0,226977  	0,115011  	-5210,305314  	25537,927545  	-0,018532  	-0,050021  	0,439141  	0,222516  	-5,479194  	16500,638179  	55312,208837  	8,022358  	-0,047969  
243,569000  	23,789442  	34,647943  	25,211557  	1256,670793  	80,496284  	74,629328  	0,006530  	0,011668  	0,003961  	0,004204  	0,004415  	0,000002  	-0,000000  	28,520130  	25,771969  	26,890560  	27,132578  	31,696827  	29,774881  	31,337599  	31,258167  	35,632249  	34,380360  	37,676488  	67,678873  	27,792334  	26,639611  	29,881282  	73,768532  	0,172306  	0,087309  	-3963,616786  	25517,484652  	-0,018517  	-0,049976  	0,354970  	0,179866  	-4,424637  	16512,297599  	55446,122471  	8,041780  	-0,047931  
244,569000  	23,765790  	34,669206  	25,214445  	57,696365  	80,501096  	74,632135  	0,006537  	0,011674  	0,003963  	0,004204  	0,004461  	-0,000000  	-0,000000  	28,523441  	25,771453  	26,889409  	27,123546  	31,694948  	29,768489  	31,333198  	31,255260  	35,623435  	34,377315  	37,675119  	67,681899  	27,791982  	26,622751  	29,879168  	73,762032  	0,172228  	0,087269  	-3978,219217  	1758,935981  	-0,053830  	-0,050006  	0,391651  	0,198453  	-4,883540  	16525,190098  	55585,381354  	8,061978  	-0,047957  
245,567000  	23,762350  	34,690684  	25,217026  	1256,670793  	80,498346  	74,633258  	0,006520  	0,011661  	0,003958  	0,004221  	0,004392  	0,000000  	-0,000000  	28,522323  	25,761703  	26,885817  	27,113325  	31,689888  	29,768033  	31,329332  	31,256966  	35,625764  	34,365244  	37,665066  	67,675839  	27,790836  	26,606872  	29,875599  	73,754956  	0,185685  	0,094088  	-4298,856103  	25526,119916  	-0,018523  	-0,049996  	0,336717  	0,170617  	-4,195793  	16497,200699  	55225,618649  	8,009799  	-0,047948  
246,568000  	23,760200  	34,703565  	25,219423  	657,183579  	80,497096  	74,628953  	0,006528  	0,011666  	0,003960  	0,004205  	0,004483  	0,000000  	-0,000000  	28,516336  	25,758927  	26,880143  	27,114338  	31,687064  	29,771055  	31,324828  	31,256030  	35,624138  	34,366560  	37,664081  	67,672005  	27,782646  	26,599245  	29,874037  	73,753936  	0,172806  	0,087562  	-4006,192929  	18442,761795  	-0,027561  	-0,049996  	0,408984  	0,207235  	-5,098952  	16508,219172  	55393,044233  	8,034082  	-0,047948  
247,567000  	23,737900  	34,708372  	25,221820  	657,183579  	80,504627  	74,629172  	0,006532  	0,011683  	0,003961  	0,004226  	0,004471  	0,000000  	-0,000000  	28,511564  	25,758079  	26,882631  	27,122534  	31,688303  	29,768098  	31,326901  	31,251867  	35,619782  	34,368574  	37,668594  	67,672525  	27,775993  	26,588945  	29,871163  	73,756907  	0,189804  	0,096175  	-4411,168286  	18442,200719  	-0,027560  	-0,049995  	0,399285  	0,202320  	-4,984225  	16544,023021  	55474,140890  	8,045844  	-0,047947  
248,569000  	23,697539  	34,709666  	25,223848  	57,696365  	80,506439  	74,634162  	0,006526  	0,011649  	0,003959  	0,004254  	0,004510  	0,000000  	-0,000000  	28,515856  	25,760170  	26,892026  	27,127507  	31,693253  	29,767205  	31,329751  	31,253298  	35,623071  	34,369891  	37,669835  	67,675140  	27,771944  	26,585776  	29,876711  	73,760703  	0,212467  	0,107658  	-4956,623232  	1758,119156  	-0,053821  	-0,049997  	0,430355  	0,218064  	-5,369171  	16470,174134  	55353,339705  	8,028323  	-0,047949  
249,573000  	23,671492  	34,710190  	25,226030  	1256,670793  	80,507877  	74,631729  	0,006524  	0,011683  	0,003962  	0,004221  	0,004486  	0,000000  	-0,000000  	28,519772  	25,764354  	26,892084  	27,133274  	31,698052  	29,765311  	31,327595  	31,255549  	35,626838  	34,373497  	37,667835  	67,676535  	27,768711  	26,587542  	29,881924  	73,763089  	0,185450  	0,093969  	-4336,808091  	25527,688245  	-0,018525  	-0,050000  	0,411215  	0,208366  	-5,133760  	16542,991565  	55313,945866  	8,022610  	-0,047951  
250,568000  	23,670448  	34,708033  	25,227566  	657,183579  	80,503564  	74,635472  	0,006528  	0,011678  	0,003957  	0,004241  	0,004426  	-0,000000  	-0,000000  	28,514433  	25,765363  	26,887872  	27,132138  	31,697434  	29,767363  	31,326598  	31,255665  	35,629492  	34,375515  	37,667427  	67,676726  	27,769386  	26,578858  	29,877656  	73,765822  	0,201756  	0,102231  	-4717,652814  	18444,567273  	-0,027564  	-0,050003  	0,363734  	0,184307  	-4,534766  	16533,990728  	55396,828979  	8,034631  	-0,047954  
251,568000  	23,658377  	34,703780  	25,230055  	657,183579  	80,501127  	74,640961  	0,006534  	0,011642  	0,003961  	0,004242  	0,004448  	0,000001  	-0,000000  	28,513894  	25,763633  	26,889824  	27,121356  	31,692034  	29,775339  	31,326969  	31,257223  	35,628935  	34,379676  	37,666498  	67,674389  	27,764030  	26,568881  	29,876252  	73,764614  	0,202655  	0,102687  	-4742,023166  	18441,332117  	-0,027559  	-0,049993  	0,381098  	0,193105  	-4,744835  	16454,834579  	55534,117816  	8,054543  	-0,047946  
252,571000  	23,650391  	34,693611  	25,231407  	1256,670793  	80,502752  	74,636844  	0,006523  	0,011658  	0,003964  	0,004218  	0,004452  	0,000001  	-0,000000  	28,516772  	25,753832  	26,888781  	27,126648  	31,689309  	29,767633  	31,328959  	31,254277  	35,622273  	34,374323  	37,662713  	67,672389  	27,753216  	26,561297  	29,869720  	73,757103  	0,183375  	0,092918  	-4290,041347  	25522,092793  	-0,018521  	-0,049988  	0,384604  	0,194881  	-4,793167  	16489,504392  	55283,583164  	8,018206  	-0,047941  
253,567000  	23,666394  	34,678789  	25,233097  	57,696365  	80,498940  	74,628018  	0,006528  	0,011705  	0,003963  	0,004196  	0,004426  	0,000000  	-0,000000  	28,523165  	25,755991  	26,886900  	27,128073  	31,690333  	29,768479  	31,329483  	31,253495  	35,617713  	34,374211  	37,674161  	67,678988  	27,749495  	26,563985  	29,866209  	73,758094  	0,165491  	0,083856  	-3860,833712  	1757,547176  	-0,053818  	-0,049996  	0,363790  	0,184335  	-4,537641  	16591,758657  	55392,211024  	8,033961  	-0,047948  
254,570000  	23,720761  	34,669113  	25,233466  	1256,670793  	80,494753  	74,623526  	0,006532  	0,011642  	0,003963  	0,004218  	0,004498  	-0,000000  	-0,000000  	28,525271  	25,762197  	26,881519  	27,128163  	31,694769  	29,773173  	31,334721  	31,253365  	35,620598  	34,379678  	37,677195  	67,670682  	27,748305  	26,567326  	29,882269  	73,762468  	0,183300  	0,092880  	-4251,437264  	25529,896171  	-0,018526  	-0,050005  	0,420543  	0,213092  	-5,245808  	16456,341439  	55475,708452  	8,046071  	-0,047956  
255,570000  	23,737716  	34,660054  	25,235402  	357,439972  	80,491659  	74,620532  	0,006528  	0,011653  	0,003967  	0,004216  	0,004490  	-0,000001  	-0,000000  	28,519027  	25,767018  	26,877863  	27,124802  	31,700673  	29,770068  	31,322054  	31,255419  	35,623996  	34,376276  	37,662593  	67,677216  	27,747666  	26,557298  	29,880777  	73,750918  	0,181869  	0,092154  	-4208,208413  	12485,553481  	-0,036460  	-0,050007  	0,414222  	0,209889  	-5,166872  	16478,752626  	55403,558201  	8,035607  	-0,047957  
256,568000  	23,701287  	34,654815  	25,236201  	956,927186  	80,495159  	74,623776  	0,006524  	0,011652  	0,003958  	0,004236  	0,004453  	0,000001  	-0,000000  	28,516121  	25,769526  	26,886643  	27,123046  	31,691957  	29,768452  	31,333794  	31,256422  	35,632886  	34,371167  	37,663970  	67,674091  	27,743902  	26,553714  	29,882715  	73,752162  	0,197891  	0,100273  	-4592,028185  	22469,458784  	-0,022151  	-0,049985  	0,385235  	0,195202  	-4,805511  	16477,704898  	55307,089544  	8,021615  	-0,047939  
257,573000  	23,703897  	34,654414  	25,237492  	-242,047242  	80,499784  	74,621904  	0,006530  	0,011641  	0,003963  	0,004273  	0,004464  	0,000000  	-0,000000  	28,513590  	25,758082  	26,880474  	27,120911  	31,682900  	29,758925  	31,313440  	31,250416  	35,611422  	34,362572  	37,657620  	67,666589  	27,737548  	26,539338  	29,862845  	73,736584  	0,228104  	0,115582  	-5291,662775  	-27078,226112  	-0,102779  	-0,049996  	0,394088  	0,199687  	-4,921379  	16453,474867  	55447,407590  	8,041967  	-0,047948  
258,567000  	23,686758  	34,664460  	25,239397  	-242,047242  	80,501346  	74,620033  	0,006537  	0,011686  	0,003961  	0,004221  	0,004440  	0,000000  	-0,000000  	28,515144  	25,762166  	26,887567  	27,123362  	31,691134  	29,765914  	31,320401  	31,252875  	35,618803  	34,383351  	37,667569  	67,673336  	27,747240  	26,546738  	29,879902  	73,744114  	0,186017  	0,094256  	-4326,019485  	-27079,552616  	-0,102783  	-0,049999  	0,374952  	0,189991  	-4,685138  	16550,658159  	55584,110357  	8,061794  	-0,047951  
259,568000  	23,647135  	34,673242  	25,239581  	657,183579  	80,498971  	74,623994  	0,006526  	0,011675  	0,003963  	0,004233  	0,004460  	-0,000001  	-0,000000  	28,513741  	25,756998  	26,887220  	27,121220  	31,690771  	29,766424  	31,325331  	31,252989  	35,622397  	34,376340  	37,671893  	67,669935  	27,743874  	26,539784  	29,881594  	73,749933  	0,195003  	0,098810  	-4555,012969  	18446,335051  	-0,027567  	-0,050010  	0,390662  	0,197951  	-4,876193  	16526,128879  	55343,411808  	8,026883  	-0,047960  
260,573000  	23,611567  	34,672873  	25,240134  	1256,670793  	80,502033  	74,628236  	0,006529  	0,011676  	0,003959  	0,004270  	0,004467  	-0,000002  	-0,000000  	28,532498  	25,772042  	26,901307  	27,143038  	31,714476  	29,780309  	31,338975  	31,267898  	35,635053  	34,381768  	37,678347  	67,675630  	27,773137  	26,559351  	29,890079  	73,759491  	0,225249  	0,114135  	-5278,310280  	25539,819498  	-0,018534  	-0,050027  	0,396488  	0,200903  	-4,947913  	16528,321962  	55406,008400  	8,035962  	-0,047975  
261,568000  	23,590097  	34,671794  	25,240841  	1256,670793  	80,501158  	74,624930  	0,006532  	0,011633  	0,003963  	0,004198  	0,004444  	0,000000  	-0,000000  	28,516408  	25,755449  	26,874692  	27,118040  	31,685689  	29,763319  	31,318571  	31,241851  	35,612538  	34,369515  	37,659065  	67,665196  	27,750684  	26,528351  	29,867671  	73,739667  	0,167402  	0,084824  	-3930,018881  	25527,008302  	-0,018524  	-0,049999  	0,377554  	0,191309  	-4,713579  	16435,736363  	55477,883269  	8,046387  	-0,047951  
262,568000  	23,591388  	34,664768  	25,240042  	1256,670793  	80,501346  	74,625242  	0,006531  	0,011672  	0,003965  	0,004228  	0,004447  	0,000000  	-0,000000  	28,523545  	25,760392  	26,878484  	27,133765  	31,697605  	29,772211  	31,335814  	31,266319  	35,630549  	34,381182  	37,670746  	67,674092  	27,761149  	26,532857  	29,889136  	73,760371  	0,191679  	0,097125  	-4496,570864  	25525,693857  	-0,018523  	-0,049996  	0,380616  	0,192861  	-4,751709  	16520,359655  	55456,918883  	8,043346  	-0,047948  
263,571000  	23,608342  	34,652381  	25,240134  	1256,670793  	80,504189  	74,624400  	0,006525  	0,011669  	0,003959  	0,004225  	0,004420  	0,000000  	-0,000000  	28,506085  	25,762304  	26,880701  	27,120383  	31,684758  	29,761183  	31,320300  	31,252091  	35,621786  	34,368358  	37,655655  	67,668430  	27,755176  	26,522814  	29,868214  	73,741825  	0,188620  	0,095575  	-4413,080257  	25525,855374  	-0,018523  	-0,049997  	0,358971  	0,181893  	-4,484296  	16512,932178  	55333,123795  	8,025391  	-0,047949  
264,567000  	23,636907  	34,635741  	25,239888  	57,696365  	80,511564  	74,624150  	0,006530  	0,011657  	0,003960  	0,004230  	0,004421  	-0,000001  	-0,000000  	28,502882  	25,751255  	26,871641  	27,120258  	31,671174  	29,758939  	31,312189  	31,239748  	35,611193  	34,364063  	37,659365  	67,662831  	27,744748  	26,509206  	29,865357  	73,730932  	0,193028  	0,097809  	-4497,728425  	1757,593576  	-0,053831  	-0,050009  	0,359860  	0,182344  	-4,501232  	16488,227452  	55434,655256  	8,040117  	-0,047959  
265,570000  	23,677267  	34,619840  	25,239858  	1256,670793  	80,515657  	74,622091  	0,006533  	0,011649  	0,003958  	0,004233  	0,004452  	-0,000000  	-0,000000  	28,522182  	25,752461  	26,875291  	27,123575  	31,685148  	29,768241  	31,324779  	31,258544  	35,619142  	34,370046  	37,671935  	67,675126  	27,750175  	26,511543  	29,876421  	73,750172  	0,195578  	0,099101  	-4533,823383  	25529,117024  	-0,018526  	-0,050004  	0,384618  	0,194889  	-4,815938  	16471,156069  	55498,268646  	8,049343  	-0,047955  
266,568000  	23,677328  	34,613431  	25,241087  	657,183579  	80,513970  	74,623776  	0,006523  	0,011697  	0,003962  	0,004191  	0,004408  	0,000000  	-0,000000  	28,521966  	25,756781  	26,879645  	27,119862  	31,679801  	29,771443  	31,325995  	31,253158  	35,624484  	34,374113  	37,665130  	67,669408  	27,757036  	26,510341  	29,876766  	73,744100  	0,161501  	0,081834  	-3741,644621  	18442,477277  	-0,027562  	-0,049998  	0,349574  	0,177132  	-4,374633  	16574,520317  	55278,188489  	8,017423  	-0,047950  
267,567000  	23,650237  	34,613985  	25,241087  	657,183579  	80,514345  	74,623589  	0,006529  	0,011674  	0,003961  	0,004223  	0,004461  	-0,000001  	-0,000000  	28,506542  	25,759018  	26,883107  	27,121389  	31,680662  	29,765047  	31,322929  	31,245773  	35,611475  	34,370637  	37,661942  	67,677687  	27,751904  	26,499289  	29,878881  	73,740872  	0,187645  	0,095081  	-4358,332587  	18446,738348  	-0,027568  	-0,050011  	0,391641  	0,198447  	-4,901532  	16523,896179  	55413,104799  	8,036991  	-0,047961  
268,571000  	23,621795  	34,621874  	25,240104  	1256,670793  	80,513970  	74,630076  	0,006531  	0,011668  	0,003962  	0,004251  	0,004429  	0,000002  	-0,000000  	28,506635  	25,760771  	26,892668  	27,121832  	31,685339  	29,768722  	31,316803  	31,245279  	35,614765  	34,370089  	37,660702  	67,683079  	27,765450  	26,492673  	29,882536  	73,748891  	0,209902  	0,106359  	-4891,459705  	25518,801403  	-0,018518  	-0,049981  	0,366306  	0,185610  	-4,579129  	16511,713249  	55456,933005  	8,043348  	-0,047935  
269,567000  	23,590374  	34,633060  	25,241548  	1256,670793  	80,513626  	74,633133  	0,006526  	0,011695  	0,003961  	0,004166  	0,004397  	0,000000  	-0,000000  	28,501399  	25,748589  	26,881123  	27,114572  	31,681896  	29,762850  	31,316461  	31,240028  	35,606503  	34,367058  	37,659084  	67,673545  	27,764001  	26,489195  	29,878170  	73,739615  	0,141041  	0,071466  	-3299,484021  	25525,082395  	-0,018523  	-0,049995  	0,340981  	0,172777  	-4,260078  	16569,390625  	55360,301943  	8,029333  	-0,047947  
270,568000  	23,592708  	34,637620  	25,240995  	657,183579  	80,512689  	74,635753  	0,006530  	0,011671  	0,003961  	0,004265  	0,004446  	-0,000000  	-0,000000  	28,504551  	25,748356  	26,876009  	27,107985  	31,679592  	29,755490  	31,314761  	31,242493  	35,613488  	34,364174  	37,655093  	67,675357  	27,766452  	26,489291  	29,873342  	73,744290  	0,221129  	0,112048  	-5174,101014  	18444,485452  	-0,027565  	-0,050004  	0,379627  	0,192360  	-4,740042  	16517,105403  	55436,131024  	8,040331  	-0,047955  
271,568000  	23,604042  	34,634755  	25,241363  	-242,047242  	80,509908  	74,635035  	0,006533  	0,011679  	0,003961  	0,004213  	0,004433  	0,000001  	-0,000000  	28,508572  	25,755706  	26,879543  	27,111519  	31,683138  	29,752645  	31,317313  	31,250305  	35,619542  	34,366421  	37,655892  	67,675738  	27,767037  	26,491148  	29,874256  	73,747785  	0,179246  	0,090826  	-4188,714926  	-27072,757790  	-0,102756  	-0,049985  	0,369459  	0,187207  	-4,611456  	16534,340206  	55507,073829  	8,050620  	-0,047939  
272,569000  	23,625112  	34,627790  	25,241179  	956,927186  	80,506845  	74,638092  	0,006532  	0,011673  	0,003962  	0,004219  	0,004451  	-0,000001  	-0,000000  	28,505938  	25,753490  	26,878267  	27,115270  	31,680675  	29,755874  	31,317585  	31,245548  	35,617107  	34,364880  	37,658248  	67,676029  	27,770887  	26,487871  	29,875876  	73,751458  	0,184383  	0,093428  	-4297,787220  	22478,772512  	-0,022161  	-0,050009  	0,383145  	0,194143  	-4,777311  	16523,304754  	55477,028877  	8,046263  	-0,047959  
273,572000  	23,690813  	34,615865  	25,242316  	-242,047242  	80,506158  	74,636377  	0,006527  	0,011685  	0,003962  	0,004234  	0,004426  	-0,000001  	-0,000000  	28,503862  	25,752302  	26,879369  	27,111501  	31,682405  	29,758099  	31,317825  	31,243684  	35,614966  	34,363807  	37,657314  	67,679716  	27,778660  	26,488909  	29,880722  	73,754982  	0,196543  	0,099590  	-4548,899494  	-27084,043298  	-0,102799  	-0,050008  	0,363304  	0,184089  	-4,530708  	16548,247182  	55366,367422  	8,030213  	-0,047959  
274,568000  	23,731542  	34,607977  	25,242746  	357,439972  	80,507408  	74,629203  	0,006530  	0,011691  	0,003960  	0,004225  	0,004510  	0,000000  	-0,000000  	28,503151  	25,745062  	26,875800  	27,101745  	31,676982  	29,752430  	31,311394  	31,236277  	35,611098  	34,360263  	37,651886  	67,677714  	27,769426  	26,486851  	29,876797  	73,750941  	0,188831  	0,095682  	-4350,934775  	12483,625260  	-0,036456  	-0,050000  	0,429933  	0,217850  	-5,369322  	16560,467607  	55442,443642  	8,041247  	-0,047951  
275,567000  	23,746654  	34,603724  	25,242838  	1256,670793  	80,511157  	74,628984  	0,006533  	0,011673  	0,003962  	0,004211  	0,004480  	-0,000001  	-0,000001  	28,495574  	25,737512  	26,862465  	27,097722  	31,666293  	29,750042  	31,304204  	31,225014  	35,606476  	34,352308  	37,649196  	67,670039  	27,750690  	26,477757  	29,869973  	73,747719  	0,177335  	0,089857  	-4078,786463  	25531,630054  	-0,018528  	-0,050009  	0,406036  	0,205742  	-5,074302  	16522,217409  	55501,361404  	8,049792  	-0,047960  
276,568000  	23,745487  	34,610996  	25,243207  	57,696365  	80,505533  	74,635971  	0,006528  	0,011674  	0,003960  	0,004200  	0,004427  	-0,000000  	-0,000000  	28,495059  	25,740315  	26,859217  	27,103628  	31,672668  	29,755406  	31,306221  	31,230750  	35,605959  	34,353417  	37,650230  	67,672058  	27,744022  	26,481143  	29,875166  	73,749970  	0,168864  	0,085564  	-3886,947838  	1757,151804  	-0,053823  	-0,050001  	0,364614  	0,184753  	-4,546873  	16525,208491  	55390,198612  	8,033669  	-0,047953  
277,569000  	23,732617  	34,627883  	25,244160  	1256,670793  	80,498190  	74,640431  	0,006525  	0,011672  	0,003966  	0,004203  	0,004460  	-0,000000  	-0,000000  	28,503171  	25,741256  	26,866556  	27,105744  	31,677278  	29,753588  	31,306139  	31,236408  	35,609291  	34,358976  	37,650094  	67,681409  	27,745238  	26,491204  	29,882578  	73,749863  	0,171033  	0,086664  	-3947,677502  	25527,272770  	-0,018524  	-0,050000  	0,390677  	0,197959  	-4,862093  	16519,645135  	55326,733506  	8,024464  	-0,047951  
278,568000  	23,719225  	34,645078  	25,244098  	1256,670793  	80,496878  	74,636938  	0,006529  	0,011696  	0,003960  	0,004289  	0,004454  	0,000000  	-0,000001  	28,495223  	25,742360  	26,865803  	27,099098  	31,669268  	29,743666  	31,303789  	31,232210  	35,607960  	34,351937  	37,648486  	67,672593  	27,740449  	26,485305  	29,881400  	73,743702  	0,240538  	0,121882  	-5567,526031  	25527,175685  	-0,018524  	-0,050000  	0,385651  	0,195412  	-4,801327  	16572,432644  	55420,970857  	8,038132  	-0,047951  
279,569000  	23,696556  	34,659961  	25,243545  	1256,670793  	80,495940  	74,629795  	0,006537  	0,011710  	0,003957  	0,004230  	0,004416  	0,000001  	-0,000000  	28,496859  	25,736605  	26,865586  	27,097509  	31,668748  	29,744059  	31,300211  	31,228572  	35,600072  	34,345694  	37,643611  	67,665788  	27,733071  	26,476637  	29,872944  	73,742362  	0,193052  	0,097821  	-4483,766939  	25522,875403  	-0,018521  	-0,049990  	0,355658  	0,180215  	-4,432604  	16602,162360  	55589,526215  	8,062579  	-0,047943  
280,568000  	23,685622  	34,671917  	25,241886  	1256,670793  	80,497003  	74,629172  	0,006522  	0,011686  	0,003963  	0,004239  	0,004448  	-0,000000  	-0,000000  	28,501423  	25,735705  	26,869643  	27,107919  	31,670917  	29,752752  	31,305809  	31,231071  	35,604205  	34,359106  	37,649664  	67,681085  	27,742824  	26,480985  	29,888243  	73,743363  	0,200541  	0,101616  	-4667,443459  	25527,430572  	-0,018525  	-0,050000  	0,381165  	0,193139  	-4,751871  	16549,835399  	55259,187087  	8,014667  	-0,047952  
281,567000  	23,696280  	34,677310  	25,240718  	-242,047242  	80,497846  	74,633601  	0,006523  	0,011646  	0,003960  	0,004249  	0,004494  	-0,000000  	-0,000000  	28,483081  	25,724572  	26,855414  	27,093886  	31,657697  	29,735221  	31,297302  	31,219258  	35,598762  	34,352659  	37,629878  	67,664066  	27,730612  	26,466012  	29,872069  	73,732497  	0,208701  	0,105751  	-4855,036937  	-27080,492219  	-0,102786  	-0,050001  	0,417222  	0,211409  	-5,198203  	16463,919602  	55291,597505  	8,019368  	-0,047952  
282,568000  	23,721651  	34,674537  	25,238506  	357,439972  	80,497784  	74,636657  	0,006530  	0,011680  	0,003960  	0,004160  	0,004478  	0,000002  	-0,000001  	28,495670  	25,732066  	26,865313  	27,102273  	31,671805  	29,742064  	31,297530  	31,232419  	35,605437  	34,352100  	37,648194  	67,671060  	27,749577  	26,476155  	29,876742  	73,748937  	0,136555  	0,069193  	-3168,535548  	12479,321855  	-0,036443  	-0,049980  	0,404492  	0,204959  	-5,036916  	16536,820512  	55446,094227  	8,041776  	-0,047934  
283,570000  	23,761551  	34,669637  	25,237399  	1256,670793  	80,499159  	74,634755  	0,006529  	0,011685  	0,003963  	0,004229  	0,004469  	0,000001  	-0,000001  	28,498989  	25,733845  	26,857998  	27,096424  	31,671758  	29,733805  	31,298392  	31,221199  	35,602156  	34,346784  	37,647348  	67,670525  	27,742623  	26,472149  	29,875285  	73,736105  	0,192352  	0,097466  	-4444,953587  	25522,786624  	-0,018521  	-0,049990  	0,397359  	0,201344  	-4,950857  	16548,126209  	55413,020066  	8,036979  	-0,047943  
284,569000  	23,755900  	34,664830  	25,234941  	57,696365  	80,500596  	74,633320  	0,006524  	0,011656  	0,003960  	0,004222  	0,004428  	0,000001  	-0,000001  	28,491058  	25,734708  	26,867800  	27,097918  	31,663197  	29,741517  	31,295838  	31,224265  	35,600131  	34,348433  	37,644555  	67,678977  	27,739527  	26,462822  	29,874895  	73,738106  	0,186150  	0,094323  	-4301,969879  	1757,025957  	-0,053805  	-0,049982  	0,365597  	0,185251  	-4,557353  	16484,890428  	55301,094676  	8,020746  	-0,047936  
285,568000  	23,705188  	34,667727  	25,232852  	1256,670793  	80,504596  	74,630107  	0,006535  	0,011675  	0,003957  	0,004254  	0,004473  	0,000000  	-0,000000  	28,495290  	25,742417  	26,873775  	27,113210  	31,676635  	29,746598  	31,308276  	31,241295  	35,605408  	34,356807  	37,660670  	67,687822  	27,745752  	26,474361  	29,888593  	73,743561  	0,212243  	0,107545  	-4929,118256  	25526,581116  	-0,018524  	-0,049998  	0,400500  	0,202936  	-4,998571  	16526,821468  	55541,454292  	8,055607  	-0,047949  
286,572000  	23,675701  	34,676971  	25,230393  	1256,670793  	80,504096  	74,624618  	0,006532  	0,011691  	0,003962  	0,004226  	0,004445  	0,000000  	-0,000000  	28,486881  	25,735757  	26,859211  	27,098649  	31,664777  	29,738419  	31,299670  	31,224370  	35,600609  	34,355515  	37,642761  	67,675602  	27,730547  	26,459359  	29,865484  	73,744025  	0,189962  	0,096255  	-4427,259723  	25525,316682  	-0,018523  	-0,049995  	0,378514  	0,191796  	-4,728174  	16560,249006  	55491,645340  	8,048383  	-0,047947  
287,568000  	23,654783  	34,686123  	25,228089  	1256,670793  	80,501690  	74,624493  	0,006525  	0,011693  	0,003962  	0,004217  	0,004465  	-0,000001  	-0,000000  	28,500956  	25,741110  	26,861976  	27,106939  	31,662946  	29,748575  	31,300409  	31,231939  	35,607234  	34,355289  	37,648972  	67,673419  	27,724162  	26,453197  	29,885057  	73,751688  	0,182511  	0,092480  	-4265,227612  	25531,104205  	-0,018527  	-0,050007  	0,394597  	0,199945  	-4,927164  	16566,181649  	55328,068052  	8,024658  	-0,047958  
288,567000  	23,657548  	34,686924  	25,224831  	1256,670793  	80,499877  	74,631168  	0,006531  	0,011714  	0,003959  	0,004175  	0,004531  	-0,000001  	-0,000000  	28,485028  	25,731115  	26,854704  	27,093039  	31,665609  	29,746553  	31,306975  	31,228439  	35,597172  	34,344556  	37,636971  	67,662489  	27,719559  	26,447483  	29,870985  	73,734107  	0,148309  	0,075149  	-3465,330311  	25532,411786  	-0,018528  	-0,050010  	0,447199  	0,226599  	-5,575928  	16610,892953  	55460,484735  	8,043863  	-0,047960  
289,569000  	23,642374  	34,676170  	25,221912  	57,696365  	80,498846  	74,635971  	0,006534  	0,011621  	0,003959  	0,004247  	0,004410  	0,000001  	-0,000000  	28,498243  	25,727225  	26,863122  	27,100120  	31,670394  	29,748712  	31,315395  	31,223688  	35,599939  	34,347510  	37,636320  	67,670332  	27,718792  	26,440523  	29,877429  	73,748460  	0,206927  	0,104851  	-4836,898307  	1757,905416  	-0,053811  	-0,049987  	0,351142  	0,177926  	-4,373885  	16409,674755  	55513,824234  	8,051599  	-0,047940  
290,567000  	23,642497  	34,666802  	25,219331  	1256,670793  	80,499909  	74,636096  	0,006528  	0,011757  	0,003965  	0,004191  	0,004468  	0,000001  	-0,000000  	28,505540  	25,736679  	26,869631  	27,104509  	31,669869  	29,747109  	31,311080  	31,229015  	35,606322  	34,364380  	37,650893  	67,678880  	27,725568  	26,437652  	29,881216  	73,744006  	0,161710  	0,081939  	-3776,700976  	25520,594044  	-0,018519  	-0,049984  	0,397003  	0,201164  	-4,945925  	16703,886041  	55398,975551  	8,034942  	-0,047937  
291,568000  	23,678619  	34,658020  	25,217211  	1256,670793  	80,502408  	74,633601  	0,006524  	0,011680  	0,003957  	0,004239  	0,004441  	0,000000  	-0,000001  	28,503057  	25,740497  	26,867601  	27,111292  	31,686772  	29,753199  	31,306320  	31,234120  	35,604172  	34,363462  	37,656520  	67,680324  	27,724760  	26,438694  	29,883770  	73,745852  	0,200025  	0,101354  	-4652,515680  	25526,439220  	-0,018524  	-0,049996  	0,375313  	0,190174  	-4,679688  	16537,361709  	55312,300631  	8,022371  	-0,047948  
292,568000  	23,728624  	34,649823  	25,215920  	1256,670793  	80,499596  	74,629296  	0,006532  	0,011686  	0,003961  	0,004236  	0,004510  	-0,000000  	-0,000000  	28,505001  	25,744842  	26,876379  	27,100068  	31,676916  	29,757161  	31,313064  	31,241650  	35,613572  	34,373568  	37,653962  	67,682396  	27,715257  	26,434929  	29,886042  	73,755154  	0,197644  	0,100148  	-4572,750602  	25528,700036  	-0,018525  	-0,050001  	0,429886  	0,217826  	-5,361505  	16550,868978  	55472,262639  	8,045571  	-0,047952  
293,568000  	23,703130  	34,645324  	25,212970  	1256,670793  	80,499315  	74,634380  	0,006531  	0,011720  	0,003964  	0,004206  	0,004444  	0,000000  	-0,000000  	28,510606  	25,740274  	26,872213  	27,110764  	31,675712  	29,753381  	31,309959  	31,240345  	35,610317  	34,361109  	37,657433  	67,678766  	27,703475  	26,422672  	29,884368  	73,752377  	0,173855  	0,088094  	-4030,092918  	25526,193386  	-0,018523  	-0,049995  	0,378028  	0,191550  	-4,710440  	16624,042254  	55458,076902  	8,043514  	-0,047948  
294,569000  	23,686359  	34,643167  	25,210880  	1256,670793  	80,497628  	74,630949  	0,006523  	0,011680  	0,003963  	0,004231  	0,004463  	-0,000000  	-0,000000  	28,497303  	25,735234  	26,861744  	27,104718  	31,673763  	29,749683  	31,311220  	31,230855  	35,605415  	34,357518  	37,651810  	67,673027  	27,692774  	26,405601  	29,877988  	73,750241  	0,193799  	0,098199  	-4498,419320  	25528,616571  	-0,018525  	-0,050001  	0,392745  	0,199007  	-4,895266  	16538,464617  	55296,843898  	8,020129  	-0,047952  
295,570000  	23,697324  	34,649915  	25,209498  	1256,670793  	80,497628  	74,637624  	0,006530  	0,011658  	0,003960  	0,004236  	0,004502  	-0,000001  	-0,000000  	28,493927  	25,731038  	26,861532  	27,102480  	31,668005  	29,742141  	31,306458  	31,229176  	35,603213  	34,358844  	37,645638  	67,667296  	27,690042  	26,406247  	29,872910  	73,740540  	0,198218  	0,100439  	-4599,224885  	25536,006382  	-0,018530  	-0,050017  	0,424156  	0,214923  	-5,280776  	16490,571928  	55428,222600  	8,039184  	-0,047966  
296,568000  	23,680615  	34,661625  	25,208330  	1256,670793  	80,496753  	74,640618  	0,006531  	0,011687  	0,003959  	0,004264  	0,004435  	-0,000000  	-0,000001  	28,495681  	25,733092  	26,867190  	27,101507  	31,672903  	29,747273  	31,310335  	31,234150  	35,608970  	34,355097  	37,650169  	67,669740  	27,689167  	26,409794  	29,874829  	73,742266  	0,220632  	0,111796  	-5132,573568  	25529,039453  	-0,018525  	-0,050001  	0,370771  	0,187873  	-4,613086  	16553,332305  	55453,487192  	8,042848  	-0,047953  
297,567000  	23,687833  	34,664029  	25,206978  	-242,047242  	80,504908  	74,630107  	0,006530  	0,011669  	0,003962  	0,004216  	0,004447  	0,000003  	-0,000000  	28,505471  	25,737430  	26,877536  	27,106657  	31,677564  	29,753635  	31,314679  	31,240189  	35,608736  	34,359307  	37,656118  	67,679185  	27,702156  	26,413014  	29,882887  	73,751005  	0,181898  	0,092169  	-4229,645413  	-27063,002453  	-0,102733  	-0,049966  	0,380077  	0,192588  	-4,743931  	16513,150779  	55442,111770  	8,041198  	-0,047923  
298,570000  	23,699874  	34,663166  	25,204520  	357,439972  	80,516220  	74,629484  	0,006526  	0,011689  	0,003960  	0,004224  	0,004462  	0,000000  	-0,000000  	28,497633  	25,733131  	26,872838  	27,101537  	31,677783  	29,747221  	31,311393  	31,239986  	35,607950  	34,361794  	37,649364  	67,681364  	27,694456  	26,410887  	29,888464  	73,744752  	0,188342  	0,095434  	-4374,335505  	12484,762664  	-0,036455  	-0,049996  	0,392500  	0,198883  	-4,908945  	16556,774738  	55346,991782  	8,027402  	-0,047948  
299,571000  	23,692226  	34,662704  	25,202676  	1256,670793  	80,518032  	74,631604  	0,006526  	0,011720  	0,003958  	0,004269  	0,004408  	-0,000000  	-0,000001  	28,493342  	25,734361  	26,871688  	27,103269  	31,678582  	29,746536  	31,313736  	31,236961  	35,612034  	34,362710  	37,648807  	67,681041  	27,687894  	26,418065  	29,883385  	73,743955  	0,224267  	0,113638  	-5212,139709  	25529,374094  	-0,018525  	-0,050002  	0,349723  	0,177207  	-4,373709  	16623,626276  	55362,264927  	8,029618  	-0,047953  
300,569000  	23,675086  	34,662272  	25,201938  	57,696365  	80,512407  	74,632914  	0,006535  	0,011677  	0,003964  	0,004234  	0,004485  	0,000000  	-0,000000  	28,496291  	25,735215  	26,870307  	27,106419  	31,675337  	29,745293  	31,312164  	31,234705  	35,608472  	34,361668  	37,650905  	67,677190  	27,692661  	26,425381  	29,881971  	73,744510  	0,196201  	0,099416  	-4566,797407  	1759,357025  	-0,053822  	-0,049997  	0,410018  	0,207759  	-5,121729  	16531,001768  	55554,340787  	8,057476  	-0,047949  
301,571000  	23,660589  	34,660485  	25,199665  	57,696365  	80,506533  	74,632883  	0,006521  	0,011644  	0,003960  	0,004247  	0,004432  	-0,000001  	-0,000000  	28,492369  	25,730573  	26,862965  	27,104649  	31,673740  	29,743745  	31,309756  	31,230842  	35,606753  	34,358712  	37,646133  	67,672377  	27,689732  	26,428078  	29,884834  	73,742780  	0,206956  	0,104866  	-4822,725861  	1760,057794  	-0,053840  	-0,050015  	0,368628  	0,186786  	-4,600129  	16459,321910  	55243,024244  	8,012323  	-0,047964  
302,569000  	23,686328  	34,661533  	25,198005  	1256,670793  	80,507345  	74,635940  	0,006526  	0,011703  	0,003962  	0,004266  	0,004472  	-0,000000  	-0,000000  	28,491564  	25,731555  	26,866296  	27,104628  	31,673756  	29,748287  	31,314292  	31,229225  	35,607591  	34,359258  	37,646453  	67,674572  	27,686189  	26,433192  	29,880086  	73,749663  	0,222457  	0,112721  	-5172,289465  	25530,892023  	-0,018526  	-0,050005  	0,399727  	0,202544  	-4,986310  	16586,873034  	55348,121557  	8,027566  	-0,047955  
303,567000  	23,707706  	34,659961  	25,196899  	357,439972  	80,505939  	74,635534  	0,006535  	0,011652  	0,003965  	0,004244  	0,004468  	0,000000  	-0,000000  	28,491038  	25,730391  	26,866856  	27,099940  	31,667905  	29,746135  	31,307741  	31,230443  	35,602611  	34,357729  	37,647289  	67,672760  	27,684769  	26,435253  	29,872966  	73,747557  	0,204658  	0,103702  	-4748,503037  	12485,574813  	-0,036456  	-0,049998  	0,396909  	0,201117  	-4,950312  	16476,459793  	55537,443591  	8,055025  	-0,047950  
304,571000  	23,719931  	34,657249  	25,196592  	-242,047242  	80,506064  	74,640462  	0,006529  	0,011665  	0,003960  	0,004283  	0,004472  	0,000000  	-0,000000  	28,490483  	25,726590  	26,862575  	27,103173  	31,665916  	29,741981  	31,299484  	31,230728  	35,604430  	34,352380  	37,644403  	67,667346  	27,684138  	26,441919  	29,870500  	73,744151  	0,235574  	0,119367  	-5458,351895  	-27076,160474  	-0,102787  	-0,049994  	0,400465  	0,202919  	-4,990588  	16505,030712  	55409,404786  	8,036455  	-0,047946  
