07/02/2020 17:40:57
Tempo T_f_e T_f_s AR AR T_q_e T_q_s Corrente_P_f Corrente_P_q Corrente_P_RESERVA Corrente_eletromag_f Corrente_eletromag_q AR AR T_1 T_2 T_3 T_4 T_5 T_6 T_7 T_8 T_9 T_10 T_11 T_12 T_13 T_14 T_15 T_16 Velocidade_f_(m/s) Vazao_f_(L/s) q_f_(W) AR AR AR Velocidade_q_(m/s) Vazao_q_(L/s) q_q_(W) DeltaP_q_(Pa) DeltaP_f_(Pa) DeltaP_f_(Psi) AR
0,008000  	18,291011  	37,921903  	1256,818530  	-242,047242  	79,823917  	74,464928  	0,004748  	0,011711  	0,003961  	0,004094  	0,004469  	0,000000  	-0,000000  	25,073431  	21,379584  	22,740254  	24,343349  	31,457635  	28,980001  	30,743815  	31,730186  	38,910899  	36,863747  	40,796167  	67,820187  	23,076747  	21,770514  	24,451147  	73,486861  	0,082971  	0,042042  	-3452,001945  	-35506,712987  	-0,021693  	-0,049995  	0,397989  	0,201664  	-4,531226  	16603,909752  	17048,610206  	2,472692  	-0,047947  
2,563000  	18,293587  	37,917769  	1256,818530  	357,439972  	79,824042  	74,462745  	0,004750  	0,011778  	0,003959  	0,004133  	0,004474  	0,000000  	-0,000000  	25,094762  	21,399653  	22,771353  	24,362218  	31,465374  	29,000372  	30,764372  	31,737923  	38,931262  	36,890059  	40,807732  	67,835019  	23,083623  	21,808488  	24,455799  	73,515860  	0,114635  	0,058086  	-4767,755982  	-16233,705807  	-0,015674  	-0,049998  	0,401919  	0,203655  	-4,577935  	16748,109914  	17084,770065  	2,477936  	-0,047950  
3,562000  	18,304811  	37,914531  	1256,818530  	357,439972  	79,820637  	74,470199  	0,004734  	0,011749  	0,003962  	0,004131  	0,004476  	0,000000  	-0,000000  	25,084206  	21,386877  	22,764569  	24,357483  	31,468860  	28,994045  	30,751523  	31,743095  	38,924779  	36,883181  	40,810578  	67,844351  	23,079723  	21,817583  	24,452024  	73,500457  	0,112589  	0,057050  	-4679,227773  	-16233,904341  	-0,015675  	-0,049999  	0,403367  	0,204389  	-4,585132  	16686,114994  	16748,224236  	2,429125  	-0,047950  
4,563000  	18,297941  	37,917122  	57,725912  	956,927186  	79,819825  	74,472258  	0,004746  	0,011689  	0,003962  	0,004093  	0,004458  	-0,000001  	-0,000000  	25,082499  	21,390071  	22,764263  	24,356587  	31,463678  	28,997970  	30,742760  	31,732212  	38,924733  	36,876255  	40,809535  	67,836392  	23,089883  	21,828568  	24,455285  	73,498571  	0,081622  	0,041358  	-3393,865921  	21307,565285  	-0,021699  	-0,050008  	0,388909  	0,197063  	-4,418413  	16556,849020  	16995,927389  	2,465051  	-0,047959  
5,564000  	18,288343  	37,923198  	57,725912  	1256,670793  	79,818763  	74,473380  	0,004752  	0,011799  	0,003959  	0,004146  	0,004485  	0,000000  	-0,000000  	25,086559  	21,389590  	22,762626  	24,351934  	31,458560  	28,988448  	30,743935  	31,734384  	38,929459  	36,873354  	40,803388  	67,834017  	23,090288  	21,836913  	24,459595  	73,498078  	0,124882  	0,063279  	-5196,773226  	24489,904368  	-0,018200  	-0,049997  	0,410148  	0,207825  	-4,657815  	16794,256626  	17134,331879  	2,485125  	-0,047949  
6,563000  	18,304044  	37,920730  	657,272221  	1256,670793  	79,820012  	74,469014  	0,004736  	0,011719  	0,003962  	0,004109  	0,004465  	-0,000000  	-0,000000  	25,085396  	21,389829  	22,761751  	24,356046  	31,461031  	28,990451  	30,742961  	31,732343  	38,923607  	36,880082  	40,811097  	67,830506  	23,089290  	21,851494  	24,463582  	73,499903  	0,094973  	0,048124  	-3948,515478  	9723,196350  	-0,013766  	-0,050004  	0,394883  	0,200090  	-4,489167  	16620,563034  	16777,125291  	2,433316  	-0,047954  
7,563000  	18,334956  	37,919157  	657,272221  	1256,670793  	79,825729  	74,469731  	0,004749  	0,011781  	0,003962  	0,004127  	0,004504  	0,000000  	-0,000000  	25,091341  	21,393407  	22,768148  	24,366624  	31,464854  	28,999592  	30,751803  	31,733956  	38,921957  	36,881897  	40,819605  	67,834865  	23,111468  	21,862271  	24,462721  	73,506918  	0,109367  	0,055417  	-4539,365189  	9722,297831  	-0,013765  	-0,049998  	0,425311  	0,215508  	-4,839601  	16755,210551  	17070,139480  	2,475814  	-0,047950  
8,562000  	18,338513  	37,916381  	1256,818530  	1256,670793  	79,830728  	74,471852  	0,004749  	0,011787  	0,003960  	0,004140  	0,004481  	-0,000000  	-0,000000  	25,084879  	21,385979  	22,754936  	24,358970  	31,458571  	28,988245  	30,747577  	31,731745  	38,913969  	36,872415  	40,805859  	67,833093  	23,104704  	21,863438  	24,459177  	73,499293  	0,119949  	0,060779  	-4977,000870  	-1,993710  	-0,011069  	-0,050004  	0,407574  	0,206521  	-4,640264  	16767,507380  	17055,155840  	2,473641  	-0,047955  
9,563000  	18,325081  	37,913143  	-242,047242  	956,927186  	79,832915  	74,477404  	0,004734  	0,011752  	0,003961  	0,004109  	0,004452  	-0,000000  	-0,000000  	25,079332  	21,386551  	22,763345  	24,356935  	31,472643  	28,991221  	30,742730  	31,733923  	38,925768  	36,877147  	40,807282  	67,835086  	23,095366  	21,879301  	24,459386  	73,500059  	0,094566  	0,047917  	-3925,815809  	34194,256533  	-0,026854  	-0,050002  	0,384290  	0,194723  	-4,372429  	16692,502525  	16751,069856  	2,429537  	-0,047953  
10,563000  	18,316311  	37,914870  	357,499067  	357,439972  	79,832790  	74,474784  	0,004749  	0,011750  	0,003961  	0,004115  	0,004489  	0,000000  	-0,000000  	25,086272  	21,401880  	22,773928  	24,372230  	31,476466  	28,999017  	30,754110  	31,741485  	38,938016  	36,887665  	40,812747  	67,842547  	23,105652  	21,894114  	24,472318  	73,508087  	0,099826  	0,050583  	-4146,433534  	-1,685114  	-0,026850  	-0,049996  	0,413646  	0,209597  	-4,708630  	16688,472912  	17064,074001  	2,474935  	-0,047948  
11,564000  	18,312999  	37,911816  	1256,818530  	357,439972  	79,836226  	74,483267  	0,004746  	0,011773  	0,003961  	0,004144  	0,004485  	0,000000  	-0,000000  	25,090408  	21,400921  	22,770987  	24,372700  	31,464415  	28,999857  	30,756711  	31,744482  	38,928425  	36,886323  	40,804612  	67,834238  	23,102568  	21,896383  	24,470013  	73,504215  	0,123107  	0,062379  	-5113,495115  	-16232,681039  	-0,015673  	-0,049995  	0,410015  	0,207758  	-4,662909  	16738,713614  	17004,676084  	2,466320  	-0,047947  
12,563000  	18,311097  	37,911261  	57,725912  	956,927186  	79,838975  	74,485263  	0,004737  	0,011670  	0,003962  	0,004119  	0,004510  	0,000001  	-0,000000  	25,096354  	21,397279  	22,769079  	24,369908  	31,470060  	29,002178  	30,753797  	31,746220  	38,931481  	36,883929  	40,807094  	67,834981  	23,099028  	21,904257  	24,461641  	73,503776  	0,103433  	0,052410  	-4296,580874  	21300,942623  	-0,021693  	-0,049991  	0,429838  	0,217802  	-4,889038  	16516,138324  	16803,611452  	2,437158  	-0,047944  
13,564000  	18,308859  	37,913143  	1256,818530  	57,696365  	79,831228  	74,488102  	0,004748  	0,011774  	0,003962  	0,004187  	0,004525  	-0,000000  	-0,000000  	25,094848  	21,393713  	22,768561  	24,365559  	31,467547  	28,994170  	30,749720  	31,741223  	38,932983  	36,886337  	40,807363  	67,835246  	23,095790  	21,906538  	24,461563  	73,504050  	0,158415  	0,080270  	-6581,947665  	-24493,845838  	-0,018200  	-0,050001  	0,442138  	0,224035  	-5,018995  	16739,965087  	17050,481396  	2,472963  	-0,047952  
14,563000  	18,305669  	37,916289  	1256,818530  	1256,670793  	79,826292  	74,482300  	0,004743  	0,011750  	0,003961  	0,004125  	0,004477  	0,000000  	-0,000000  	25,096813  	21,398906  	22,764484  	24,370572  	31,466584  	28,996680  	30,755750  	31,744221  	38,933666  	36,889758  	40,808977  	67,833612  	23,096322  	21,910179  	24,469627  	73,506928  	0,107632  	0,054538  	-4473,429040  	-1,993468  	-0,011068  	-0,049997  	0,404333  	0,204878  	-4,590581  	16689,234124  	16942,418424  	2,457290  	-0,047949  
15,565000  	18,306497  	37,919805  	357,499067  	357,439972  	79,824948  	74,479431  	0,004733  	0,011718  	0,003961  	0,004085  	0,004489  	0,000000  	-0,000000  	25,098309  	21,405850  	22,770441  	24,377398  	31,476115  	29,008208  	30,763423  	31,748423  	38,939708  	36,885528  	40,812114  	67,834588  	23,099685  	21,912815  	24,471389  	73,508843  	0,075139  	0,038073  	-3123,349364  	-1,685220  	-0,026852  	-0,049999  	0,413432  	0,209489  	-4,695227  	16620,359290  	16722,380634  	2,425376  	-0,047951  
16,563000  	18,295887  	37,922705  	957,045375  	956,927186  	79,831134  	74,481677  	0,004747  	0,011806  	0,003962  	0,004100  	0,004529  	-0,000001  	-0,000000  	25,088665  	21,401764  	22,772722  	24,367785  	31,471041  	28,998580  	30,757225  	31,742856  	38,933321  	36,876812  	40,801888  	67,833884  	23,098921  	21,906148  	24,467986  	73,502697  	0,087323  	0,044247  	-3632,347812  	-1,917421  	-0,013768  	-0,050010  	0,445464  	0,225720  	-5,062739  	16808,254863  	17023,056110  	2,468986  	-0,047960  
17,568000  	18,299812  	37,925542  	57,725912  	1256,670793  	79,834102  	74,488320  	0,004745  	0,011739  	0,003961  	0,004119  	0,004489  	0,000000  	-0,000000  	25,089801  	21,403348  	22,765919  	24,364592  	31,471804  	28,995686  	30,752601  	31,746973  	38,933641  	36,881923  	40,800092  	67,837811  	23,103750  	21,905015  	24,472089  	73,502674  	0,102683  	0,052030  	-4271,016030  	24489,147522  	-0,018200  	-0,049996  	0,413553  	0,209550  	-4,696839  	16665,310418  	16968,276148  	2,461040  	-0,047948  
18,564000  	18,328639  	37,925172  	1256,818530  	1256,670793  	79,831540  	74,485326  	0,004737  	0,011734  	0,003961  	0,004128  	0,004465  	-0,000000  	-0,000000  	25,091672  	21,403078  	22,777583  	24,369223  	31,481026  	29,009315  	30,755564  	31,748199  	38,941197  	36,893288  	40,806265  	67,835150  	23,104110  	21,902562  	24,475033  	73,504741  	0,110390  	0,055935  	-4584,729936  	-1,993761  	-0,011069  	-0,050006  	0,394315  	0,199802  	-4,478707  	16653,778338  	16812,748506  	2,438483  	-0,047956  
19,566000  	18,349155  	37,927300  	1256,818530  	1256,670793  	79,825167  	74,488944  	0,004749  	0,011788  	0,003962  	0,004140  	0,004518  	-0,000000  	-0,000000  	25,090486  	21,401518  	22,778026  	24,370450  	31,479155  	29,008391  	30,764340  	31,746374  	38,935003  	36,891490  	40,808935  	67,838443  	23,103460  	21,914281  	24,482110  	73,506179  	0,120345  	0,060980  	-4993,491992  	-1,993772  	-0,011070  	-0,050006  	0,436194  	0,221023  	-4,945130  	16769,522186  	17055,056984  	2,473627  	-0,047957  
20,563000  	18,348971  	37,931434  	1256,818530  	1256,670793  	79,823043  	74,478776  	0,004743  	0,011735  	0,003961  	0,004136  	0,004480  	0,000000  	-0,000000  	25,096875  	21,399764  	22,773649  	24,366745  	31,475969  	29,009131  	30,759188  	31,750120  	38,930965  	36,884105  	40,814019  	67,838722  	23,101197  	21,934775  	24,472539  	73,506727  	0,116847  	0,059207  	-4849,410842  	-1,993488  	-0,011068  	-0,049998  	0,406817  	0,206137  	-4,619028  	16655,941708  	16945,941909  	2,457801  	-0,047950  
21,564000  	18,337011  	37,929521  	957,045375  	1256,670793  	79,829510  	74,479182  	0,004738  	0,011787  	0,003961  	0,004076  	0,004479  	-0,000001  	-0,000000  	25,092667  	21,390692  	22,763770  	24,360323  	31,471424  	29,001327  	30,751755  	31,743650  	38,925185  	36,879884  	40,800079  	67,829639  	23,090151  	21,956996  	24,465504  	73,504094  	0,067896  	0,034403  	-2819,287969  	4417,301664  	-0,012272  	-0,050007  	0,405922  	0,205684  	-4,614087  	16767,324859  	16819,159979  	2,439413  	-0,047957  
22,564000  	18,322904  	37,930015  	357,499067  	1256,670793  	79,829884  	74,475189  	0,004748  	0,011702  	0,003962  	0,004104  	0,004516  	0,000000  	-0,000000  	25,100214  	21,385010  	22,766049  	24,367953  	31,476839  	29,001934  	30,754196  	31,741363  	38,935773  	36,874579  	40,803133  	67,833614  	23,088745  	21,994481  	24,472702  	73,499975  	0,091222  	0,046223  	-3790,694402  	16230,108254  	-0,015675  	-0,049997  	0,435271  	0,220555  	-4,951729  	16585,021648  	17032,277897  	2,470323  	-0,047949  
23,562000  	18,309104  	37,931680  	1256,818530  	1256,670793  	79,823418  	74,479400  	0,004745  	0,011740  	0,003962  	0,004156  	0,004500  	-0,000000  	-0,000000  	25,091813  	21,387299  	22,753502  	24,354759  	31,467915  	28,990916  	30,748372  	31,733101  	38,923003  	36,882177  	40,803651  	67,833990  	23,080066  	22,023178  	24,470819  	73,501049  	0,133041  	0,067413  	-5532,812659  	-1,993698  	-0,011069  	-0,050004  	0,422208  	0,213936  	-4,793550  	16667,112283  	16988,379080  	2,463956  	-0,047955  
24,564000  	18,301253  	37,928719  	1256,818530  	57,696365  	79,826479  	74,483143  	0,004735  	0,011729  	0,003962  	0,004093  	0,004426  	-0,000000  	-0,000000  	25,102680  	21,403348  	22,776969  	24,373337  	31,480151  	29,015126  	30,767990  	31,750340  	38,937687  	36,885922  	40,815706  	67,842300  	23,086534  	22,060179  	24,485586  	73,508727  	0,081789  	0,041443  	-3402,249668  	-24493,976774  	-0,018200  	-0,050001  	0,363263  	0,184068  	-4,123794  	16644,052369  	16756,026744  	2,430256  	-0,047952  
25,562000  	18,311067  	37,932606  	957,045375  	1256,670793  	79,833508  	74,476686  	0,004746  	0,011812  	0,003961  	0,004091  	0,004512  	-0,000000  	-0,000000  	25,097781  	21,406162  	22,779916  	24,376972  	31,481699  	29,012883  	30,764769  	31,753969  	38,943250  	36,887644  	40,809360  	67,837813  	23,101951  	22,076017  	24,482384  	73,501943  	0,080271  	0,040674  	-3338,089360  	4416,950734  	-0,012271  	-0,050002  	0,431763  	0,218778  	-4,913777  	16821,264090  	17009,484688  	2,467017  	-0,047953  
26,564000  	18,317261  	37,933284  	357,499067  	657,183579  	79,831072  	74,477310  	0,004741  	0,011683  	0,003962  	0,004143  	0,004481  	0,000000  	-0,000000  	25,092952  	21,402872  	22,767460  	24,376055  	31,476827  	29,005425  	30,764150  	31,753498  	38,944531  	36,887176  	40,810865  	67,832203  	23,092612  	22,076438  	24,480146  	73,505358  	0,122591  	0,062118  	-5096,532435  	7099,430998  	-0,021694  	-0,049994  	0,407346  	0,206405  	-4,633240  	16544,485691  	16901,668854  	2,451380  	-0,047946  
27,564000  	18,334649  	37,935690  	1256,818530  	657,183579  	79,832977  	74,481178  	0,004731  	0,011605  	0,003962  	0,004120  	0,004549  	0,000001  	-0,000000  	25,098443  	21,398894  	22,770521  	24,368957  	31,470004  	29,000326  	30,752636  	31,745532  	38,942537  	36,883353  	40,803056  	67,828541  	23,086061  	22,049530  	24,488833  	73,488497  	0,104218  	0,052808  	-4329,410293  	-9724,134356  	-0,013762  	-0,049988  	0,461220  	0,233704  	-5,244104  	16376,469355  	16677,556814  	2,418875  	-0,047941  
28,564000  	18,344585  	37,934271  	1256,818530  	57,696365  	79,833790  	74,480429  	0,004744  	0,011895  	0,003961  	0,004123  	0,004500  	0,000000  	-0,000000  	25,094194  	21,403517  	22,786406  	24,377064  	31,475858  	28,997636  	30,757880  	31,755344  	38,936328  	36,886330  	40,818124  	67,831991  	23,109362  	22,030669  	24,485300  	73,501611  	0,106431  	0,053929  	-4418,758593  	-24492,812699  	-0,018199  	-0,049999  	0,421915  	0,213787  	-4,798595  	17001,465478  	16959,223826  	2,459727  	-0,047950  
29,566000  	18,343451  	37,927578  	1256,818530  	956,927186  	79,833477  	74,488632  	0,004743  	0,011821  	0,003959  	0,004117  	0,004479  	0,000000  	-0,000000  	25,101495  	21,410786  	22,774398  	24,380888  	31,477455  	29,013220  	30,770390  	31,760901  	38,944535  	36,898503  	40,815115  	67,828140  	23,111312  	22,028523  	24,483583  	73,510311  	0,101192  	0,051275  	-4200,071411  	-4420,296929  	-0,012269  	-0,049996  	0,405478  	0,205459  	-4,604328  	16841,052066  	16931,396057  	2,455691  	-0,047948  
30,565000  	18,348909  	37,926714  	1256,818530  	357,439972  	79,834664  	74,484951  	0,004734  	0,011768  	0,003961  	0,004132  	0,004466  	-0,000001  	-0,000000  	25,102563  	21,403676  	22,779357  	24,374651  	31,481768  	29,006508  	30,769251  	31,753240  	38,933209  	36,873014  	40,807248  	67,832965  	23,118565  	22,004237  	24,496698  	73,497680  	0,113300  	0,057410  	-4701,081186  	-16238,117542  	-0,015679  	-0,050013  	0,395625  	0,200466  	-4,496526  	16726,976375  	16742,391773  	2,428279  	-0,047963  
31,566000  	18,351669  	37,932637  	1256,818530  	1256,670793  	79,838694  	74,484796  	0,004750  	0,011754  	0,003962  	0,004083  	0,004497  	0,000000  	-0,000000  	25,093030  	21,404274  	22,774671  	24,366704  	31,473406  	29,008205  	30,763842  	31,748209  	38,934741  	36,885607  	40,806704  	67,827566  	23,125083  	21,977734  	24,485817  	73,490513  	0,073991  	0,037492  	-3070,567442  	-1,993502  	-0,011068  	-0,049998  	0,419709  	0,212670  	-4,773994  	16697,898924  	17092,339557  	2,479034  	-0,047950  
32,570000  	18,352712  	37,943001  	1256,818530  	1256,670793  	79,837007  	74,494090  	0,004740  	0,011689  	0,003962  	0,004127  	0,004502  	0,000000  	-0,000000  	25,102357  	21,407819  	22,786952  	24,384026  	31,490430  	29,017645  	30,775249  	31,755730  	38,944653  	36,890355  	40,813444  	67,841192  	23,131231  	21,976932  	24,495502  	73,500334  	0,109769  	0,055621  	-4557,491032  	-1,993483  	-0,011068  	-0,049998  	0,423626  	0,214655  	-4,808673  	16555,803415  	16878,557896  	2,448028  	-0,047950  
33,569000  	18,337103  	37,952563  	957,045375  	956,927186  	79,839225  	74,495119  	0,004739  	0,011761  	0,003962  	0,004103  	0,004427  	-0,000000  	-0,000000  	25,101307  	21,409876  	22,780378  	24,385289  	31,485458  	29,015175  	30,772957  	31,757205  	38,941027  	36,889487  	40,809545  	67,836858  	23,127203  	21,966378  	24,497442  	73,497570  	0,089869  	0,045537  	-3736,063301  	-1,917240  	-0,013767  	-0,050005  	0,364428  	0,184658  	-4,137623  	16711,909895  	16856,880340  	2,444884  	-0,047955  
34,566000  	18,308215  	37,956449  	357,499067  	357,439972  	79,835227  	74,493248  	0,004745  	0,011718  	0,003963  	0,004130  	0,004497  	-0,000000  	-0,000000  	25,098849  	21,412185  	22,768931  	24,382555  	31,478120  	29,011622  	30,774806  	31,753719  	38,939149  	36,884649  	40,805972  	67,846559  	23,128507  	21,957913  	24,490769  	73,492441  	0,112257  	0,056882  	-4674,598482  	-1,685285  	-0,026853  	-0,050001  	0,420084  	0,212860  	-4,767626  	16619,580392  	16986,691479  	2,463711  	-0,047953  
35,565000  	18,303155  	37,957282  	1256,818530  	1256,670793  	79,827229  	74,490659  	0,004743  	0,011756  	0,003961  	0,004117  	0,004437  	-0,000001  	-0,000000  	25,100051  	21,409273  	22,779212  	24,379398  	31,484091  	29,007811  	30,776617  	31,752436  	38,945188  	36,888974  	40,810900  	67,838292  	23,128008  	21,947922  	24,491046  	73,500774  	0,101524  	0,051443  	-4228,921929  	-1,993798  	-0,011070  	-0,050007  	0,372613  	0,188806  	-4,224583  	16701,666075  	16941,902964  	2,457215  	-0,047957  
36,565000  	18,330877  	37,960613  	1256,818530  	57,696365  	79,829103  	74,487415  	0,004737  	0,011782  	0,003962  	0,004102  	0,004455  	0,000000  	-0,000000  	25,102336  	21,411417  	22,786682  	24,395720  	31,489667  	29,016852  	30,773898  	31,756911  	38,948103  	36,901676  	40,810214  	67,835896  	23,137882  	21,947667  	24,482300  	73,508619  	0,089626  	0,045414  	-3728,671185  	-24491,706021  	-0,018199  	-0,049996  	0,386444  	0,195814  	-4,385600  	16757,074672  	16803,032442  	2,437074  	-0,047948  
37,564000  	18,343328  	37,966536  	1256,818530  	1256,670793  	79,831103  	74,489786  	0,004745  	0,011819  	0,003961  	0,004111  	0,004413  	0,000001  	-0,000000  	25,098036  	21,401493  	22,776913  	24,386741  	31,481710  	29,009617  	30,764940  	31,759022  	38,944053  	36,894498  	40,802587  	67,829646  	23,131794  	21,935632  	24,478988  	73,500521  	0,096172  	0,048731  	-3999,645373  	-1,993039  	-0,011065  	-0,049985  	0,353734  	0,179240  	-4,014109  	16837,022452  	16970,563942  	2,461372  	-0,047939  
38,700000  	18,324560  	37,964747  	1256,818530  	657,183579  	79,834352  	74,485606  	0,004741  	0,011760  	0,003961  	0,004136  	0,004465  	0,000000  	-0,000000  	25,094848  	21,404423  	22,778573  	24,378243  	31,486235  	29,009217  	30,769037  	31,762134  	38,946598  	36,888490  	40,807818  	67,829622  	23,131140  	21,927077  	24,485609  	73,497794  	0,116825  	0,059196  	-4862,787726  	-9725,401444  	-0,013764  	-0,049995  	0,394621  	0,199957  	-4,484308  	16710,459630  	16897,495748  	2,450775  	-0,047947  
39,564000  	18,311956  	37,961508  	357,499067  	-242,047242  	79,835320  	74,489131  	0,004732  	0,011764  	0,003963  	0,004091  	0,004471  	0,000001  	-0,000000  	25,101217  	21,413969  	22,791034  	24,387373  	31,494130  	29,016675  	30,781759  	31,765929  	38,954830  	36,897851  	40,817782  	67,834448  	23,141767  	21,927354  	24,490555  	73,509831  	0,080149  	0,040612  	-3337,776313  	-30937,224885  	-0,051168  	-0,049989  	0,399009  	0,202181  	-4,532005  	16719,160510  	16697,003065  	2,421696  	-0,047942  
40,564000  	18,304657  	37,955586  	957,045375  	956,927186  	79,829822  	74,501232  	0,004746  	0,011763  	0,003962  	0,004114  	0,004480  	0,000001  	-0,000000  	25,103898  	21,417436  	22,793641  	24,386430  	31,491654  	29,012397  	30,776277  	31,758613  	38,957289  	36,901189  	40,818950  	67,835277  	23,137632  	21,916441  	24,489858  	73,513344  	0,099151  	0,050241  	-4129,390889  	-1,916457  	-0,013761  	-0,049982  	0,406638  	0,206047  	-4,603467  	16716,448162  	16989,967826  	2,464186  	-0,047936  
41,563000  	18,290827  	37,952809  	57,725912  	1256,670793  	79,824324  	74,490909  	0,004734  	0,011795  	0,003961  	0,004096  	0,004516  	-0,000000  	-0,000000  	25,102208  	21,414445  	22,786877  	24,382501  	31,490483  	29,011577  	30,768466  	31,756498  	38,950744  	36,896375  	40,816808  	67,834161  	23,136712  	21,898293  	24,488782  	73,506250  	0,084104  	0,042616  	-3504,709431  	24491,948928  	-0,018202  	-0,050002  	0,434835  	0,220334  	-4,927121  	16784,711762  	16734,229149  	2,427095  	-0,047953  
42,591000  	18,276352  	37,950157  	657,272221  	1256,670793  	79,829260  	74,490659  	0,004741  	0,011718  	0,003962  	0,004103  	0,004476  	-0,000000  	-0,000000  	25,102223  	21,409073  	22,785336  	24,383935  	31,490752  	29,017788  	30,771950  	31,766320  	38,947295  	36,896424  	40,814316  	67,831169  	23,141683  	21,882619  	24,484203  	73,505265  	0,090483  	0,045849  	-3772,808937  	9722,912270  	-0,013766  	-0,050002  	0,403412  	0,204412  	-4,575513  	16618,764706  	16882,879285  	2,448655  	-0,047953  
43,571000  	18,261081  	37,953210  	-242,047242  	1256,670793  	79,825948  	74,484827  	0,004744  	0,011807  	0,003961  	0,004090  	0,004433  	0,000000  	-0,000000  	25,103545  	21,414009  	22,790477  	24,384499  	31,495054  	29,025308  	30,776292  	31,767430  	38,955475  	36,902839  	40,814238  	67,833134  	23,142601  	21,873075  	24,483044  	73,506960  	0,079905  	0,040489  	-3334,845952  	35505,423780  	-0,021694  	-0,049994  	0,369209  	0,187081  	-4,189552  	16810,767711  	16957,324392  	2,459452  	-0,047947  
44,563000  	18,270035  	37,957529  	957,045375  	1256,670793  	79,830259  	74,484764  	0,004737  	0,011741  	0,003962  	0,004083  	0,004482  	0,000001  	-0,000000  	25,111997  	21,415529  	22,785533  	24,391231  	31,500494  	29,033362  	30,784040  	31,767222  	38,959711  	36,907375  	40,818480  	67,836667  	23,158594  	21,869323  	24,492150  	73,506481  	0,073542  	0,037264  	-3068,539290  	4416,214266  	-0,012269  	-0,049993  	0,407991  	0,206732  	-4,633419  	16668,874531  	16814,400802  	2,438723  	-0,047945  
45,564000  	18,310791  	37,963852  	1256,818530  	1256,670793  	79,831946  	74,484234  	0,004742  	0,011753  	0,003961  	0,004119  	0,004483  	-0,000000  	-0,000000  	25,108191  	21,413681  	22,777435  	24,389598  	31,491801  	29,024285  	30,777987  	31,768991  	38,955158  	36,896947  	40,817945  	67,829737  	23,159179  	21,857306  	24,486005  	73,505373  	0,103123  	0,052253  	-4295,295941  	-1,993659  	-0,011069  	-0,050003  	0,408470  	0,206975  	-4,640780  	16693,942885  	16911,053047  	2,452741  	-0,047954  
46,563000  	18,331951  	37,967060  	1256,818530  	1256,670793  	79,831509  	74,488912  	0,004746  	0,011766  	0,003960  	0,004106  	0,004455  	-0,000001  	-0,000000  	25,097021  	21,417025  	22,782239  	24,390074  	31,495740  	29,025841  	30,778219  	31,768804  	38,952677  	36,891944  	40,819334  	67,826323  	23,166025  	21,853890  	24,483704  	73,501800  	0,092868  	0,047057  	-3864,584411  	-1,993883  	-0,011070  	-0,050009  	0,386767  	0,195978  	-4,390006  	16721,915306  	16999,874540  	2,465623  	-0,047959  
47,564000  	18,335631  	37,963636  	1256,818530  	357,439972  	79,826261  	74,488195  	0,004739  	0,011750  	0,003960  	0,004108  	0,004462  	-0,000001  	-0,000000  	25,108548  	21,416205  	22,780899  	24,392567  	31,491074  	29,024364  	30,769477  	31,764991  	38,948298  	36,904818  	40,822118  	67,828151  	23,172255  	21,840966  	24,474493  	73,506724  	0,094261  	0,047763  	-3921,140997  	-16236,898995  	-0,015678  	-0,050009  	0,392539  	0,198902  	-4,451742  	16689,124470  	16852,340057  	2,444225  	-0,047959  
48,563000  	18,334343  	37,955801  	1256,818530  	956,927186  	79,820950  	74,482207  	0,004737  	0,011730  	0,003962  	0,004075  	0,004460  	0,000000  	-0,000000  	25,117352  	21,430259  	22,799005  	24,393920  	31,500230  	29,030158  	30,781869  	31,778583  	38,961253  	36,907214  	40,821379  	67,839640  	23,182224  	21,845987  	24,489546  	73,505316  	0,067235  	0,034069  	-2795,977327  	-4420,620327  	-0,012270  	-0,050000  	0,390444  	0,197841  	-4,428538  	16646,131553  	16811,887053  	2,438358  	-0,047951  
49,563000  	18,297512  	37,953550  	-242,047242  	1256,670793  	79,819044  	74,478558  	0,004742  	0,011748  	0,003961  	0,004135  	0,004453  	-0,000000  	-0,000000  	25,104858  	21,420834  	22,791943  	24,386009  	31,496223  	29,017627  	30,780618  	31,769021  	38,960060  	36,900763  	40,817160  	67,836182  	23,171226  	21,825651  	24,485207  	73,507232  	0,115993  	0,058775  	-4832,093797  	35510,949436  	-0,021698  	-0,050003  	0,385129  	0,195148  	-4,369682  	16685,071511  	16919,865292  	2,454019  	-0,047954  
50,564000  	18,273899  	37,950835  	-242,047242  	1256,670793  	79,820543  	74,482862  	0,004742  	0,011828  	0,003961  	0,004135  	0,004496  	-0,000000  	-0,000000  	25,107091  	21,422038  	22,788667  	24,395625  	31,501227  	29,020974  	30,781187  	31,773253  	38,956869  	36,907494  	40,824702  	67,840854  	23,186766  	21,829125  	24,489172  	73,502878  	0,115942  	0,058749  	-4835,103745  	35510,361767  	-0,021697  	-0,050002  	0,418977  	0,212299  	-4,751225  	16856,518961  	16913,602102  	2,453111  	-0,047953  
51,563000  	18,272427  	37,946486  	657,272221  	1256,670793  	79,825230  	74,482893  	0,004740  	0,011758  	0,003960  	0,004132  	0,004458  	-0,000001  	-0,000000  	25,117055  	21,420771  	22,788235  	24,402339  	31,505109  	29,035176  	30,789383  	31,765959  	38,970360  	36,913199  	40,816557  	67,837174  	23,180631  	21,830561  	24,491749  	73,497438  	0,113174  	0,057346  	-4718,988015  	9724,732803  	-0,013769  	-0,050012  	0,389091  	0,197155  	-4,416166  	16704,605514  	16872,753677  	2,447186  	-0,047962  
52,564000  	18,278376  	37,945067  	57,725912  	1256,670793  	79,829291  	74,491065  	0,004750  	0,011776  	0,003960  	0,004059  	0,004488  	0,000001  	-0,000000  	25,092889  	21,412296  	22,786738  	24,378689  	31,500763  	29,027422  	30,790010  	31,761614  	38,961017  	36,912816  	40,816811  	67,832910  	23,191536  	21,819050  	24,482259  	73,495325  	0,054694  	0,027714  	-2279,713111  	24488,096547  	-0,018199  	-0,049993  	0,412662  	0,209099  	-4,680106  	16744,368939  	17084,092200  	2,477838  	-0,047946  
53,564000  	18,285031  	37,949015  	1256,818530  	1256,670793  	79,828541  	74,486199  	0,004738  	0,011711  	0,003963  	0,004115  	0,004504  	-0,000000  	-0,000000  	25,114950  	21,418233  	22,793002  	24,394175  	31,492533  	29,028951  	30,786032  	31,775847  	38,962861  	36,903031  	40,826358  	67,837836  	23,191304  	21,825527  	24,484567  	73,509645  	0,100037  	0,050689  	-4169,056844  	-1,993689  	-0,011069  	-0,050004  	0,425782  	0,215747  	-4,832616  	16604,620028  	16819,548339  	2,439469  	-0,047955  
54,564000  	18,304289  	37,953704  	657,272221  	657,183579  	79,829228  	74,481708  	0,004738  	0,011812  	0,003961  	0,004113  	0,004527  	-0,000001  	-0,000000  	25,118392  	21,412800  	22,786368  	24,394862  	31,499378  	29,029072  	30,771837  	31,771249  	38,971407  	36,896265  	40,822190  	67,830506  	23,186181  	21,817066  	24,477677  	73,504468  	0,098484  	0,049903  	-4101,302394  	-1,811247  	-0,018206  	-0,050018  	0,443818  	0,224886  	-5,042208  	16822,425716  	16829,299709  	2,440884  	-0,047967  
55,566000  	18,323333  	37,952779  	657,272221  	657,183579  	79,831446  	74,478433  	0,004747  	0,011784  	0,003963  	0,004125  	0,004469  	-0,000000  	-0,000000  	25,117168  	21,423124  	22,801508  	24,394361  	31,507995  	29,034056  	30,796267  	31,770953  	38,968727  	36,918963  	40,828552  	67,838080  	23,185596  	21,827621  	24,494640  	73,515832  	0,108305  	0,054879  	-4505,701523  	-1,810689  	-0,018201  	-0,050001  	0,397657  	0,201496  	-4,522408  	16760,822014  	17015,288907  	2,467859  	-0,047952  
56,564000  	18,326461  	37,949694  	57,725912  	1256,670793  	79,828822  	74,486667  	0,004739  	0,011738  	0,003963  	0,004117  	0,004470  	-0,000000  	-0,000000  	25,114889  	21,414543  	22,790890  	24,392325  	31,514611  	29,033146  	30,785998  	31,779657  	38,965699  	36,910163  	40,823010  	67,834717  	23,165325  	21,815838  	24,482627  	73,523624  	0,101497  	0,051429  	-4221,149254  	24492,079851  	-0,018202  	-0,050002  	0,398502  	0,201924  	-4,522831  	16661,614012  	16851,619825  	2,444121  	-0,047953  
57,565000  	18,326247  	37,939824  	57,725912  	956,927186  	79,831009  	74,491220  	0,004742  	0,011800  	0,003962  	0,004095  	0,004517  	-0,000000  	-0,000000  	25,105459  	21,421382  	22,792621  	24,387656  	31,504884  	29,027528  	30,781381  	31,773783  	38,969781  	36,906643  	40,819122  	67,826266  	23,152473  	21,800694  	24,475938  	73,513084  	0,083992  	0,042559  	-3491,398096  	21305,081591  	-0,021697  	-0,050002  	0,436066  	0,220958  	-4,946978  	16795,206726  	16922,562630  	2,454410  	-0,047953  
58,563000  	18,324161  	37,934457  	1256,818530  	357,439972  	79,837570  	74,482176  	0,004743  	0,011753  	0,003960  	0,004109  	0,004481  	-0,000000  	-0,000000  	25,107991  	21,419072  	22,784385  	24,387924  	31,489488  	29,015492  	30,781770  	31,778486  	38,955329  	36,905886  	40,815150  	67,834677  	23,160043  	21,794320  	24,480434  	73,515796  	0,094839  	0,048056  	-3941,645434  	-16235,233449  	-0,015676  	-0,050003  	0,407584  	0,206526  	-4,637366  	16694,244257  	16935,216109  	2,456245  	-0,047954  
59,564000  	18,306405  	37,930570  	357,499067  	1256,670793  	79,836664  	74,487509  	0,004741  	0,011766  	0,003963  	0,004115  	0,004513  	-0,000000  	-0,000000  	25,114687  	21,430788  	22,798274  	24,398848  	31,500899  	29,024287  	30,788303  	31,786915  	38,971178  	36,914584  	40,832692  	67,839445  	23,162320  	21,794324  	24,492567  	73,516077  	0,099777  	0,050558  	-4149,810477  	16231,172045  	-0,015676  	-0,050000  	0,432717  	0,219261  	-4,917589  	16722,439523  	16902,876301  	2,451555  	-0,047952  
60,565000  	18,295672  	37,935320  	-242,047242  	57,696365  	79,836851  	74,495868  	0,004738  	0,011799  	0,003961  	0,004120  	0,004452  	-0,000001  	-0,000000  	25,107481  	21,418782  	22,792702  	24,396885  	31,504230  	29,026923  	30,779208  	31,774569  	38,971318  	36,903064  	40,824222  	67,831262  	23,155430  	21,777598  	24,490115  	73,510102  	0,104232  	0,052815  	-4338,495392  	27702,425293  	-0,093578  	-0,050006  	0,384571  	0,194865  	-4,363773  	16794,352838  	16819,901394  	2,439520  	-0,047957  
61,565000  	18,287453  	37,942014  	1256,818530  	-242,047242  	79,832571  	74,495618  	0,004746  	0,011660  	0,003960  	0,004136  	0,004512  	-0,000001  	-0,000000  	25,097063  	21,413004  	22,778813  	24,386496  	31,490619  	29,023851  	30,773938  	31,762217  	38,963847  	36,902313  	40,813754  	67,825089  	23,145409  	21,755120  	24,472806  	73,504577  	0,116806  	0,059186  	-4865,588736  	-35517,156012  	-0,021699  	-0,050012  	0,431718  	0,218755  	-4,895057  	16493,711574  	16989,367633  	2,464099  	-0,047962  
62,565000  	18,294384  	37,941890  	1256,818530  	357,439972  	79,831259  	74,495306  	0,004730  	0,011800  	0,003961  	0,004113  	0,004455  	-0,000001  	-0,000000  	25,105024  	21,412772  	22,785580  	24,384908  	31,498505  	29,025974  	30,780389  	31,762987  	38,966214  	36,908188  	40,816482  	67,831072  	23,152691  	21,743609  	24,482811  	73,510413  	0,098026  	0,049670  	-4081,824336  	-16239,497769  	-0,015680  	-0,050018  	0,386652  	0,195920  	-4,383256  	16796,763815  	16656,613611  	2,415838  	-0,047967  
63,563000  	18,312968  	37,940132  	357,499067  	1256,670793  	79,831884  	74,498238  	0,004745  	0,011824  	0,003961  	0,004130  	0,004495  	0,000000  	-0,000000  	25,109813  	21,424880  	22,796398  	24,403520  	31,506814  	29,034633  	30,782207  	31,776464  	38,972172  	36,911173  	40,829369  	67,834981  	23,171724  	21,738514  	24,485593  	73,518427  	0,111950  	0,056726  	-4656,796920  	16230,652629  	-0,015675  	-0,049999  	0,418560  	0,212087  	-4,742924  	16848,871468  	16979,644508  	2,462689  	-0,047950  
64,565000  	18,334741  	37,940934  	-242,047242  	1256,670793  	79,826011  	74,493248  	0,004741  	0,011771  	0,003962  	0,004133  	0,004507  	0,000001  	-0,000000  	25,113494  	21,425389  	22,796557  	24,402830  	31,503928  	29,033006  	30,785115  	31,777228  	38,970580  	36,909688  	40,835478  	67,836413  	23,168525  	21,720617  	24,480571  	73,519536  	0,114328  	0,057931  	-4750,627233  	35502,506233  	-0,021693  	-0,049990  	0,428037  	0,216889  	-4,849501  	16732,611184  	16884,305626  	2,448861  	-0,047943  
65,564000  	18,346885  	37,944728  	1256,818530  	1256,670793  	79,820856  	74,483891  	0,004739  	0,011776  	0,003961  	0,004127  	0,004517  	0,000000  	-0,000000  	25,113195  	21,416759  	22,792727  	24,397233  	31,508171  	29,027441  	30,781533  	31,773879  	38,970505  	36,908545  	40,836005  	67,835813  	23,163100  	21,700982  	24,481088  	73,513199  	0,109376  	0,055422  	-4542,930284  	-1,993545  	-0,011068  	-0,050000  	0,435470  	0,220656  	-4,937602  	16743,677056  	16845,829729  	2,443281  	-0,047951  
66,562000  	18,344555  	37,950280  	1256,818530  	1256,670793  	79,824917  	74,485950  	0,004743  	0,011795  	0,003962  	0,004113  	0,004480  	-0,000000  	-0,000000  	25,111967  	21,416082  	22,790659  	24,396497  	31,507770  	29,028314  	30,781303  	31,774688  	38,977210  	36,909460  	40,835085  	67,835014  	23,170926  	21,696159  	24,484474  	73,513582  	0,098351  	0,049835  	-4086,648341  	-1,993723  	-0,011069  	-0,050005  	0,406446  	0,205949  	-4,610237  	16784,936730  	16939,989408  	2,456938  	-0,047955  
67,564000  	18,348971  	37,953611  	1256,818530  	1256,670793  	79,828260  	74,487322  	0,004749  	0,011773  	0,003961  	0,004080  	0,004468  	0,000000  	-0,000000  	25,118578  	21,423298  	22,792244  	24,396926  	31,509644  	29,032832  	30,788805  	31,776287  	38,982642  	36,914400  	40,837021  	67,838945  	23,181840  	21,698009  	24,490630  	73,522952  	0,071071  	0,036012  	-2952,931923  	-1,993506  	-0,011068  	-0,049999  	0,396756  	0,201039  	-4,501995  	16738,360599  	17057,295351  	2,473952  	-0,047950  
68,566000  	18,341120  	37,953488  	1256,818530  	1256,670793  	79,825511  	74,488569  	0,004738  	0,011773  	0,003962  	0,004113  	0,004455  	0,000001  	-0,000000  	25,119383  	21,427679  	22,793323  	24,402619  	31,516969  	29,037366  	30,789753  	31,779833  	38,977293  	36,915757  	40,838481  	67,842389  	23,183527  	21,686484  	24,493182  	73,521579  	0,098581  	0,049952  	-4097,597552  	-1,993302  	-0,011067  	-0,049993  	0,386486  	0,195835  	-4,382172  	16738,066301  	16834,270719  	2,441605  	-0,047945  
69,563000  	18,331092  	37,953056  	57,725912  	956,927186  	79,824636  	74,491938  	0,004747  	0,011792  	0,003962  	0,004162  	0,004462  	0,000000  	-0,000000  	25,112527  	21,423104  	22,793212  	24,394726  	31,506707  	29,035608  	30,789127  	31,780410  	38,969507  	36,908640  	40,832697  	67,838412  	23,176816  	21,663163  	24,486591  	73,511375  	0,137836  	0,069843  	-5732,053905  	21302,987925  	-0,021695  	-0,049996  	0,392199  	0,198730  	-4,443422  	16778,946076  	17013,304740  	2,467571  	-0,047948  
70,564000  	18,329436  	37,950095  	1256,818530  	357,439972  	79,829572  	74,486636  	0,004750  	0,011724  	0,003961  	0,004123  	0,004441  	0,000000  	-0,000000  	25,111059  	21,418818  	22,799148  	24,383299  	31,499097  	29,026352  	30,786198  	31,779109  	38,971566  	36,906178  	40,828795  	67,832418  	23,176325  	21,642090  	24,479749  	73,513190  	0,106121  	0,053772  	-4412,847524  	-16234,108819  	-0,015675  	-0,050000  	0,375347  	0,190191  	-4,260657  	16632,622869  	17083,739146  	2,477787  	-0,047951  
71,564000  	18,313336  	37,946116  	1256,818530  	1256,670793  	79,829666  	74,487228  	0,004728  	0,011725  	0,003962  	0,004100  	0,004497  	-0,000001  	-0,000000  	25,109649  	21,416116  	22,798945  	24,387232  	31,500822  	29,017805  	30,782575  	31,772262  	38,966931  	36,903031  	40,826681  	67,830201  	23,160970  	21,616914  	24,477945  	73,516560  	0,087894  	0,044536  	-3657,168479  	-1,993839  	-0,011070  	-0,050008  	0,419925  	0,212779  	-4,766226  	16635,355026  	16607,934434  	2,408777  	-0,047958  
72,563000  	18,294077  	37,945561  	1256,818530  	1256,670793  	79,827541  	74,491345  	0,004744  	0,011782  	0,003961  	0,004151  	0,004471  	-0,000000  	-0,000000  	25,109011  	21,421585  	22,788468  	24,395657  	31,507210  	29,016949  	30,782161  	31,765942  	38,964970  	36,902763  	40,835569  	67,826596  	23,147325  	21,607803  	24,472236  	73,506137  	0,128589  	0,065157  	-5355,563450  	-1,993781  	-0,011070  	-0,050006  	0,399371  	0,202364  	-4,527640  	16756,739342  	16947,361189  	2,458007  	-0,047957  
73,564000  	18,277518  	37,946764  	1256,818530  	57,696365  	79,826604  	74,484265  	0,004743  	0,011780  	0,003963  	0,004116  	0,004488  	0,000000  	-0,000000  	25,108807  	21,413550  	22,786612  	24,392595  	31,505039  	29,023014  	30,777489  	31,770565  	38,965264  	36,905165  	40,828169  	67,835455  	23,132058  	21,602927  	24,474636  	73,508698  	0,100530  	0,050939  	-4190,741894  	-24491,566117  	-0,018199  	-0,049996  	0,412811  	0,209174  	-4,685393  	16753,604648  	16943,880070  	2,457502  	-0,047948  
74,565000  	18,278131  	37,942754  	657,272221  	1256,670793  	79,827166  	74,485076  	0,004733  	0,011735  	0,003962  	0,004110  	0,004502  	-0,000001  	-0,000000  	25,107782  	21,417039  	22,797372  	24,400053  	31,505846  	29,031553  	30,787261  	31,781382  	38,976228  	36,911952  	40,829845  	67,835996  	23,125666  	21,599895  	24,482689  	73,517759  	0,095730  	0,048507  	-3989,686452  	9724,449435  	-0,013768  	-0,050011  	0,423746  	0,214715  	-4,809281  	16656,032262  	16721,745136  	2,425284  	-0,047961  
75,563000  	18,311619  	37,939145  	-242,047242  	1256,670793  	79,827666  	74,481396  	0,004745  	0,011713  	0,003963  	0,004104  	0,004497  	-0,000001  	-0,000000  	25,109902  	21,423414  	22,800940  	24,396996  	31,505671  	29,033609  	30,796664  	31,779309  	38,981682  	36,919579  	40,838068  	67,843263  	23,115698  	21,593661  	24,485609  	73,516804  	0,090525  	0,045870  	-3765,645872  	35513,666759  	-0,021699  	-0,050007  	0,419527  	0,212577  	-4,765118  	16608,790423  	16987,411711  	2,463816  	-0,047958  
76,563000  	18,342040  	37,945561  	957,045375  	1256,670793  	79,824480  	74,479213  	0,004743  	0,011861  	0,003960  	0,004109  	0,004473  	-0,000001  	-0,000000  	25,126126  	21,419607  	22,792909  	24,389568  	31,504325  	29,029388  	30,784632  	31,780568  	38,980910  	36,913551  	40,839492  	67,826036  	23,100583  	21,589836  	24,486354  	73,503599  	0,095334  	0,048306  	-3960,819087  	4417,528717  	-0,012273  	-0,050010  	0,400652  	0,203013  	-4,549876  	16927,586878  	16944,480263  	2,457589  	-0,047960  
77,564000  	18,327995  	37,956634  	1256,818530  	57,696365  	79,825792  	74,477685  	0,004736  	0,011732  	0,003961  	0,004132  	0,004493  	-0,000000  	-0,000000  	25,104738  	21,415540  	22,784277  	24,389534  	31,495507  	29,022665  	30,783132  	31,766875  	38,971151  	36,903554  	40,839646  	67,825409  	23,080639  	21,564515  	24,478314  	73,497075  	0,113731  	0,057628  	-4731,234773  	-24495,490609  	-0,018201  	-0,050005  	0,416436  	0,211011  	-4,731637  	16650,455464  	16774,865741  	2,432989  	-0,047955  
78,564000  	18,310085  	37,955771  	1256,818530  	1256,670793  	79,825292  	74,484109  	0,004742  	0,011818  	0,003962  	0,004162  	0,004468  	-0,000000  	-0,000000  	25,107297  	21,421661  	22,797789  	24,389955  	31,512871  	29,030288  	30,789201  	31,783574  	38,974407  	36,911634  	40,842342  	67,839028  	23,075394  	21,568814  	24,477949  	73,512402  	0,137498  	0,069671  	-5724,912921  	-1,993602  	-0,011069  	-0,050001  	0,397080  	0,201203  	-4,505865  	16835,925911  	16908,496932  	2,452370  	-0,047952  
79,564000  	18,304473  	37,957991  	357,499067  	1256,670793  	79,827260  	74,486043  	0,004746  	0,011784  	0,003961  	0,004118  	0,004470  	0,000000  	-0,000000  	25,120224  	21,427689  	22,810755  	24,407517  	31,509914  	29,033516  	30,787836  	31,785201  	38,987408  	36,925799  	40,847432  	67,834637  	23,081723  	21,561039  	24,488193  	73,515846  	0,101965  	0,051666  	-4247,149292  	16229,235826  	-0,015674  	-0,049994  	0,398597  	0,201972  	-4,523118  	16761,269827  	16992,693408  	2,464582  	-0,047946  
80,568000  	18,301836  	37,955894  	957,045375  	1256,670793  	79,828635  	74,490472  	0,004733  	0,011760  	0,003961  	0,004121  	0,004489  	-0,000001  	-0,000000  	25,120070  	21,428867  	22,795679  	24,401768  	31,513226  	29,036451  	30,794069  	31,782792  	38,971901  	36,919460  	40,840189  	67,843195  	23,083234  	21,574101  	24,484828  	73,527620  	0,104726  	0,053065  	-4362,259951  	4417,802992  	-0,012273  	-0,050013  	0,413230  	0,209387  	-4,686487  	16710,048604  	16709,797766  	2,423551  	-0,047963  
81,564000  	18,287607  	37,950897  	57,725912  	57,696365  	79,827979  	74,494371  	0,004746  	0,011747  	0,003961  	0,004126  	0,004481  	-0,000000  	-0,000000  	25,112785  	21,425871  	22,796838  	24,399067  	31,505646  	29,029321  	30,783924  	31,772867  	38,971758  	36,921589  	40,829569  	67,836683  	23,054739  	21,572444  	24,481218  	73,510542  	0,108915  	0,055188  	-4538,917252  	-1,525093  	-0,051182  	-0,050002  	0,407145  	0,206303  	-4,613539  	16682,920874  	16989,466489  	2,464114  	-0,047953  
82,563000  	18,284786  	37,951144  	1256,818530  	1256,670793  	79,825355  	74,492873  	0,004744  	0,011812  	0,003962  	0,004088  	0,004474  	0,000001  	-0,000000  	25,116172  	21,420273  	22,798316  	24,395097  	31,509717  	29,034112  	30,783586  	31,775947  	38,972304  	36,914873  	40,837223  	67,838597  	23,057897  	21,570368  	24,481272  	73,512903  	0,078040  	0,039543  	-3252,715776  	-1,993332  	-0,011067  	-0,049994  	0,401714  	0,203551  	-4,551033  	16822,571450  	16956,124006  	2,459278  	-0,047946  
83,565000  	18,300517  	37,953920  	1256,818530  	1256,670793  	79,821699  	74,489474  	0,004735  	0,011857  	0,003961  	0,004115  	0,004502  	0,000000  	-0,000000  	25,115869  	21,424329  	22,795740  	24,399004  	31,508013  	29,029371  	30,789946  	31,782027  	38,980940  	36,920213  	40,845999  	67,835904  	23,055146  	21,590490  	24,490209  	73,520925  	0,100052  	0,050697  	-4167,449066  	-1,993535  	-0,011068  	-0,049999  	0,424134  	0,214912  	-4,804800  	16919,420119  	16772,013059  	2,432575  	-0,047951  
84,563000  	18,326093  	37,959595  	1256,818530  	1256,670793  	79,822887  	74,487727  	0,004747  	0,011777  	0,003961  	0,004157  	0,004499  	0,000001  	-0,000000  	25,108936  	21,420298  	22,789567  	24,393468  	31,504898  	29,024706  	30,778169  	31,782250  	38,976462  	36,906347  	40,837611  	67,829038  	23,041887  	21,589356  	24,481546  	73,510519  	0,133872  	0,067834  	-5570,464493  	-1,992953  	-0,011065  	-0,049983  	0,421535  	0,213595  	-4,777979  	16747,262394  	17018,141589  	2,468273  	-0,047937  
85,565000  	18,342408  	37,960181  	1256,818530  	1256,670793  	79,824823  	74,490971  	0,004740  	0,011767  	0,003962  	0,004116  	0,004428  	-0,000000  	-0,000000  	25,111293  	21,425939  	22,798352  	24,394689  	31,500582  	29,033598  	30,786624  	31,772993  	38,975116  	36,911605  	40,833054  	67,829484  	23,038013  	21,582978  	24,482615  	73,505157  	0,100413  	0,050880  	-4174,889404  	-1,993691  	-0,011069  	-0,050004  	0,364958  	0,184927  	-4,135684  	16725,151872  	16866,448121  	2,446271  	-0,047955  
86,563000  	18,330141  	37,959380  	657,272221  	1256,670793  	79,821887  	74,493840  	0,004735  	0,011819  	0,003962  	0,004131  	0,004484  	-0,000000  	-0,000000  	25,110928  	21,422962  	22,799659  	24,394166  	31,512222  	29,031911  	30,790335  	31,777975  	38,975093  	36,919628  	40,837260  	67,835723  	23,030753  	21,586982  	24,482067  	73,512251  	0,112665  	0,057088  	-4687,013016  	9722,653109  	-0,013766  	-0,050000  	0,409813  	0,207655  	-4,638931  	16836,817293  	16753,922538  	2,429951  	-0,047952  
87,564000  	18,304565  	37,954290  	657,272221  	1256,670793  	79,820137  	74,489349  	0,004737  	0,011746  	0,003961  	0,004124  	0,004505  	-0,000000  	-0,000000  	25,108736  	21,426326  	22,799386  	24,399581  	31,505973  	29,032880  	30,793477  	31,777127  	38,982957  	36,922261  	40,838218  	67,838503  	23,010728  	21,592936  	24,482809  	73,517275  	0,106871  	0,054152  	-4450,628987  	9722,583335  	-0,013766  	-0,050000  	0,425942  	0,215828  	-4,823977  	16680,424297  	16810,248879  	2,438120  	-0,047951  
88,564000  	18,281136  	37,949972  	57,725912  	1256,670793  	79,818013  	74,491096  	0,004740  	0,011787  	0,003960  	0,004094  	0,004451  	-0,000001  	-0,000000  	25,114020  	21,425852  	22,805695  	24,403591  	31,504088  	29,036380  	30,789337  	31,778250  	38,981449  	36,923889  	40,831182  	67,835298  	22,988786  	21,599840  	24,484453  	73,517867  	0,082859  	0,041985  	-3454,025898  	24495,616581  	-0,018204  	-0,050010  	0,383082  	0,194111  	-4,335424  	16768,489315  	16879,786526  	2,448206  	-0,047960  
89,565000  	18,285430  	37,945252  	1256,818530  	1256,670793  	79,817419  	74,487571  	0,004733  	0,011801  	0,003963  	0,004123  	0,004493  	0,000001  	-0,000000  	25,118761  	21,425110  	22,803302  	24,396106  	31,506968  	29,036884  	30,783949  	31,778132  	38,980020  	36,923005  	40,826981  	67,839973  	22,971788  	21,611667  	24,479385  	73,516390  	0,105911  	0,053666  	-4412,928811  	-1,993320  	-0,011067  	-0,049993  	0,416754  	0,211173  	-4,719093  	16797,438011  	16722,098190  	2,425335  	-0,047946  
90,565000  	18,297021  	37,945684  	657,272221  	1256,670793  	79,816857  	74,484951  	0,004749  	0,011823  	0,003960  	0,004084  	0,004450  	-0,000001  	-0,000000  	25,111987  	21,421794  	22,795210  	24,390334  	31,502537  	29,032102  	30,785873  	31,776488  	38,980191  	36,917629  	40,827177  	67,837389  	22,964222  	21,621527  	24,477589  	73,514541  	0,074823  	0,037913  	-3115,827733  	9723,870595  	-0,013767  	-0,050007  	0,382640  	0,193886  	-4,334466  	16845,158083  	17058,220354  	2,474086  	-0,047958  
91,563000  	18,307877  	37,951329  	657,272221  	357,439972  	79,820012  	74,487727  	0,004745  	0,011754  	0,003961  	0,004125  	0,004449  	-0,000000  	-0,000000  	25,112640  	21,424560  	22,796127  	24,391415  	31,501309  	29,031200  	30,791387  	31,777223  	38,981567  	36,916061  	40,829337  	67,837448  	22,970541  	21,642734  	24,481860  	73,516883  	0,108167  	0,054809  	-4503,160429  	-7103,776137  	-0,021696  	-0,050002  	0,381631  	0,193375  	-4,323353  	16696,565388  	16972,117382  	2,461598  	-0,047953  
92,564000  	18,313091  	37,962186  	57,725912  	956,927186  	79,820325  	74,484359  	0,004737  	0,011776  	0,003961  	0,004111  	0,004494  	0,000000  	-0,000000  	25,118066  	21,429782  	22,799779  	24,397167  	31,507133  	29,038039  	30,788966  	31,779964  	38,981886  	36,919446  	40,832464  	67,841603  	22,978489  	21,667904  	24,485588  	73,517383  	0,096515  	0,048905  	-4019,238759  	21302,195390  	-0,021694  	-0,049994  	0,417705  	0,211654  	-4,735282  	16744,117795  	16801,846178  	2,436902  	-0,047947  
93,567000  	18,330264  	37,973137  	-242,047242  	956,927186  	79,824449  	74,489567  	0,004744  	0,011760  	0,003963  	0,004124  	0,004483  	0,000000  	-0,000000  	25,112264  	21,427107  	22,797134  	24,394506  	31,504389  	29,035365  	30,780056  	31,777066  	38,982267  	36,917465  	40,831831  	67,836429  	22,975128  	21,679604  	24,483773  	73,512079  	0,107363  	0,054402  	-4469,572044  	34190,377895  	-0,026851  	-0,049995  	0,408710  	0,207096  	-4,632375  	16710,939986  	16955,008353  	2,459116  	-0,047947  
94,563000  	18,338115  	37,975296  	-242,047242  	-242,047242  	79,824136  	74,490254  	0,004746  	0,011669  	0,003961  	0,004121  	0,004474  	0,000000  	-0,000000  	25,112146  	21,424120  	22,794587  	24,393865  	31,501167  	29,029145  	30,783610  	31,774486  	38,984640  	36,917506  	40,832142  	67,835339  	22,974262  	21,690952  	24,479640  	73,510596  	0,105007  	0,053208  	-4370,219781  	-0,000000  	-0,544404  	-0,049997  	0,401794  	0,203592  	-4,553140  	16514,636416  	17007,309871  	2,466702  	-0,047949  
95,565000  	18,334527  	37,968818  	-242,047242  	657,183579  	79,824417  	74,476281  	0,004735  	0,011800  	0,003962  	0,004166  	0,004500  	0,000000  	-0,000000  	25,120622  	21,426792  	22,798572  	24,407758  	31,507787  	29,035273  	30,793912  	31,779180  	38,985178  	36,924942  	40,837156  	67,843449  	22,988842  	21,714682  	24,482183  	73,514350  	0,140790  	0,071339  	-5858,567426  	32742,894473  	-0,035224  	-0,049999  	0,422219  	0,213942  	-4,797371  	16797,084288  	16765,079065  	2,431569  	-0,047950  
96,565000  	18,312508  	37,954568  	957,045375  	1256,670793  	79,825042  	74,472663  	0,004752  	0,011816  	0,003961  	0,004104  	0,004496  	0,000000  	-0,000000  	25,114921  	21,423739  	22,800277  	24,405547  	31,502510  	29,037388  	30,788389  	31,778817  	38,983434  	36,921808  	40,831302  	67,841695  	23,000638  	21,740778  	24,485101  	73,514817  	0,091205  	0,046214  	-3796,758072  	4416,728856  	-0,012270  	-0,050000  	0,418848  	0,212233  	-4,762838  	16830,962469  	17122,384509  	2,483392  	-0,047951  
97,565000  	18,280339  	37,950835  	1256,818530  	956,927186  	79,826698  	74,482519  	0,004745  	0,011759  	0,003962  	0,004108  	0,004511  	-0,000000  	-0,000000  	25,107074  	21,411145  	22,793975  	24,396827  	31,498102  	29,035783  	30,782418  	31,779590  	38,979575  	36,913490  	40,822435  	67,833023  	23,000349  	21,759939  	24,481517  	73,510868  	0,094002  	0,047631  	-3918,850899  	-4421,044726  	-0,012271  	-0,050005  	0,430647  	0,218212  	-4,889508  	16708,337292  	16986,783273  	2,463725  	-0,047956  
98,565000  	18,278438  	37,946949  	1256,818530  	-242,047242  	79,827448  	74,491501  	0,004739  	0,011766  	0,003963  	0,004113  	0,004517  	0,000001  	-0,000000  	25,109422  	21,422275  	22,799620  	24,394709  	31,510138  	29,032552  	30,786020  	31,778862  	38,987048  	36,912875  	40,833719  	67,839571  	23,010378  	21,788522  	24,486272  	73,508872  	0,097973  	0,049643  	-4083,979369  	-35504,107432  	-0,021691  	-0,049991  	0,435600  	0,220722  	-4,938138  	16722,849842  	16853,010860  	2,444323  	-0,047944  
99,564000  	18,284786  	37,941767  	357,499067  	-242,047242  	79,830634  	74,488569  	0,004749  	0,011792  	0,003960  	0,004133  	0,004532  	-0,000000  	-0,000000  	25,109428  	21,430787  	22,798192  	24,405865  	31,508548  	29,040361  	30,798019  	31,781407  	38,984822  	36,922250  	40,832869  	67,842503  	23,026529  	21,822669  	24,493669  	73,519232  	0,114366  	0,057950  	-4764,516344  	-30944,040856  	-0,051179  	-0,050002  	0,448003  	0,227006  	-5,084562  	16778,745869  	17056,257370  	2,473801  	-0,047953  
100,564000  	18,279020  	37,939361  	-242,047242  	956,927186  	79,832009  	74,485575  	0,004745  	0,011836  	0,003961  	0,004108  	0,004420  	-0,000000  	-0,000000  	25,111110  	21,427106  	22,799141  	24,399280  	31,505711  	29,031926  	30,790222  	31,782274  	38,991075  	36,918661  	40,830828  	67,845365  	23,028374  	21,850015  	24,490268  	73,519299  	0,094484  	0,047876  	-3936,909354  	34194,121319  	-0,026854  	-0,050001  	0,359234  	0,182027  	-4,080421  	16872,837621  	16973,303646  	2,461770  	-0,047953  
101,564000  	18,247588  	37,939669  	957,045375  	1256,670793  	79,831884  	74,480554  	0,004737  	0,011813  	0,003962  	0,004097  	0,004440  	-0,000000  	-0,000000  	25,115754  	21,430238  	22,795910  	24,393673  	31,516069  	29,042041  	30,795860  	31,778356  	38,994094  	36,928775  	40,839153  	67,849106  	23,046070  	21,873503  	24,501738  	73,514955  	0,085293  	0,043219  	-3559,696775  	4417,221451  	-0,012272  	-0,050006  	0,374367  	0,189694  	-4,256198  	16824,567156  	16813,059194  	2,438528  	-0,047956  
102,566000  	18,228943  	37,937078  	357,499067  	1256,670793  	79,833133  	74,484546  	0,004747  	0,011739  	0,003960  	0,004108  	0,004435  	0,000000  	-0,000000  	25,123480  	21,427217  	22,805665  	24,399499  	31,503792  	29,040787  	30,794681  	31,779522  	38,985308  	36,922929  	40,835257  	67,838605  	23,038394  	21,880549  	24,493796  	73,518710  	0,093858  	0,047558  	-3920,342810  	16229,868158  	-0,015674  	-0,049996  	0,370829  	0,187902  	-4,213821  	16665,173173  	17021,566219  	2,468769  	-0,047948  
103,564000  	18,231795  	37,931249  	357,499067  	357,439972  	79,834633  	74,486355  	0,004747  	0,011795  	0,003958  	0,004139  	0,004421  	0,000000  	-0,000000  	25,119112  	21,427804  	22,796141  	24,398094  	31,510759  	29,040184  	30,796934  	31,780839  	38,983202  	36,922306  	40,831155  	67,832485  	23,047228  	21,884109  	24,499674  	73,517804  	0,119645  	0,060625  	-4995,237311  	-1,685101  	-0,026850  	-0,049995  	0,359532  	0,182178  	-4,085215  	16784,898528  	17023,077293  	2,468989  	-0,047947  
104,565000  	18,247189  	37,927486  	-242,047242  	956,927186  	79,836382  	74,488039  	0,004738  	0,011831  	0,003960  	0,004095  	0,004441  	-0,000000  	-0,000000  	25,128612  	21,439113  	22,801977  	24,389521  	31,510606  	29,043253  	30,792509  	31,776726  	38,987639  	36,922153  	40,842032  	67,837827  	23,048969  	21,907168  	24,507172  	73,519705  	0,083339  	0,042229  	-3476,073744  	34196,818086  	-0,026856  	-0,050006  	0,375520  	0,190279  	-4,266929  	16863,541071  	16836,043053  	2,441862  	-0,047956  
105,565000  	18,260161  	37,932637  	957,045375  	-242,047242  	79,839475  	74,494776  	0,004751  	0,011734  	0,003962  	0,004104  	0,004494  	-0,000001  	-0,000000  	25,108109  	21,420394  	22,794292  	24,381616  	31,492666  	29,020757  	30,788633  	31,774147  	38,971417  	36,913656  	40,822064  	67,832039  	23,064947  	21,888931  	24,497977  	73,510341  	0,090799  	0,046008  	-3785,708341  	-34198,110988  	-0,026854  	-0,050007  	0,417240  	0,211419  	-4,737761  	16653,047546  	17101,208290  	2,480321  	-0,047957  
106,563000  	18,257278  	37,930107  	357,499067  	357,439972  	79,835102  	74,490035  	0,004744  	0,011804  	0,003960  	0,004103  	0,004464  	-0,000000  	-0,000000  	25,108333  	21,419063  	22,789668  	24,388298  	31,511629  	29,032671  	30,786213  	31,776823  	38,984130  	36,922232  	40,829113  	67,830385  	23,058138  	21,914977  	24,494278  	73,514058  	0,089778  	0,045491  	-3743,207647  	-1,685317  	-0,026853  	-0,050002  	0,393506  	0,199392  	-4,468561  	16805,830445  	16959,139093  	2,459715  	-0,047953  
107,565000  	18,256358  	37,925388  	1256,818530  	1256,670793  	79,829197  	74,492343  	0,004740  	0,011827  	0,003961  	0,004077  	0,004497  	0,000000  	-0,000000  	25,104999  	21,425446  	22,791357  	24,398524  	31,501631  	29,032373  	30,789962  	31,777324  	38,988607  	36,920669  	40,825005  	67,833807  	23,058056  	21,909455  	24,501968  	73,515849  	0,068638  	0,034779  	-2861,241815  	-1,993397  	-0,011067  	-0,049995  	0,420234  	0,212936  	-4,764756  	16854,661207  	16872,732494  	2,447183  	-0,047948  
108,564000  	18,260467  	37,916505  	1256,818530  	1256,670793  	79,830259  	74,492031  	0,004749  	0,011720  	0,003962  	0,004105  	0,004504  	-0,000000  	-0,000000  	25,118805  	21,425895  	22,803755  	24,407340  	31,517266  	29,042102  	30,802299  	31,792716  	38,994991  	36,931371  	40,838416  	67,853019  	23,086329  	21,919253  	24,505485  	73,520906  	0,091523  	0,046375  	-3812,704448  	-1,993567  	-0,011068  	-0,050000  	0,425630  	0,215670  	-4,827179  	16623,502473  	17058,848792  	2,474177  	-0,047952  
109,566000  	18,270894  	37,908115  	957,045375  	956,927186  	79,833321  	74,494558  	0,004746  	0,011817  	0,003960  	0,004125  	0,004474  	-0,000000  	-0,000000  	25,108183  	21,427678  	22,791310  	24,389485  	31,503794  	29,029783  	30,790110  	31,786014  	38,982677  	36,913560  	40,829720  	67,841229  	23,082536  	21,906797  	24,498624  	73,505150  	0,107835  	0,054641  	-4487,926320  	-1,917095  	-0,013766  	-0,050000  	0,402017  	0,203705  	-4,559840  	16833,185265  	16994,049138  	2,464778  	-0,047952  
110,562000  	18,272059  	37,905092  	357,499067  	357,439972  	79,832509  	74,495306  	0,004739  	0,011774  	0,003962  	0,004125  	0,004493  	-0,000000  	-0,000000  	25,109430  	21,427041  	22,791727  	24,394517  	31,505345  	29,031908  	30,786873  	31,788518  	38,979045  	36,919154  	40,826042  	67,840973  	23,087521  	21,905422  	24,507184  	73,513451  	0,107777  	0,054611  	-4484,558725  	-1,685263  	-0,026852  	-0,050001  	0,416346  	0,210966  	-4,720980  	16739,404082  	16841,409484  	2,442640  	-0,047952  
111,563000  	18,257983  	37,901020  	357,499067  	1256,670793  	79,830572  	74,499111  	0,004752  	0,011798  	0,003963  	0,004156  	0,004495  	-0,000000  	-0,000000  	25,105423  	21,414301  	22,793929  	24,396873  	31,498313  	29,030635  	30,782877  	31,766590  	38,982762  	36,916811  	40,827508  	67,833578  	23,077349  	21,908182  	24,508774  	73,513060  	0,133223  	0,067505  	-5546,217950  	16232,440273  	-0,015677  	-0,050005  	0,417977  	0,211792  	-4,734373  	16792,655675  	17122,024393  	2,483340  	-0,047956  
112,564000  	18,256266  	37,900219  	957,045375  	57,696365  	79,826823  	74,485513  	0,004745  	0,011755  	0,003960  	0,004133  	0,004457  	-0,000000  	-0,000000  	25,115603  	21,420295  	22,799712  	24,395779  	31,508616  	29,036256  	30,791682  	31,784756  	38,993705  	36,917482  	40,834069  	67,844823  	23,075034  	21,915025  	24,516044  	73,524029  	0,114466  	0,058001  	-4765,552186  	-21308,102678  	-0,021696  	-0,050003  	0,388291  	0,196750  	-4,406240  	16698,388477  	16975,930373  	2,462151  	-0,047954  
113,567000  	18,276812  	37,895222  	57,725912  	1256,670793  	79,827354  	74,486261  	0,004739  	0,011782  	0,003961  	0,004104  	0,004467  	-0,000000  	-0,000000  	25,102470  	21,416790  	22,788728  	24,393590  	31,503011  	29,029237  	30,783592  	31,772342  	38,986153  	36,909616  	40,826745  	67,840986  	23,066878  	21,902067  	24,509190  	73,514940  	0,091164  	0,046194  	-3790,498057  	24493,085990  	-0,018203  	-0,050005  	0,395978  	0,200645  	-4,493296  	16756,742879  	16857,614693  	2,444990  	-0,047955  
114,564000  	18,301039  	37,895098  	657,272221  	1256,670793  	79,828479  	74,483579  	0,004747  	0,011734  	0,003961  	0,004112  	0,004465  	-0,000000  	-0,000000  	25,095655  	21,409509  	22,780845  	24,380992  	31,495266  	29,019948  	30,774024  	31,764672  	38,976786  	36,906873  	40,811595  	67,831936  	23,069740  	21,885392  	24,502080  	73,514060  	0,097545  	0,049427  	-4050,748746  	9723,057514  	-0,013766  	-0,050003  	0,394168  	0,199728  	-4,475938  	16653,179839  	17020,450566  	2,468608  	-0,047954  
115,565000  	18,317323  	37,895376  	-242,047242  	357,439972  	79,827104  	74,481957  	0,004743  	0,011753  	0,003961  	0,004136  	0,004445  	0,000000  	-0,000000  	25,104885  	21,412438  	22,786087  	24,382100  	31,493698  	29,017039  	30,781801  	31,771190  	38,977223  	36,911033  	40,809936  	67,827347  	23,080392  	21,883205  	24,509756  	73,516348  	0,116904  	0,059236  	-4850,714302  	30939,729547  	-0,051177  	-0,049995  	0,378417  	0,191747  	-4,297279  	16694,257699  	16927,018179  	2,455056  	-0,047947  
116,564000  	18,331675  	37,895314  	957,045375  	956,927186  	79,826042  	74,482269  	0,004738  	0,011735  	0,003961  	0,004099  	0,004478  	-0,000000  	-0,000000  	25,112357  	21,416288  	22,793359  	24,385854  	31,498197  	29,023031  	30,783012  	31,772442  	38,985424  	36,911020  	40,820989  	67,833989  	23,088411  	21,878723  	24,515456  	73,517687  	0,086504  	0,043832  	-3586,682004  	-1,917102  	-0,013766  	-0,050001  	0,404963  	0,205198  	-4,597551  	16655,661560  	16827,237870  	2,440585  	-0,047952  
117,564000  	18,328209  	37,896733  	1256,818530  	1256,670793  	79,830259  	74,485451  	0,004750  	0,011734  	0,003959  	0,004101  	0,004449  	-0,000000  	-0,000000  	25,108706  	21,417401  	22,788112  	24,381621  	31,501493  	29,020221  	30,783409  	31,773575  	38,983690  	36,910404  	40,818089  	67,839883  	23,097562  	21,863828  	24,512550  	73,518037  	0,088290  	0,044737  	-3661,633290  	-1,993595  	-0,011069  	-0,050001  	0,381987  	0,193555  	-4,337543  	16653,331232  	17087,368547  	2,478313  	-0,047952  
118,562000  	18,310300  	37,894821  	1256,818530  	1256,670793  	79,827635  	74,475595  	0,004744  	0,011799  	0,003961  	0,004105  	0,004466  	0,000000  	-0,000000  	25,106056  	21,419297  	22,789466  	24,383970  	31,506467  	29,019346  	30,789362  	31,775027  	38,978575  	36,911959  	40,813808  	67,841147  	23,103191  	21,849923  	24,514627  	73,517151  	0,091472  	0,046350  	-3796,719294  	-1,993508  	-0,011068  	-0,049999  	0,395050  	0,200175  	-4,491942  	16793,697743  	16959,979363  	2,459837  	-0,047950  
119,566000  	18,305424  	37,894358  	357,499067  	357,439972  	79,826698  	74,476811  	0,004741  	0,011799  	0,003961  	0,004111  	0,004484  	0,000000  	-0,000000  	25,108511  	21,416419  	22,794513  	24,388576  	31,508016  	29,026212  	30,791427  	31,774522  	38,982345  	36,906092  	40,814400  	67,840494  	23,099458  	21,831668  	24,520526  	73,516069  	0,096310  	0,048801  	-3998,409362  	-1,685178  	-0,026851  	-0,049998  	0,409865  	0,207682  	-4,658524  	16793,610020  	16890,568816  	2,449770  	-0,047950  
120,691000  	18,313336  	37,893494  	957,045375  	-242,047242  	79,832821  	74,483548  	0,004750  	0,011786  	0,003963  	0,004113  	0,004488  	-0,000000  	-0,000000  	25,104384  	21,408187  	22,783239  	24,382949  	31,495733  	29,020722  	30,783964  	31,766716  	38,978926  	36,897776  	40,806946  	67,836358  	23,093804  	21,801285  	24,520566  	73,514478  	0,097984  	0,049649  	-4066,072464  	-34194,713057  	-0,026851  	-0,050001  	0,412410  	0,208971  	-4,686913  	16765,786871  	17078,782258  	2,477068  	-0,047953  
121,565000  	18,330908  	37,895160  	957,045375  	1256,670793  	79,834508  	74,487166  	0,004744  	0,011774  	0,003961  	0,004099  	0,004471  	-0,000002  	-0,000000  	25,101014  	21,411942  	22,781424  	24,381108  	31,487743  	29,016868  	30,777364  	31,761505  	38,973667  	36,899022  	40,809522  	67,838896  	23,099694  	21,780090  	24,522876  	73,516987  	0,087163  	0,044166  	-3614,092177  	4418,472831  	-0,012275  	-0,050022  	0,399479  	0,202419  	-4,538328  	16740,667581  	16947,982565  	2,458097  	-0,047970  
122,566000  	18,341335  	37,903180  	357,499067  	1256,670793  	79,836195  	74,487228  	0,004742  	0,011641  	0,003960  	0,004113  	0,004498  	-0,000000  	-0,000000  	25,106993  	21,422754  	22,792791  	24,390170  	31,493223  	29,025693  	30,785072  	31,769771  	38,979911  	36,903015  	40,820805  	67,844565  	23,112716  	21,767292  	24,530638  	73,520003  	0,097987  	0,049651  	-4062,413014  	16231,487022  	-0,015676  	-0,050002  	0,420972  	0,213309  	-4,783944  	16453,516607  	16919,540482  	2,453972  	-0,047953  
123,564000  	18,341979  	37,910675  	1256,818530  	1256,670793  	79,835258  	74,481271  	0,004752  	0,011880  	0,003960  	0,004159  	0,004521  	-0,000001  	-0,000000  	25,108892  	21,412497  	22,789650  	24,392794  	31,494426  	29,024910  	30,781933  	31,756416  	38,977309  	36,906676  	40,818901  	67,839841  	23,108646  	21,737281  	24,528410  	73,515721  	0,135331  	0,068573  	-5612,604937  	-1,993906  	-0,011070  	-0,050010  	0,439197  	0,222544  	-4,995738  	16969,235647  	17118,592702  	2,482842  	-0,047960  
124,565000  	18,342408  	37,914438  	57,725912  	57,696365  	79,837945  	74,482269  	0,004743  	0,011679  	0,003962  	0,004142  	0,004450  	-0,000000  	-0,000000  	25,112308  	21,409982  	22,788006  	24,390266  	31,494776  	29,021640  	30,780816  	31,756325  	38,981371  	36,908556  	40,810343  	67,837376  	23,103329  	21,721465  	24,524263  	73,511647  	0,121688  	0,061660  	-5047,621199  	-1,525034  	-0,051180  	-0,050000  	0,382471  	0,193801  	-4,351875  	16534,325350  	16926,728675  	2,455014  	-0,047952  
125,563000  	18,345199  	37,915518  	-242,047242  	1256,670793  	79,839413  	74,485762  	0,004739  	0,011795  	0,003960  	0,004082  	0,004484  	0,000000  	-0,000000  	25,107626  	21,418844  	22,781779  	24,377014  	31,497174  	29,022849  	30,776682  	31,766093  	38,977578  	36,902265  	40,809598  	67,833373  	23,104864  	21,699516  	24,532857  	73,508094  	0,073321  	0,037153  	-3041,119597  	35507,545632  	-0,021696  	-0,049998  	0,409526  	0,207510  	-4,657947  	16786,295734  	16858,440841  	2,445110  	-0,047949  
126,566000  	18,336428  	37,914592  	-242,047242  	1256,670793  	79,841100  	74,490254  	0,004752  	0,011776  	0,003961  	0,004137  	0,004534  	0,000000  	-0,000000  	25,086871  	21,403352  	22,778699  	24,375600  	31,485975  	29,016987  	30,773252  	31,753798  	38,978442  	36,888496  	40,803257  	67,826410  	23,102670  	21,682402  	24,526937  	73,501494  	0,117575  	0,059576  	-4878,568295  	35508,052692  	-0,021696  	-0,049999  	0,449456  	0,227743  	-5,109440  	16743,749923  	17138,956895  	2,485796  	-0,047950  
127,565000  	18,332656  	37,913759  	-242,047242  	1256,670793  	79,841818  	74,491345  	0,004741  	0,011801  	0,003962  	0,004118  	0,004475  	-0,000000  	-0,000000  	25,092901  	21,410180  	22,784764  	24,380493  	31,488525  	29,016818  	30,776414  	31,763030  	38,983405  	36,898040  	40,806989  	67,840915  	23,105909  	21,667933  	24,529313  	73,510108  	0,101869  	0,051618  	-4227,486989  	35511,451296  	-0,021698  	-0,050004  	0,402723  	0,204063  	-4,577855  	16798,489984  	16887,751440  	2,449361  	-0,047955  
128,564000  	18,331429  	37,913266  	-242,047242  	1256,670793  	79,838257  	74,485794  	0,004741  	0,011783  	0,003962  	0,004113  	0,004445  	0,000001  	-0,000000  	25,104169  	21,414210  	22,790175  	24,391933  	31,493672  	29,020692  	30,775657  	31,760126  	38,979847  	36,894493  	40,811897  	67,842256  	23,107570  	21,663767  	24,539741  	73,523299  	0,097954  	0,049634  	-4065,168164  	35502,490632  	-0,021693  	-0,049990  	0,379070  	0,192077  	-4,310584  	16759,777823  	16899,042128  	2,450999  	-0,047943  
129,564000  	18,336581  	37,917985  	957,045375  	1256,670793  	79,835414  	74,487758  	0,004750  	0,011782  	0,003963  	0,004107  	0,004442  	0,000000  	-0,000000  	25,100869  	21,409473  	22,782133  	24,387845  	31,499221  	29,014536  	30,776568  	31,759367  	38,986797  	36,904175  	40,808728  	67,837568  	23,113203  	21,653037  	24,538205  	73,516134  	0,092978  	0,047113  	-3858,599092  	4416,668049  	-0,012270  	-0,049999  	0,376505  	0,190778  	-4,277577  	16757,393022  	17088,851377  	2,478528  	-0,047950  
130,563000  	18,338973  	37,917800  	-242,047242  	1256,670793  	79,834977  	74,492312  	0,004741  	0,011798  	0,003961  	0,004056  	0,004465  	0,000001  	-0,000000  	25,093212  	21,408455  	22,776909  	24,380413  	31,489638  	29,014186  	30,773356  	31,760347  	38,971597  	36,893764  	40,806513  	67,837320  	23,119380  	21,639234  	24,530418  	73,500850  	0,052312  	0,026507  	-2170,650276  	35503,109505  	-0,021693  	-0,049991  	0,394785  	0,200040  	-4,481075  	16792,045857  	16884,326809  	2,448865  	-0,047943  
131,564000  	18,340813  	37,919743  	-242,047242  	357,439972  	79,834602  	74,495774  	0,004744  	0,011781  	0,003960  	0,004137  	0,004444  	0,000000  	-0,000000  	25,102861  	21,413739  	22,788871  	24,378741  	31,491416  	29,013919  	30,767354  	31,771063  	38,974274  	36,895533  	40,802525  	67,832496  	23,112785  	21,625689  	24,529138  	73,504532  	0,117391  	0,059483  	-4871,117308  	30941,043778  	-0,051179  	-0,049997  	0,377689  	0,191378  	-4,283947  	16754,176265  	16946,400881  	2,457868  	-0,047949  
132,567000  	18,327995  	37,919990  	-242,047242  	-242,047242  	79,832852  	74,495649  	0,004748  	0,011770  	0,003961  	0,004136  	0,004458  	-0,000000  	-0,000000  	25,093475  	21,407210  	22,788439  	24,372771  	31,486806  	29,012288  	30,770350  	31,750612  	38,968602  	36,889851  	40,799473  	67,828199  	23,103250  	21,616586  	24,538223  	73,509475  	0,116893  	0,059231  	-4853,700502  	-0,000000  	-0,544436  	-0,050000  	0,389094  	0,197157  	-4,411969  	16731,288967  	17049,506965  	2,472822  	-0,047952  
133,564000  	18,321064  	37,920453  	957,045375  	57,696365  	79,836101  	74,498456  	0,004742  	0,011817  	0,003961  	0,004184  	0,004484  	-0,000000  	-0,000000  	25,093965  	21,406757  	22,788262  	24,389137  	31,485190  	29,003585  	30,774517  	31,762254  	38,969466  	36,900999  	40,802408  	67,842161  	23,106816  	21,601444  	24,539800  	73,510432  	0,155701  	0,078895  	-6467,544029  	-21308,149487  	-0,021696  	-0,050004  	0,409884  	0,207691  	-4,648093  	16832,910776  	16904,380314  	2,451773  	-0,047954  
134,564000  	18,324437  	37,924216  	-242,047242  	1256,670793  	79,833540  	74,492530  	0,004744  	0,011852  	0,003961  	0,004173  	0,004459  	-0,000000  	-0,000000  	25,098213  	21,411131  	22,789998  	24,384409  	31,491241  	29,015483  	30,761253  	31,749143  	38,970685  	36,894483  	40,802254  	67,831746  	23,099007  	21,581613  	24,533792  	73,507524  	0,146468  	0,074216  	-6084,125284  	35512,462816  	-0,021699  	-0,050005  	0,389840  	0,197535  	-4,423579  	16908,241056  	16961,561048  	2,460066  	-0,047956  
135,565000  	18,327565  	37,928935  	-242,047242  	1256,670793  	79,830697  	74,491501  	0,004750  	0,011712  	0,003960  	0,004140  	0,004459  	-0,000001  	-0,000000  	25,104052  	21,409242  	22,791161  	24,388367  	31,491459  	29,017440  	30,771961  	31,761407  	38,978824  	36,904526  	40,804556  	67,831165  	23,112714  	21,585566  	24,545432  	73,519966  	0,119761  	0,060684  	-4975,144344  	35514,288233  	-0,021700  	-0,050008  	0,389583  	0,197405  	-4,419162  	16606,735999  	17088,272367  	2,478444  	-0,047959  
136,565000  	18,332043  	37,929429  	957,045375  	1256,670793  	79,829884  	74,489692  	0,004741  	0,011787  	0,003961  	0,004139  	0,004484  	0,000001  	-0,000000  	25,108727  	21,409305  	22,790522  	24,394745  	31,485397  	29,020040  	30,772684  	31,764954  	38,982275  	36,903641  	40,810253  	67,840288  	23,104606  	21,575484  	24,548705  	73,519703  	0,119321  	0,060461  	-4955,890827  	4416,080040  	-0,012269  	-0,049991  	0,409819  	0,207659  	-4,649574  	16768,913783  	16897,298038  	2,450746  	-0,047944  
137,566000  	18,330356  	37,928133  	957,045375  	956,927186  	79,828572  	74,493778  	0,004743  	0,011802  	0,003961  	0,004146  	0,004507  	0,000001  	-0,000000  	25,112119  	21,418780  	22,796135  	24,387186  	31,494036  	29,023842  	30,775948  	31,758566  	38,983123  	36,904992  	40,805036  	67,841194  	23,099801  	21,564250  	24,548088  	73,516679  	0,124844  	0,063259  	-5185,372418  	-1,916760  	-0,013763  	-0,049991  	0,427821  	0,216780  	-4,848909  	16801,113194  	16945,581794  	2,457749  	-0,047943  
138,563000  	18,322076  	37,929676  	357,499067  	-242,047242  	79,832696  	74,496086  	0,004753  	0,011777  	0,003961  	0,004152  	0,004491  	0,000000  	-0,000000  	25,113829  	21,417663  	22,787754  	24,388454  	31,496507  	29,021465  	30,781833  	31,759715  	38,980058  	36,903454  	40,802721  	67,837624  	23,109038  	21,564337  	24,544409  	73,514883  	0,129914  	0,065828  	-5398,637393  	-30942,221300  	-0,051176  	-0,049998  	0,415261  	0,210416  	-4,708156  	16746,063272  	17156,277757  	2,488308  	-0,047950  
139,566000  	18,304228  	37,927732  	1256,818530  	657,183579  	79,834164  	74,493372  	0,004740  	0,011849  	0,003962  	0,004091  	0,004447  	-0,000001  	-0,000000  	25,117760  	21,420607  	22,793564  	24,397302  	31,495016  	29,026989  	30,785504  	31,761324  	38,977157  	36,906360  	40,801949  	67,840303  	23,116599  	21,582968  	24,548989  	73,517158  	0,080482  	0,040781  	-3347,199019  	-9727,588041  	-0,013767  	-0,050008  	0,380389  	0,192746  	-4,316157  	16902,664258  	16867,104803  	2,446367  	-0,047958  
140,563000  	18,288588  	37,925758  	57,725912  	57,696365  	79,833165  	74,494745  	0,004744  	0,011807  	0,003962  	0,004127  	0,004453  	0,000000  	-0,000000  	25,126133  	21,422345  	22,805734  	24,401036  	31,496231  	29,032171  	30,786126  	31,768699  	38,983390  	36,906546  	40,808101  	67,849659  	23,119895  	21,612033  	24,553905  	73,513763  	0,109839  	0,055656  	-4571,332984  	-1,524900  	-0,051175  	-0,049995  	0,385369  	0,195269  	-4,370728  	16810,295137  	16946,958707  	2,457949  	-0,047947  
141,565000  	18,278959  	37,924432  	1256,818530  	1256,670793  	79,831384  	74,504476  	0,004749  	0,011767  	0,003962  	0,004088  	0,004475  	0,000000  	-0,000000  	25,119209  	21,417230  	22,800014  	24,396515  	31,494904  	29,033654  	30,783065  	31,767812  	38,984886  	36,905253  	40,806100  	67,848333  	23,113924  	21,642006  	24,545920  	73,513511  	0,077600  	0,039320  	-3230,944910  	-1,993535  	-0,011068  	-0,049999  	0,402372  	0,203885  	-4,553735  	16724,101314  	17054,273203  	2,473513  	-0,047951  
142,564000  	18,268655  	37,928380  	1256,818530  	657,183579  	79,826011  	74,501232  	0,004740  	0,011813  	0,003961  	0,004083  	0,004439  	0,000000  	-0,000000  	25,109972  	21,416773  	22,789280  	24,383876  	31,493408  	29,027686  	30,776703  	31,759569  	38,980887  	36,904020  	40,801576  	67,847262  	23,104704  	21,665589  	24,542768  	73,510830  	0,073928  	0,037460  	-3080,318162  	-9725,518252  	-0,013764  	-0,049996  	0,373604  	0,189308  	-4,226470  	16823,962997  	16867,747362  	2,446460  	-0,047948  
143,564000  	18,272611  	37,928935  	357,499067  	657,183579  	79,830166  	74,492250  	0,004744  	0,011776  	0,003962  	0,004125  	0,004436  	0,000001  	-0,000000  	25,108511  	21,414845  	22,787753  	24,376167  	31,489161  	29,020366  	30,773552  	31,758303  	38,973345  	36,898280  	40,799859  	67,842292  	23,100870  	21,690251  	24,545648  	73,505452  	0,107799  	0,054622  	-4490,797284  	7098,475864  	-0,021691  	-0,049987  	0,371852  	0,188420  	-4,217019  	16743,684838  	16961,271543  	2,460024  	-0,047940  
144,575000  	18,287147  	37,931403  	957,045375  	1256,670793  	79,830041  	74,492250  	0,004751  	0,011732  	0,003961  	0,004140  	0,004501  	0,000001  	-0,000000  	25,112396  	21,415856  	22,797261  	24,386547  	31,486048  	29,023135  	30,785345  	31,766081  	38,975936  	36,898467  	40,801584  	67,840444  	23,111384  	21,724653  	24,554045  	73,509298  	0,119949  	0,060779  	-4993,890710  	4416,221705  	-0,012269  	-0,049993  	0,423247  	0,214462  	-4,799757  	16650,499325  	17099,400650  	2,480058  	-0,047946  
145,573000  	18,295427  	37,930539  	1256,818530  	956,927186  	79,828010  	74,493965  	0,004739  	0,011800  	0,003961  	0,004121  	0,004454  	0,000001  	-0,000000  	25,114886  	21,419761  	22,800408  	24,391656  	31,493443  	29,027656  	30,795484  	31,771302  	38,979437  	36,904073  	40,801244  	67,846048  	23,120281  	21,762070  	24,559017  	73,515471  	0,104806  	0,053106  	-4361,407517  	-4420,009788  	-0,012269  	-0,049992  	0,386015  	0,195596  	-4,374458  	16797,276006  	16843,195941  	2,442899  	-0,047945  
146,564000  	18,298432  	37,928257  	657,272221  	-242,047242  	79,827573  	74,493716  	0,004744  	0,011829  	0,003960  	0,004114  	0,004469  	-0,000000  	-0,000000  	25,113051  	21,421881  	22,797892  	24,387704  	31,499035  	29,029173  	30,788868  	31,768000  	38,976103  	36,902429  	40,799862  	67,843845  	23,115993  	21,795788  	24,553386  	73,510816  	0,099352  	0,050342  	-4133,325727  	-32744,468885  	-0,035222  	-0,050001  	0,397429  	0,201380  	-4,503657  	16859,043836  	16963,608765  	2,460363  	-0,047952  
147,566000  	18,293556  	37,924925  	-242,047242  	657,183579  	79,825948  	74,488320  	0,004749  	0,011772  	0,003961  	0,004161  	0,004444  	0,000000  	-0,000000  	25,112132  	21,430094  	22,801214  	24,392184  	31,496773  	29,029802  	30,785119  	31,762493  	38,977490  	36,901684  	40,801876  	67,838439  	23,118179  	21,819877  	24,555542  	73,505844  	0,137140  	0,069490  	-5705,871531  	32741,755517  	-0,035223  	-0,049997  	0,378174  	0,191624  	-4,288482  	16734,791533  	17067,046721  	2,475366  	-0,047949  
148,565000  	18,286196  	37,918201  	957,045375  	57,696365  	79,826011  	74,488757  	0,004738  	0,011808  	0,003961  	0,004131  	0,004517  	0,000001  	-0,000000  	25,114719  	21,430764  	22,795687  	24,387994  	31,497013  	29,021791  	30,786591  	31,759652  	38,972045  	36,905207  	40,796963  	67,836251  	23,121613  	21,832716  	24,558381  	73,509457  	0,112786  	0,057149  	-4692,733660  	-21302,666630  	-0,021691  	-0,049989  	0,435661  	0,220753  	-4,940041  	16813,096624  	16830,973188  	2,441126  	-0,047942  
149,564000  	18,302572  	37,912680  	1256,818530  	956,927186  	79,827729  	74,492499  	0,004745  	0,011797  	0,003960  	0,004150  	0,004456  	-0,000001  	-0,000000  	25,123374  	21,426361  	22,798044  	24,388372  	31,493775  	29,023998  	30,784243  	31,763741  	38,976744  	36,904012  	40,799445  	67,839386  	23,118370  	21,852452  	24,551523  	73,512653  	0,128542  	0,065133  	-5342,328835  	-4421,406971  	-0,012272  	-0,050010  	0,387050  	0,196121  	-4,387167  	16789,969502  	16975,711479  	2,462119  	-0,047960  
150,565000  	18,314348  	37,911693  	1256,818530  	357,439972  	79,823917  	74,487072  	0,004747  	0,011809  	0,003962  	0,004132  	0,004484  	-0,000000  	-0,000000  	25,119484  	21,433509  	22,799405  	24,393276  	31,498867  	29,036943  	30,785935  	31,769381  	38,984915  	36,903877  	40,806980  	67,847507  	23,124809  	21,867114  	24,554410  	73,517653  	0,113257  	0,057388  	-4704,000756  	-16235,470026  	-0,015676  	-0,050004  	0,409420  	0,207456  	-4,642134  	16815,080303  	17029,820637  	2,469967  	-0,047955  
151,566000  	18,291624  	37,911508  	1256,818530  	1256,670793  	79,820543  	74,489474  	0,004739  	0,011770  	0,003963  	0,004096  	0,004477  	0,000000  	-0,000000  	25,114693  	21,426861  	22,792162  	24,390751  	31,493259  	29,025524  	30,781142  	31,757779  	38,975694  	36,900240  	40,795032  	67,841057  	23,120972  	21,862348  	24,553144  	73,511656  	0,084399  	0,042765  	-3509,445575  	-1,993356  	-0,011067  	-0,049994  	0,404117  	0,204769  	-4,577045  	16732,515679  	16849,543864  	2,443820  	-0,047947  
152,566000  	18,266416  	37,913975  	1256,818530  	1256,670793  	79,820918  	74,490035  	0,004744  	0,011733  	0,003963  	0,004089  	0,004462  	0,000000  	-0,000000  	25,116969  	21,429107  	22,794634  	24,402599  	31,497252  	29,026285  	30,778671  	31,764998  	38,981553  	36,915636  	40,796402  	67,842693  	23,113308  	21,879952  	24,556861  	73,521239  	0,079040  	0,040050  	-3291,286264  	-1,993459  	-0,011068  	-0,049997  	0,392022  	0,198640  	-4,439899  	16650,712974  	16948,194398  	2,458128  	-0,047949  
153,564000  	18,275831  	37,918263  	1256,818530  	57,696365  	79,829822  	74,488538  	0,004748  	0,011795  	0,003962  	0,004078  	0,004493  	-0,000000  	-0,000000  	25,120984  	21,430525  	22,798969  	24,394715  	31,506614  	29,027086  	30,787317  	31,767592  	38,988720  	36,914605  	40,805340  	67,851498  	23,108862  	21,895986  	24,563663  	73,526143  	0,069645  	0,035290  	-2899,307156  	-24494,434153  	-0,018201  	-0,050002  	0,416952  	0,211273  	-4,731462  	16785,818208  	17049,302193  	2,472792  	-0,047953  
154,563000  	18,298708  	37,922705  	1256,818530  	657,183579  	79,826885  	74,480991  	0,004740  	0,011841  	0,003961  	0,004040  	0,004494  	0,000001  	-0,000000  	25,108631  	21,415077  	22,779624  	24,379866  	31,493441  	29,020992  	30,773158  	31,757007  	38,963671  	36,897794  	40,790636  	67,833234  	23,108796  	21,877064  	24,549937  	73,504831  	0,039187  	0,019856  	-1629,790606  	-9724,878654  	-0,013763  	-0,049992  	0,417208  	0,211402  	-4,738450  	16885,111811  	16869,060726  	2,446650  	-0,047945  
155,565000  	18,299996  	37,922982  	1256,818530  	657,183579  	79,819263  	74,478963  	0,004744  	0,011813  	0,003962  	0,004121  	0,004455  	-0,000001  	-0,000000  	25,104934  	21,416106  	22,782776  	24,384850  	31,495834  	29,016904  	30,777941  	31,758859  	38,960119  	36,889856  	40,784494  	67,831206  	23,104633  	21,862636  	24,552157  	73,510206  	0,104984  	0,053196  	-4366,126055  	-9728,176357  	-0,013768  	-0,050011  	0,386628  	0,195907  	-4,386531  	16823,451513  	16958,651877  	2,459645  	-0,047961  
156,564000  	18,291225  	37,924154  	57,725912  	57,696365  	79,814826  	74,479462  	0,004749  	0,011692  	0,003962  	0,004101  	0,004459  	0,000001  	-0,000000  	25,101479  	21,413972  	22,786725  	24,376829  	31,492268  	29,018976  	30,769879  	31,752434  	38,965102  	36,885432  	40,791676  	67,835915  	23,095519  	21,867723  	24,543277  	73,504817  	0,088132  	0,044657  	-3667,141947  	-1,524767  	-0,051171  	-0,049990  	0,389945  	0,197588  	-4,420080  	16563,540753  	17067,766952  	2,475470  	-0,047943  
157,564000  	18,277088  	37,923352  	957,045375  	57,696365  	79,811452  	74,480710  	0,004739  	0,011819  	0,003960  	0,004152  	0,004463  	0,000000  	-0,000000  	25,119733  	21,421875  	22,788934  	24,380420  	31,492625  	29,018321  	30,779319  	31,762416  	38,965229  	36,898560  	40,780242  	67,838982  	23,116012  	21,883844  	24,551744  	73,518846  	0,130072  	0,065909  	-5415,909979  	-21306,528346  	-0,021695  	-0,049999  	0,393251  	0,199263  	-4,453699  	16838,051787  	16849,494436  	2,443813  	-0,047951  
158,564000  	18,275923  	37,922674  	357,499067  	1256,670793  	79,815264  	74,478152  	0,004745  	0,011807  	0,003961  	0,004168  	0,004474  	-0,000001  	-0,000000  	25,116323  	21,409789  	22,794691  	24,381738  	31,488652  	29,029482  	30,778569  	31,760645  	38,977239  	36,898987  	40,784791  	67,841529  	23,120415  	21,898910  	24,551046  	73,522250  	0,142618  	0,072265  	-5938,427244  	16233,748914  	-0,015678  	-0,050009  	0,401593  	0,203490  	-4,553607  	16811,161051  	16982,348907  	2,463081  	-0,047959  
159,566000  	18,284203  	37,918047  	357,499067  	357,439972  	79,818232  	74,479587  	0,004749  	0,011810  	0,003962  	0,004131  	0,004433  	-0,000000  	-0,000000  	25,125358  	21,421900  	22,793327  	24,391444  	31,497230  	29,028310  	30,788300  	31,762354  	38,972807  	36,898891  	40,795582  	67,849401  	23,119046  	21,927349  	24,571332  	73,530770  	0,112910  	0,057212  	-4698,325879  	-1,685409  	-0,026855  	-0,050006  	0,369547  	0,187252  	-4,191444  	16818,043795  	17072,999223  	2,476229  	-0,047956  
160,564000  	18,307571  	37,917738  	957,045375  	956,927186  	79,824417  	74,479150  	0,004740  	0,011776  	0,003961  	0,004133  	0,004492  	-0,000001  	-0,000000  	25,110063  	21,419272  	22,787269  	24,393075  	31,485058  	29,027299  	30,784245  	31,757245  	38,964545  	36,905284  	40,787475  	67,837438  	23,121729  	21,941543  	24,557841  	73,525169  	0,114699  	0,058119  	-4767,039028  	-1,917337  	-0,013767  	-0,050007  	0,415944  	0,210762  	-4,723535  	16744,619375  	16864,725214  	2,446022  	-0,047958  
161,567000  	18,335140  	37,923229  	1256,818530  	1256,670793  	79,825355  	74,477435  	0,004746  	0,011812  	0,003960  	0,004117  	0,004459  	-0,000000  	-0,000000  	25,110059  	21,418434  	22,797132  	24,383870  	31,492916  	29,022800  	30,784791  	31,761717  	38,973987  	36,901168  	40,789603  	67,845607  	23,113689  	21,962887  	24,555100  	73,520471  	0,101518  	0,051440  	-4214,457368  	-1,993694  	-0,011069  	-0,050004  	0,389670  	0,197449  	-4,427358  	16822,715769  	16997,798579  	2,465322  	-0,047955  
162,564000  	18,341457  	37,924648  	657,272221  	1256,670793  	79,818919  	74,484484  	0,004750  	0,011779  	0,003961  	0,004115  	0,004429  	0,000000  	-0,000000  	25,107928  	21,422294  	22,787413  	24,379778  	31,490978  	29,019979  	30,776248  	31,761504  	38,967692  	36,896284  	40,778870  	67,843632  	23,110320  	21,980793  	24,558197  	73,519464  	0,100007  	0,050674  	-4150,659327  	9722,145467  	-0,013765  	-0,049998  	0,366213  	0,185563  	-4,150362  	16749,858013  	17078,146760  	2,476976  	-0,047949  
163,566000  	18,333545  	37,917523  	657,272221  	1256,670793  	79,810953  	74,482581  	0,004737  	0,011784  	0,003959  	0,004096  	0,004477  	0,000000  	-0,000000  	25,109272  	21,415942  	22,790325  	24,387144  	31,486081  	29,018312  	30,771841  	31,762127  	38,963075  	36,892406  	40,778755  	67,838888  	23,107561  	21,997302  	24,553706  	73,520381  	0,084282  	0,042706  	-3498,157259  	9722,338414  	-0,013765  	-0,049999  	0,403991  	0,204705  	-4,573300  	16762,604071  	16814,831529  	2,438785  	-0,047950  
164,563000  	18,324529  	37,908392  	57,725912  	57,696365  	79,811140  	74,485638  	0,004746  	0,011811  	0,003960  	0,004092  	0,004477  	0,000000  	-0,000000  	25,112872  	21,419943  	22,791239  	24,380247  	31,491005  	29,022726  	30,773109  	31,763639  	38,964467  	36,886630  	40,783431  	67,836132  	23,091574  	22,006444  	24,562052  	73,519936  	0,081428  	0,041260  	-3379,687326  	-1,524907  	-0,051176  	-0,049996  	0,403980  	0,204699  	-4,570708  	16820,444867  	17003,814630  	2,466195  	-0,047948  
165,566000  	18,325449  	37,905030  	-242,047242  	956,927186  	79,815358  	74,484297  	0,004749  	0,011841  	0,003961  	0,004080  	0,004466  	-0,000000  	-0,000000  	25,111833  	21,424602  	22,789533  	24,382938  	31,490670  	29,014898  	30,773718  	31,758262  	38,971274  	36,893340  	40,781228  	67,843008  	23,100906  	22,018023  	24,562049  	73,519664  	0,071639  	0,036300  	-2972,756530  	34196,485059  	-0,026856  	-0,050005  	0,395041  	0,200170  	-4,474235  	16884,643482  	17065,048432  	2,475076  	-0,047956  
166,564000  	18,317415  	37,906141  	357,499067  	357,439972  	79,817169  	74,482550  	0,004736  	0,011760  	0,003962  	0,004111  	0,004490  	-0,000000  	-0,000000  	25,106547  	21,410709  	22,782829  	24,374841  	31,481746  	29,008603  	30,772645  	31,751394  	38,966200  	36,887162  	40,775711  	67,840368  	23,105280  	22,020329  	24,552683  	73,516095  	0,096477  	0,048886  	-4005,322236  	-1,685415  	-0,026855  	-0,050006  	0,413994  	0,209774  	-4,692025  	16710,751098  	16786,791927  	2,434718  	-0,047956  
167,563000  	18,287791  	37,909750  	1256,818530  	357,439972  	79,817951  	74,476000  	0,004745  	0,011451  	0,003961  	0,004102  	0,004496  	-0,000000  	-0,000000  	25,103803  	21,407650  	22,777134  	24,374360  	31,479177  	29,010032  	30,769943  	31,752594  	38,957748  	36,887507  	40,769164  	67,835504  	23,105307  	22,028737  	24,551990  	73,518726  	0,089667  	0,045435  	-3728,888311  	-16234,834004  	-0,015676  	-0,050002  	0,419064  	0,212343  	-4,756013  	16042,976414  	16981,960546  	2,463025  	-0,047953  
168,563000  	18,268839  	37,915240  	57,725912  	-242,047242  	79,820075  	74,481864  	0,004751  	0,011931  	0,003961  	0,004108  	0,004517  	-0,000000  	-0,000000  	25,106281  	21,413154  	22,782738  	24,379236  	31,485085  	29,015755  	30,768902  	31,755585  	38,954181  	36,890557  	40,772398  	67,834015  	23,117060  	22,034989  	24,556621  	73,522895  	0,094256  	0,047760  	-3924,652400  	-27700,200320  	-0,093561  	-0,050001  	0,435811  	0,220828  	-4,942613  	17079,443729  	17102,076805  	2,480447  	-0,047952  
169,566000  	18,283344  	37,922766  	57,725912  	1256,670793  	79,819044  	74,480928  	0,004736  	0,011821  	0,003964  	0,004129  	0,004500  	0,000001  	-0,000000  	25,112447  	21,414638  	22,787813  	24,379171  	31,488780  	29,019545  	30,770355  	31,758912  	38,959954  	36,890666  	40,774654  	67,839399  	23,124732  	22,034601  	24,556964  	73,522457  	0,110777  	0,056132  	-4610,906572  	24487,994319  	-0,018199  	-0,049993  	0,422176  	0,213919  	-4,787889  	16842,428048  	16794,566191  	2,435846  	-0,047945  
170,563000  	18,290152  	37,926714  	657,272221  	1256,670793  	79,820044  	74,467642  	0,004747  	0,011775  	0,003962  	0,004126  	0,004517  	-0,000001  	-0,000000  	25,111683  	21,413094  	22,785611  	24,375865  	31,488137  	29,018564  	30,768825  	31,761459  	38,962265  	36,890354  	40,764420  	67,841140  	23,126418  	22,031737  	24,555325  	73,516035  	0,108681  	0,055070  	-4523,005502  	9723,686192  	-0,013767  	-0,050006  	0,435819  	0,220833  	-4,955835  	16742,006776  	17020,182245  	2,468569  	-0,047957  
171,563000  	18,290428  	37,925419  	-242,047242  	357,439972  	79,819356  	74,472133  	0,004753  	0,011844  	0,003962  	0,004115  	0,004475  	-0,000001  	-0,000000  	25,107044  	21,411791  	22,785997  	24,376831  	31,487190  	29,015348  	30,768863  	31,759293  	38,955505  	36,887614  	40,760419  	67,834628  	23,132101  	22,025705  	24,558020  	73,513788  	0,099764  	0,050551  	-4151,553232  	30947,463119  	-0,051190  	-0,050009  	0,402187  	0,203791  	-4,568979  	16891,168258  	17142,275609  	2,486277  	-0,047959  
172,564000  	18,287361  	37,924925  	957,045375  	956,927186  	79,816482  	74,472507  	0,004737  	0,011766  	0,003961  	0,004098  	0,004477  	-0,000001  	-0,000000  	25,110880  	21,415583  	22,786597  	24,387456  	31,488152  	29,017037  	30,775284  	31,758495  	38,954367  	36,892423  	40,772634  	67,837937  	23,147142  	22,021537  	24,561097  	73,512923  	0,086195  	0,043676  	-3587,379070  	-1,917389  	-0,013768  	-0,050009  	0,404048  	0,204734  	-4,587325  	16723,333028  	16810,750217  	2,438193  	-0,047959  
173,566000  	18,292667  	37,922026  	1256,818530  	956,927186  	79,819450  	74,471509  	0,004747  	0,011843  	0,003962  	0,004142  	0,004497  	-0,000001  	-0,000000  	25,114941  	21,421713  	22,786416  	24,393700  	31,492098  	29,022269  	30,776654  	31,760625  	38,958204  	36,898922  	40,778130  	67,849665  	23,159881  	22,019913  	24,553856  	73,508130  	0,121915  	0,061775  	-5071,879986  	-4421,479484  	-0,012273  	-0,050011  	0,420030  	0,212833  	-4,772322  	16888,610133  	17014,512187  	2,467746  	-0,047961  
174,564000  	18,292973  	37,917708  	1256,818530  	357,439972  	79,826385  	74,476562  	0,004752  	0,011777  	0,003961  	0,004075  	0,004480  	-0,000001  	-0,000000  	25,111540  	21,426076  	22,793050  	24,388730  	31,495745  	29,021013  	30,773858  	31,757817  	38,959130  	36,895324  	40,772489  	67,850271  	23,158140  	22,013730  	24,545545  	73,515538  	0,067673  	0,034291  	-2814,676483  	-16239,337278  	-0,015680  	-0,050018  	0,406734  	0,206095  	-4,622879  	16745,855991  	17133,915275  	2,485064  	-0,047966  
175,563000  	18,290673  	37,912896  	357,499067  	1256,670793  	79,824917  	74,486043  	0,004737  	0,011826  	0,003961  	0,004101  	0,004487  	-0,000000  	-0,000000  	25,109934  	21,426797  	22,792927  	24,386770  	31,494385  	29,019284  	30,778152  	31,757144  	38,960338  	36,899783  	40,773332  	67,844553  	23,163654  	22,004254  	24,550212  	73,518712  	0,088610  	0,044899  	-3685,007852  	16231,854297  	-0,015676  	-0,050003  	0,412110  	0,208819  	-4,674407  	16852,940698  	16813,828854  	2,438640  	-0,047954  
176,565000  	18,274359  	37,906233  	957,045375  	1256,670793  	79,821731  	74,482799  	0,004747  	0,011804  	0,003960  	0,004117  	0,004511  	-0,000000  	-0,000000  	25,111226  	21,416875  	22,792074  	24,381653  	31,490512  	29,018255  	30,776409  	31,764164  	38,961301  	36,895273  	40,766285  	67,845512  	23,147897  	21,995808  	24,549040  	73,516394  	0,101733  	0,051549  	-4232,822705  	4416,797424  	-0,012271  	-0,050000  	0,431360  	0,218574  	-4,892804  	16804,673770  	17017,082425  	2,468119  	-0,047952  
177,564000  	18,277088  	37,903056  	1256,818530  	1256,670793  	79,815670  	74,480523  	0,004750  	0,011774  	0,003961  	0,004158  	0,004517  	-0,000000  	-0,000000  	25,108577  	21,421233  	22,804116  	24,379379  	31,491362  	29,018465  	30,775609  	31,765325  	38,962791  	36,895023  	40,769772  	67,847702  	23,145018  	21,981205  	24,550439  	73,518161  	0,134326  	0,068064  	-5587,249323  	-1,993656  	-0,011069  	-0,050003  	0,435631  	0,220737  	-4,937737  	16739,709699  	17088,703094  	2,478507  	-0,047954  
178,563000  	18,278438  	37,905771  	1256,818530  	1256,670793  	79,818169  	74,481583  	0,004735  	0,011791  	0,003960  	0,004099  	0,004480  	0,000001  	-0,000000  	25,108515  	21,417468  	22,793275  	24,382918  	31,486147  	29,019874  	30,779658  	31,766272  	38,957393  	36,905126  	40,766294  	67,844347  	23,161001  	21,975593  	24,549271  	73,518246  	0,086827  	0,043996  	-3611,782681  	-1,993275  	-0,011067  	-0,049992  	0,406388  	0,205920  	-4,607518  	16776,164398  	16763,850435  	2,431391  	-0,047945  
179,565000  	18,273654  	37,904845  	357,499067  	1256,670793  	79,815014  	74,483985  	0,004748  	0,011800  	0,003961  	0,004126  	0,004483  	-0,000000  	-0,000000  	25,107553  	21,421140  	22,786682  	24,379630  	31,485219  	29,021673  	30,778481  	31,757424  	38,956827  	36,897415  	40,766397  	67,849178  	23,160468  	21,984912  	24,541788  	73,505352  	0,108998  	0,055230  	-4534,929404  	16231,421649  	-0,015676  	-0,050001  	0,408833  	0,207159  	-4,630424  	16796,307512  	17052,860984  	2,473308  	-0,047953  
180,566000  	18,264822  	37,905215  	-242,047242  	1256,670793  	79,813889  	74,482612  	0,004749  	0,011732  	0,003963  	0,004119  	0,004512  	0,000000  	-0,000000  	25,118128  	21,416053  	22,790215  	24,380554  	31,486688  	29,030500  	30,778227  	31,752383  	38,960890  	36,892343  	40,764412  	67,844214  	23,170687  	21,987426  	24,549484  	73,514532  	0,103265  	0,052325  	-4298,429166  	35505,327569  	-0,021694  	-0,049994  	0,431799  	0,218796  	-4,890752  	16649,378023  	17058,100316  	2,474068  	-0,047946  
181,564000  	18,260958  	37,905956  	1256,818530  	57,696365  	79,815233  	74,482987  	0,004737  	0,011808  	0,003961  	0,004133  	0,004481  	0,000001  	-0,000000  	25,124421  	21,425088  	22,798877  	24,392297  	31,501635  	29,028801  	30,792543  	31,760579  	38,960216  	36,903931  	40,774074  	67,849073  	23,179527  	21,993704  	24,559236  	73,527435  	0,114231  	0,057882  	-4756,025262  	-24488,649652  	-0,018196  	-0,049989  	0,407340  	0,206402  	-4,614562  	16813,414267  	16808,031696  	2,437799  	-0,047942  
182,568000  	18,269115  	37,907375  	657,272221  	1256,670793  	79,817045  	74,475439  	0,004748  	0,011770  	0,003961  	0,004150  	0,004466  	-0,000000  	-0,000000  	25,115520  	21,430374  	22,793277  	24,394680  	31,486617  	29,021476  	30,774440  	31,765807  	38,959945  	36,895776  	40,758997  	67,846044  	23,186605  	21,990132  	24,552792  	73,510016  	0,128165  	0,064942  	-5334,346093  	9723,344442  	-0,013767  	-0,050004  	0,395396  	0,200350  	-4,487111  	16732,335280  	17036,105010  	2,470878  	-0,047955  
183,567000  	18,281351  	37,907189  	657,272221  	1256,670793  	79,817169  	74,469669  	0,004750  	0,011781  	0,003962  	0,004158  	0,004471  	0,000000  	-0,000000  	25,101235  	21,415116  	22,785788  	24,365046  	31,480105  	29,011380  	30,760231  	31,742795  	38,943688  	36,892262  	40,746175  	67,833863  	23,177039  	21,985412  	24,530777  	73,501423  	0,134246  	0,068023  	-5583,872933  	9721,683392  	-0,013764  	-0,049995  	0,399634  	0,202498  	-4,540211  	16755,369019  	17084,960715  	2,477964  	-0,047947  
184,593000  	18,285890  	37,907498  	57,725912  	57,696365  	79,819044  	74,475595  	0,004738  	0,011832  	0,003961  	0,004113  	0,004445  	-0,000000  	-0,000000  	25,108376  	21,420282  	22,791626  	24,394804  	31,482595  	29,023348  	30,775042  	31,758266  	38,953811  	36,895835  	40,759291  	67,844847  	23,189038  	21,991652  	24,544091  	73,513474  	0,098159  	0,049738  	-4081,971434  	-1,525151  	-0,051184  	-0,050004  	0,378599  	0,191839  	-4,297971  	16864,579602  	16819,668378  	2,439487  	-0,047955  
185,564000  	18,286319  	37,902717  	-242,047242  	57,696365  	79,820450  	74,482363  	0,004744  	0,011778  	0,003961  	0,004097  	0,004473  	-0,000000  	-0,000000  	25,110583  	21,417091  	22,784194  	24,376065  	31,483943  	29,019407  	30,767639  	31,764160  	38,943948  	36,885890  	40,753103  	67,841761  	23,195234  	21,994422  	24,542268  	73,510641  	0,085434  	0,043290  	-3551,856752  	27701,068286  	-0,093574  	-0,050004  	0,400944  	0,203161  	-4,547078  	16748,256355  	16965,084533  	2,460577  	-0,047954  
186,586000  	18,288895  	37,901853  	357,499067  	1256,670793  	79,818513  	74,480304  	0,004752  	0,011749  	0,003960  	0,004099  	0,004490  	-0,000001  	-0,000000  	25,113724  	21,415707  	22,794601  	24,383559  	31,489388  	29,015716  	30,774342  	31,762894  	38,955967  	36,888315  	40,758250  	67,846312  	23,194033  	22,006782  	24,553363  	73,506739  	0,086722  	0,043943  	-3604,771804  	16236,468416  	-0,015681  	-0,050019  	0,414231  	0,209894  	-4,697867  	16686,439004  	17136,047725  	2,485374  	-0,047967  
187,568000  	18,285215  	37,900650  	357,499067  	1256,670793  	79,822355  	74,474410  	0,004737  	0,011847  	0,003961  	0,004120  	0,004433  	0,000000  	-0,000000  	25,100404  	21,411895  	22,785844  	24,384258  	31,490523  	29,022244  	30,771526  	31,759600  	38,950100  	36,886104  	40,752636  	67,847822  	23,206903  	22,006399  	24,553839  	73,503522  	0,104066  	0,052731  	-4326,270011  	16230,590823  	-0,015675  	-0,049998  	0,369556  	0,187257  	-4,198847  	16897,318795  	16799,939683  	2,436625  	-0,047950  
188,563000  	18,280922  	37,898121  	957,045375  	57,696365  	79,816232  	74,479587  	0,004747  	0,011796  	0,003961  	0,004116  	0,004486  	-0,000000  	-0,000000  	25,107856  	21,420000  	22,785709  	24,374523  	31,490022  	29,018344  	30,772185  	31,753672  	38,949894  	36,887395  	40,743181  	67,843273  	23,206017  	22,003366  	24,557089  	73,506710  	0,100953  	0,051154  	-4197,236479  	-21308,667503  	-0,021697  	-0,050005  	0,411521  	0,208521  	-4,665771  	16787,591068  	17032,094309  	2,470296  	-0,047956  
189,568000  	18,283896  	37,896209  	1256,818530  	-242,047242  	79,811952  	74,477934  	0,004746  	0,011805  	0,003961  	0,004096  	0,004470  	-0,000001  	-0,000000  	25,103747  	21,408168  	22,783785  	24,375703  	31,481420  	29,009912  	30,774310  	31,746667  	38,944402  	36,886363  	40,750538  	67,842863  	23,204207  	22,021601  	24,551027  	73,501771  	0,084060  	0,042594  	-3494,024942  	-35516,186080  	-0,021699  	-0,050010  	0,398392  	0,201868  	-4,514691  	16806,799646  	16999,839235  	2,465618  	-0,047960  
190,567000  	18,280523  	37,895160  	657,272221  	-242,047242  	79,809890  	74,472632  	0,004737  	0,011781  	0,003962  	0,004120  	0,004485  	0,000001  	-0,000000  	25,102262  	21,410010  	22,785547  	24,381506  	31,478105  	28,999168  	30,771512  	31,743243  	38,939471  	36,881313  	40,738977  	67,849262  	23,214081  	22,021772  	24,545050  	73,498177  	0,103725  	0,052558  	-4311,925828  	-32738,224919  	-0,035216  	-0,049990  	0,410241  	0,207872  	-4,651787  	16754,843386  	16807,219670  	2,437681  	-0,047943  
191,567000  	18,264331  	37,896270  	657,272221  	657,183579  	79,809641  	74,472382  	0,004747  	0,011763  	0,003962  	0,004136  	0,004486  	0,000000  	-0,000000  	25,105220  	21,412506  	22,793053  	24,377443  	31,485734  	29,005920  	30,769792  	31,749862  	38,943769  	36,883648  	40,747291  	67,846229  	23,230349  	22,031526  	24,548025  	73,503944  	0,116912  	0,059240  	-4864,398932  	-1,810632  	-0,018200  	-0,049999  	0,410933  	0,208223  	-4,659630  	16717,413118  	17023,260881  	2,469015  	-0,047951  
192,596000  	18,248814  	37,899663  	57,725912  	1256,670793  	79,809890  	74,476437  	0,004749  	0,011827  	0,003963  	0,004101  	0,004487  	-0,000000  	-0,000000  	25,104087  	21,409222  	22,791010  	24,371637  	31,483928  	29,008247  	30,770721  	31,745856  	38,942194  	36,887836  	40,749217  	67,838381  	23,241325  	22,037482  	24,549537  	73,506842  	0,088252  	0,044718  	-3675,483009  	24493,091370  	-0,018203  	-0,050005  	0,412140  	0,208834  	-4,669992  	16853,675735  	17072,963917  	2,476224  	-0,047955  
193,572000  	18,250807  	37,901421  	1256,818530  	57,696365  	79,804861  	74,479338  	0,004739  	0,011812  	0,003962  	0,004126  	0,004498  	0,000000  	-0,000000  	25,107220  	21,416725  	22,791772  	24,376192  	31,479759  	29,014678  	30,771415  	31,752717  	38,943709  	36,888725  	40,748540  	67,837177  	23,238309  	22,042400  	24,550069  	73,506257  	0,108529  	0,054993  	-4519,918783  	-24492,717636  	-0,018199  	-0,049998  	0,420712  	0,213178  	-4,760032  	16821,107037  	16858,243131  	2,445081  	-0,047950  
194,573000  	18,243509  	37,901607  	657,272221  	1256,670793  	79,803736  	74,481833  	0,004748  	0,011745  	0,003961  	0,004146  	0,004472  	-0,000000  	-0,000000  	25,105339  	21,416004  	22,792483  	24,375941  	31,482866  	29,017197  	30,773673  	31,754393  	38,942934  	36,893678  	40,750117  	67,839519  	23,231410  	22,046113  	24,551577  	73,507827  	0,124684  	0,063178  	-5194,711440  	9723,125864  	-0,013766  	-0,050003  	0,399910  	0,202637  	-4,521603  	16676,902630  	17051,032161  	2,473043  	-0,047954  
195,566000  	18,246269  	37,902717  	657,272221  	357,439972  	79,805079  	74,467611  	0,004747  	0,011779  	0,003961  	0,004109  	0,004461  	-0,000000  	-0,000000  	25,097059  	21,411482  	22,787867  	24,371120  	31,484295  	29,008276  	30,771227  	31,746452  	38,941465  	36,888256  	40,750963  	67,836734  	23,221079  	22,044652  	24,549824  	73,508544  	0,095038  	0,048157  	-3959,240905  	-7103,941037  	-0,021697  	-0,050003  	0,391135  	0,198191  	-4,435306  	16750,360300  	17023,465653  	2,469045  	-0,047954  
196,574000  	18,241178  	37,904876  	1256,818530  	956,927186  	79,804330  	74,466550  	0,004736  	0,011792  	0,003962  	0,004142  	0,004531  	-0,000001  	-0,000000  	25,099590  	21,413910  	22,783931  	24,371177  	31,477529  	29,006055  	30,764164  	31,750139  	38,942614  	36,882400  	40,747810  	67,840077  	23,223863  	22,047217  	24,548285  	73,508662  	0,121402  	0,061515  	-5059,419006  	-4421,284928  	-0,012272  	-0,050008  	0,446652  	0,226322  	-5,065145  	16779,234007  	16783,416725  	2,434229  	-0,047958  
197,570000  	18,227624  	37,901360  	1256,818530  	1256,670793  	79,802455  	74,462714  	0,004748  	0,011766  	0,003961  	0,004099  	0,004453  	0,000001  	-0,000000  	25,110272  	21,414613  	22,787185  	24,376522  	31,481334  	29,014152  	30,764980  	31,762534  	38,947987  	36,889863  	40,746658  	67,851025  	23,234983  	22,056554  	24,559142  	73,512415  	0,087164  	0,044167  	-3634,396582  	-1,993325  	-0,011067  	-0,049993  	0,385138  	0,195152  	-4,369162  	16722,449428  	17047,713447  	2,472562  	-0,047946  
198,577000  	18,227256  	37,895623  	1256,818530  	657,183579  	79,801955  	74,465147  	0,004747  	0,011788  	0,003960  	0,004098  	0,004470  	0,000000  	-0,000000  	25,114387  	21,414799  	22,793094  	24,379635  	31,491433  	29,017407  	30,768083  	31,762966  	38,950293  	36,895458  	40,752597  	67,853220  	23,233422  	22,060727  	24,564894  	73,511906  	0,086078  	0,043616  	-3588,131365  	-9726,168533  	-0,013765  	-0,050000  	0,398710  	0,202029  	-4,520642  	16769,568878  	17023,896380  	2,469107  	-0,047951  
199,577000  	18,258811  	37,893679  	357,499067  	657,183579  	79,805111  	74,464024  	0,004735  	0,011816  	0,003961  	0,004080  	0,004474  	0,000001  	-0,000000  	25,112398  	21,415107  	22,790199  	24,376717  	31,487186  	29,013273  	30,766874  	31,749370  	38,944655  	36,895010  	40,752042  	67,849234  	23,231971  	22,059718  	24,553836  	73,507063  	0,071512  	0,036236  	-2975,895730  	7098,433228  	-0,021690  	-0,049986  	0,402007  	0,203700  	-4,561687  	16831,500128  	16769,647593  	2,432232  	-0,047940  
200,564000  	18,286718  	37,890348  	957,045375  	57,696365  	79,806423  	74,463026  	0,004748  	0,011696  	0,003961  	0,004084  	0,004439  	0,000001  	-0,000000  	25,105893  	21,412210  	22,783344  	24,377625  	31,486108  	29,008852  	30,768847  	31,744551  	38,941836  	36,890726  	40,743742  	67,843853  	23,232777  	22,064965  	24,552721  	73,506483  	0,075002  	0,038004  	-3116,118397  	-21302,714999  	-0,021691  	-0,049989  	0,374224  	0,189622  	-4,248257  	16571,929649  	17037,778489  	2,471121  	-0,047942  
201,565000  	18,281627  	37,890564  	1256,818530  	57,696365  	79,804767  	74,463182  	0,004747  	0,011738  	0,003961  	0,004106  	0,004416  	0,000000  	-0,000000  	25,098431  	21,413562  	22,784274  	24,376754  	31,486434  	29,008889  	30,765976  	31,749993  	38,934474  	36,886452  	40,740621  	67,833819  	23,229235  	22,070273  	24,552294  	73,503644  	0,092385  	0,046812  	-3839,378478  	-24491,609164  	-0,018199  	-0,049996  	0,355998  	0,180387  	-4,039986  	16661,927410  	17011,553589  	2,467317  	-0,047948  
202,565000  	18,263595  	37,889330  	657,272221  	1256,670793  	79,801830  	74,453763  	0,004737  	0,011768  	0,003963  	0,004120  	0,004455  	-0,000000  	-0,000000  	25,101674  	21,412317  	22,786314  	24,369209  	31,480920  	29,011018  	30,769752  	31,744426  	38,937959  	36,892243  	40,739654  	67,835392  	23,225535  	22,073396  	24,554302  	73,511606  	0,103646  	0,052518  	-4311,101393  	9722,869551  	-0,013766  	-0,050002  	0,386614  	0,195900  	-4,392741  	16726,989109  	16801,824995  	2,436899  	-0,047953  
203,564000  	18,250899  	37,886277  	-242,047242  	357,439972  	79,801456  	74,450114  	0,004751  	0,011809  	0,003962  	0,004134  	0,004475  	-0,000001  	-0,000000  	25,106104  	21,404174  	22,778690  	24,369406  	31,477374  	29,003179  	30,767965  	31,747903  	38,932552  	36,890138  	40,740919  	67,840686  	23,223679  	22,081315  	24,561807  	73,509137  	0,115396  	0,058472  	-4802,192805  	30946,656453  	-0,051189  	-0,050007  	0,402732  	0,204067  	-4,578668  	16815,576223  	17096,886901  	2,479694  	-0,047958  
204,566000  	18,265742  	37,884364  	957,045375  	956,927186  	79,805392  	74,453482  	0,004750  	0,011793  	0,003959  	0,004130  	0,004438  	-0,000000  	-0,000000  	25,104007  	21,406772  	22,778047  	24,367324  	31,479011  	29,007193  	30,768008  	31,743415  	38,944560  	36,886475  	40,742515  	67,843620  	23,222381  	22,089155  	24,564129  	73,509777  	0,112242  	0,056874  	-4666,920194  	-1,917164  	-0,013766  	-0,050002  	0,373220  	0,189113  	-4,243600  	16781,105909  	17075,315261  	2,476565  	-0,047953  
205,565000  	18,289416  	37,879522  	957,045375  	-242,047242  	79,812983  	74,459845  	0,004738  	0,011699  	0,003962  	0,004190  	0,004465  	0,000000  	-0,000000  	25,094782  	21,409901  	22,773007  	24,370959  	31,480806  	29,003710  	30,770696  	31,729534  	38,939376  	36,883198  	40,730740  	67,836375  	23,223083  	22,111421  	24,557383  	73,499127  	0,160726  	0,081441  	-6673,110428  	-34191,102287  	-0,026849  	-0,049996  	0,394640  	0,199967  	-4,488188  	16578,962371  	16823,248352  	2,440006  	-0,047948  
206,567000  	18,300517  	37,883038  	357,499067  	357,439972  	79,817419  	74,460094  	0,004748  	0,011830  	0,003962  	0,004126  	0,004489  	0,000000  	-0,000000  	25,087851  	21,404501  	22,764248  	24,359609  	31,462379  	28,987281  	30,754295  	31,732893  	38,925683  	36,875666  	40,727565  	67,833695  	23,212113  	22,114611  	24,551502  	73,491670  	0,108674  	0,055066  	-4510,266704  	-1,685144  	-0,026850  	-0,049997  	0,413858  	0,209705  	-4,710439  	16861,875035  	17043,695685  	2,471979  	-0,047949  
207,564000  	18,308797  	37,883593  	1256,818530  	1256,670793  	79,819762  	74,462340  	0,004746  	0,011748  	0,003960  	0,004140  	0,004455  	-0,000001  	-0,000000  	25,098241  	21,404967  	22,776158  	24,362428  	31,471075  	28,992955  	30,760042  	31,739433  	38,929630  	36,870049  	40,731327  	67,840195  	23,220417  	22,138649  	24,559695  	73,508520  	0,119675  	0,060640  	-4964,870096  	-1,993853  	-0,011070  	-0,050008  	0,386428  	0,195806  	-4,398314  	16684,223283  	16989,127556  	2,464065  	-0,047959  
208,565000  	18,304688  	37,884272  	57,725912  	1256,670793  	79,817638  	74,464835  	0,004735  	0,011809  	0,003962  	0,004101  	0,004473  	0,000000  	-0,000000  	25,092992  	21,405920  	22,779531  	24,362030  	31,470460  	28,992137  	30,761208  	31,742778  	38,927051  	36,869436  	40,726995  	67,833779  	23,216459  	22,139349  	24,553304  	73,493731  	0,088076  	0,044629  	-3654,813991  	24490,973278  	-0,018201  	-0,050000  	0,400908  	0,203143  	-4,559196  	16815,383797  	16757,890872  	2,430527  	-0,047951  
209,564000  	18,308153  	37,880200  	-242,047242  	57,696365  	79,818825  	74,473724  	0,004749  	0,011733  	0,003963  	0,004070  	0,004516  	0,000000  	-0,000000  	25,101400  	21,403480  	22,772492  	24,369771  	31,473106  	29,010165  	30,763606  	31,751612  	38,933550  	36,886440  	40,734839  	67,851133  	23,226972  	22,162822  	24,559190  	73,516668  	0,063363  	0,032106  	-2628,298699  	27698,841091  	-0,093566  	-0,049999  	0,434638  	0,220234  	-4,935674  	16651,929074  	17066,220573  	2,475246  	-0,047951  
210,565000  	18,322444  	37,875882  	357,499067  	1256,670793  	79,823074  	74,474597  	0,004748  	0,011836  	0,003963  	0,004115  	0,004492  	0,000000  	-0,000000  	25,096189  	21,412914  	22,784462  	24,371754  	31,489601  	29,016004  	30,767013  	31,748741  	38,937692  	36,883582  	40,744855  	67,850467  	23,235156  	22,178783  	24,573344  	73,511491  	0,099957  	0,050649  	-4142,301826  	16229,769505  	-0,015674  	-0,049996  	0,416048  	0,210815  	-4,727555  	16874,140029  	17033,209962  	2,470458  	-0,047948  
211,564000  	18,328424  	37,875882  	357,499067  	357,439972  	79,826323  	74,471260  	0,004737  	0,011772  	0,003961  	0,004061  	0,004462  	-0,000001  	-0,000000  	25,097955  	21,414019  	22,783497  	24,372285  	31,474916  	29,008075  	30,765327  	31,749910  	38,939773  	36,883906  	40,731838  	67,849977  	23,243947  	22,195139  	24,566028  	73,515548  	0,056213  	0,028483  	-2328,783686  	-1,685536  	-0,026857  	-0,050010  	0,392312  	0,198788  	-4,463328  	16735,141719  	16816,441458  	2,439019  	-0,047960  
212,563000  	18,331736  	37,882544  	957,045375  	-242,047242  	79,820950  	74,476375  	0,004748  	0,011810  	0,003962  	0,004111  	0,004469  	0,000000  	-0,000000  	25,095054  	21,401630  	22,769742  	24,360951  	31,464501  	28,989541  	30,752624  	31,735904  	38,924311  	36,877120  	40,727431  	67,845367  	23,238544  	22,197889  	24,543372  	73,497570  	0,096248  	0,048770  	-3988,063567  	-34190,413687  	-0,026848  	-0,049994  	0,397619  	0,201477  	-4,514847  	16817,741008  	17043,010759  	2,471880  	-0,047947  
213,567000  	18,317292  	37,892230  	1256,818530  	57,696365  	79,811765  	74,473724  	0,004749  	0,011764  	0,003961  	0,004126  	0,004490  	-0,000000  	-0,000000  	25,083590  	21,396820  	22,778844  	24,358907  	31,465084  	28,997145  	30,753609  	31,736954  	38,921120  	36,873977  	40,723666  	67,837521  	23,245779  	22,237430  	24,554641  	73,507961  	0,108449  	0,054952  	-4499,166453  	-24494,864627  	-0,018201  	-0,050003  	0,414619  	0,210091  	-4,702122  	16717,880033  	17061,489640  	2,474560  	-0,047954  
214,563000  	18,322505  	37,894574  	1256,818530  	1256,670793  	79,810390  	74,474909  	0,004736  	0,011738  	0,003961  	0,004107  	0,004481  	0,000000  	-0,000000  	25,084293  	21,398859  	22,775673  	24,363716  	31,462414  	28,994316  	30,752143  	31,734323  	38,927212  	36,875847  	40,718578  	67,840355  	23,260162  	22,264627  	24,552836  	73,507643  	0,093130  	0,047189  	-3863,046243  	-1,993453  	-0,011068  	-0,049997  	0,407131  	0,206296  	-4,614989  	16662,753707  	16787,971130  	2,434889  	-0,047949  
215,565000  	18,345137  	37,896054  	357,499067  	1256,670793  	79,818607  	74,478402  	0,004750  	0,011838  	0,003963  	0,004133  	0,004483  	-0,000000  	-0,000000  	25,090817  	21,397092  	22,770414  	24,361529  	31,465414  	28,992645  	30,752905  	31,734489  	38,920401  	36,866980  	40,723098  	67,841001  	23,263305  	22,292679  	24,557775  	73,497189  	0,114196  	0,057864  	-4731,758014  	16231,483456  	-0,015676  	-0,050002  	0,408553  	0,207017  	-4,635206  	16877,248548  	17089,677525  	2,478648  	-0,047953  
216,574000  	18,359673  	37,900620  	-242,047242  	1256,670793  	79,827729  	74,472913  	0,004749  	0,011758  	0,003961  	0,004159  	0,004471  	-0,000000  	-0,000000  	25,085297  	21,396941  	22,775384  	24,363335  	31,462697  	28,993762  	30,746974  	31,729572  	38,922402  	36,861429  	40,717789  	67,844854  	23,275541  	22,308255  	24,562465  	73,494219  	0,135055  	0,068433  	-5593,204519  	35509,033009  	-0,021697  	-0,050000  	0,398928  	0,202140  	-4,538393  	16704,580045  	17071,989486  	2,476083  	-0,047951  
217,608000  	18,361391  	37,901452  	957,045375  	956,927186  	79,835320  	74,480429  	0,004737  	0,011790  	0,003960  	0,004131  	0,004491  	-0,000001  	-0,000000  	25,086711  	21,403358  	22,778156  	24,359004  	31,460906  	28,992579  	30,748610  	31,729139  	38,923629  	36,866053  	40,716766  	67,839431  	23,289610  	22,330373  	24,561695  	73,501295  	0,112952  	0,057234  	-4677,599567  	-1,917299  	-0,013767  	-0,050006  	0,414921  	0,210244  	-4,720406  	16773,954336  	16813,172172  	2,438544  	-0,047957  
218,569000  	18,362372  	37,907436  	357,499067  	357,439972  	79,836195  	74,484047  	0,004751  	0,011759  	0,003961  	0,004144  	0,004501  	-0,000000  	-0,000000  	25,092155  	21,406451  	22,774218  	24,358691  	31,469472  	28,995210  	30,756301  	31,730514  	38,923684  	36,873554  	40,719895  	67,840005  	23,304174  	22,338365  	24,567012  	73,506021  	0,123303  	0,062479  	-5107,590655  	-1,685247  	-0,026852  	-0,050000  	0,423143  	0,214410  	-4,811479  	16708,224101  	17107,386747  	2,481217  	-0,047952  
219,569000  	18,365592  	37,912618  	357,499067  	1256,670793  	79,829853  	74,478901  	0,004749  	0,011787  	0,003964  	0,004110  	0,004500  	-0,000001  	-0,000000  	25,087506  	21,402175  	22,774746  	24,359882  	31,466584  	28,995955  	30,752861  	31,727627  	38,924068  	36,870735  	40,718094  	67,833877  	23,308414  	22,334701  	24,569697  	73,504436  	0,095845  	0,048565  	-3970,560871  	16233,822607  	-0,015678  	-0,050010  	0,422538  	0,214103  	-4,803523  	16768,589065  	17069,221538  	2,475681  	-0,047960  
220,567000  	18,367862  	37,911076  	957,045375  	1256,670793  	79,824105  	74,482706  	0,004738  	0,011802  	0,003962  	0,004104  	0,004507  	-0,000000  	-0,000000  	25,085890  	21,405403  	22,775169  	24,367672  	31,465720  	29,001661  	30,757970  	31,734538  	38,928109  	36,873379  	40,726306  	67,837220  	23,318386  	22,332566  	24,575725  	73,502692  	0,091110  	0,046166  	-3773,681522  	4417,005395  	-0,012271  	-0,050003  	0,428034  	0,216888  	-4,857317  	16800,803332  	16825,945690  	2,440397  	-0,047954  
221,564000  	18,366758  	37,913945  	1256,818530  	956,927186  	79,825386  	74,492468  	0,004753  	0,011755  	0,003963  	0,004118  	0,004515  	-0,000000  	-0,000000  	25,094603  	21,405482  	22,777747  	24,369997  	31,474486  	29,003117  	30,760773  	31,742742  	38,927753  	36,875166  	40,733207  	67,847457  	23,317637  	22,334832  	24,579085  	73,506881  	0,102087  	0,051728  	-4229,187308  	-4420,926244  	-0,012271  	-0,050004  	0,434324  	0,220075  	-4,920880  	16700,127379  	17140,298503  	2,485990  	-0,047955  
222,565000  	18,358723  	37,916782  	1256,818530  	357,439972  	79,827510  	74,489973  	0,004745  	0,011800  	0,003961  	0,004088  	0,004436  	-0,000001  	-0,000000  	25,100981  	21,406772  	22,783694  	24,369621  	31,475983  	29,003627  	30,757207  	31,745559  	38,926289  	36,875890  	40,732362  	67,852643  	23,314782  	22,333418  	24,580996  	73,506801  	0,078158  	0,039603  	-3239,703899  	-16238,765452  	-0,015679  	-0,050016  	0,371693  	0,188340  	-4,214921  	16797,238511  	16974,991247  	2,462014  	-0,047965  
223,565000  	18,361667  	37,918355  	1256,818530  	1256,670793  	79,827604  	74,477560  	0,004738  	0,011667  	0,003962  	0,004110  	0,004505  	0,000000  	-0,000000  	25,098382  	21,405664  	22,785871  	24,369976  	31,472411  	29,007287  	30,758733  	31,749221  	38,925902  	36,879041  	40,730393  	67,852503  	23,321023  	22,323766  	24,583409  	73,504048  	0,096004  	0,048646  	-3979,143100  	-1,993538  	-0,011068  	-0,049999  	0,425960  	0,215837  	-4,841605  	16509,996984  	16821,447773  	2,439745  	-0,047951  
224,565000  	18,371051  	37,922489  	57,725912  	1256,670793  	79,822293  	74,485045  	0,004748  	0,011845  	0,003959  	0,004166  	0,004449  	0,000000  	-0,000000  	25,096739  	21,401905  	22,782626  	24,366643  	31,474492  	29,007544  	30,762733  	31,750202  	38,929554  	36,881751  	40,729970  	67,849651  	23,325842  	22,320839  	24,582352  	73,506818  	0,141481  	0,071689  	-5862,447919  	24488,367361  	-0,018199  	-0,049994  	0,381890  	0,193506  	-4,330305  	16892,462177  	17052,536174  	2,473261  	-0,047946  
225,567000  	18,359336  	37,928473  	-242,047242  	57,696365  	79,818700  	74,486511  	0,004746  	0,011801  	0,003960  	0,004115  	0,004465  	-0,000001  	-0,000000  	25,102106  	21,410621  	22,776840  	24,369894  	31,477914  	29,005225  	30,761904  	31,743639  	38,931149  	36,881214  	40,727262  	67,844619  	23,328857  	22,324383  	24,579354  	73,502327  	0,100156  	0,050750  	-4153,877188  	27703,751874  	-0,093583  	-0,050009  	0,394576  	0,199935  	-4,469919  	16798,354154  	16998,900109  	2,465482  	-0,047959  
226,575000  	18,369763  	37,930076  	357,499067  	1256,670793  	79,821012  	74,483766  	0,004739  	0,011757  	0,003960  	0,004127  	0,004450  	0,000000  	-0,000000  	25,100569  	21,408265  	22,774238  	24,373720  	31,476360  	29,001929  	30,755310  	31,736218  	38,918895  	36,872003  	40,720262  	67,835646  	23,324183  	22,322147  	24,573947  	73,493503  	0,109539  	0,055504  	-4540,950472  	16230,662138  	-0,015675  	-0,049999  	0,382931  	0,194034  	-4,342111  	16704,216418  	16839,439439  	2,442354  	-0,047950  
227,564000  	18,379975  	37,934056  	357,499067  	1256,670793  	79,820637  	74,479525  	0,004748  	0,011791  	0,003960  	0,004153  	0,004443  	-0,000000  	-0,000000  	25,094287  	21,404193  	22,781692  	24,374619  	31,478004  	29,011535  	30,767185  	31,744939  	38,925865  	36,877417  	40,731813  	67,840808  	23,333259  	22,328383  	24,580807  	73,497211  	0,130250  	0,065998  	-5397,800576  	16231,163724  	-0,015676  	-0,050000  	0,376861  	0,190958  	-4,276376  	16777,064270  	17041,485563  	2,471659  	-0,047952  
228,564000  	18,383348  	37,936338  	957,045375  	1256,670793  	79,821262  	74,483704  	0,004743  	0,011782  	0,003961  	0,004105  	0,004470  	-0,000000  	-0,000000  	25,102558  	21,413324  	22,793176  	24,377557  	31,493082  	29,017018  	30,775412  	31,756768  	38,930949  	36,879937  	40,735207  	67,848720  	23,339980  	22,323457  	24,587133  	73,500016  	0,092023  	0,046629  	-3813,403600  	4417,085931  	-0,012271  	-0,050004  	0,398398  	0,201871  	-4,517759  	16758,142915  	16942,679684  	2,457328  	-0,047955  
229,568000  	18,379822  	37,938559  	1256,818530  	956,927186  	79,823355  	74,488164  	0,004738  	0,011837  	0,003963  	0,004131  	0,004553  	-0,000000  	-0,000000  	25,091385  	21,419071  	22,784634  	24,374095  	31,481803  	29,016456  	30,762913  	31,746188  	38,931850  	36,878851  	40,729565  	67,849565  	23,340400  	22,314924  	24,588125  	73,497335  	0,112434  	0,056971  	-4660,609185  	-4420,993578  	-0,012271  	-0,050004  	0,464032  	0,235128  	-5,259704  	16875,322172  	16824,964198  	2,440255  	-0,047955  
230,568000  	18,366390  	37,940903  	1256,818530  	357,439972  	79,822980  	74,481926  	0,004750  	0,011773  	0,003961  	0,004103  	0,004505  	0,000001  	-0,000000  	25,106562  	21,417637  	22,789580  	24,380843  	31,484655  	29,025511  	30,770080  	31,757841  	38,943280  	36,893149  	40,743582  	67,859719  	23,346698  	22,304544  	24,593936  	73,503256  	0,090324  	0,045768  	-3747,112423  	-16231,353120  	-0,015672  	-0,049990  	0,426514  	0,216118  	-4,839757  	16738,262264  	17088,568933  	2,478487  	-0,047943  
231,574000  	18,344033  	37,943957  	357,499067  	1256,670793  	79,819044  	74,485263  	0,004746  	0,011747  	0,003962  	0,004088  	0,004491  	-0,000001  	-0,000000  	25,096091  	21,416379  	22,790356  	24,380483  	31,484434  	29,016650  	30,767621  	31,748021  	38,935547  	36,880749  	40,732404  	67,838175  	23,327106  	22,283268  	24,588792  	73,493945  	0,078172  	0,039610  	-3247,194741  	16233,502876  	-0,015678  	-0,050008  	0,414997  	0,210282  	-4,702657  	16681,397743  	16989,946643  	2,464183  	-0,047959  
232,569000  	18,321953  	37,944759  	-242,047242  	1256,670793  	79,822855  	74,489692  	0,004740  	0,011784  	0,003963  	0,004123  	0,004489  	0,000000  	-0,000000  	25,110535  	21,420615  	22,791188  	24,381499  	31,498685  	29,021298  	30,771417  	31,756530  	38,936659  	36,885512  	40,738678  	67,845824  	23,337233  	22,274778  	24,595363  	73,499029  	0,106020  	0,053721  	-4409,123704  	35506,573116  	-0,021695  	-0,049996  	0,413774  	0,209662  	-4,688263  	16761,233747  	16866,631709  	2,446298  	-0,047948  
233,567000  	18,312385  	37,946301  	1256,818530  	-242,047242  	79,827198  	74,481458  	0,004750  	0,011775  	0,003962  	0,004139  	0,004473  	-0,000000  	-0,000000  	25,101384  	21,415312  	22,788393  	24,378504  	31,474427  	29,012337  	30,766298  	31,744993  	38,927649  	36,874998  	40,730440  	67,838318  	23,329656  	22,257880  	24,589225  	73,494043  	0,119106  	0,060352  	-4956,171974  	-35510,309278  	-0,021695  	-0,050001  	0,400632  	0,203003  	-4,550050  	16741,673569  	17088,597178  	2,478491  	-0,047952  
234,567000  	18,318825  	37,948275  	1256,818530  	357,439972  	79,823199  	74,485076  	0,004745  	0,011852  	0,003962  	0,004054  	0,004487  	-0,000000  	-0,000000  	25,110666  	21,425735  	22,803413  	24,393724  	31,500109  	29,035482  	30,779935  	31,767149  	38,933047  	36,890041  	40,750277  	67,847755  	23,343383  	22,247203  	24,606702  	73,509488  	0,050364  	0,025520  	-2095,239339  	-16234,938620  	-0,015676  	-0,050002  	0,412347  	0,208939  	-4,676438  	16907,534317  	16977,540302  	2,462384  	-0,047953  
235,566000  	18,342837  	37,951144  	357,499067  	357,439972  	79,816670  	74,485451  	0,004740  	0,011787  	0,003962  	0,004128  	0,004474  	-0,000001  	-0,000000  	25,089815  	21,411526  	22,787513  	24,373000  	31,483879  	29,007815  	30,767913  	31,739921  	38,930816  	36,879138  	40,724774  	67,825993  	23,330403  	22,204149  	24,590968  	73,496020  	0,110562  	0,056022  	-4594,621594  	-1,685493  	-0,026856  	-0,050008  	0,401494  	0,203440  	-4,547461  	16768,455358  	16871,786308  	2,447046  	-0,047959  
236,564000  	18,366512  	37,952069  	957,045375  	956,927186  	79,814545  	74,492250  	0,004747  	0,011791  	0,003962  	0,004119  	0,004489  	-0,000000  	-0,000000  	25,110950  	21,418958  	22,794582  	24,383604  	31,498594  	29,020710  	30,783649  	31,757493  	38,927944  	36,884582  	40,730818  	67,845488  	23,338541  	22,184325  	24,588686  	73,504117  	0,102794  	0,052086  	-4266,834433  	-1,917094  	-0,013766  	-0,050000  	0,413373  	0,209459  	-4,674177  	16776,378754  	17031,268161  	2,470177  	-0,047952  
237,564000  	18,367248  	37,954753  	-242,047242  	57,696365  	79,811452  	74,489037  	0,004745  	0,011803  	0,003960  	0,004093  	0,004415  	0,000000  	-0,000000  	25,114814  	21,418429  	22,804404  	24,387402  	31,497057  	29,024854  	30,774821  	31,758606  	38,930926  	36,883929  	40,735382  	67,840248  	23,338373  	22,158314  	24,597001  	73,495318  	0,082066  	0,041583  	-3406,782985  	27697,260959  	-0,093561  	-0,049996  	0,355300  	0,180033  	-4,017609  	16802,300288  	16976,311672  	2,462206  	-0,047948  
238,566000  	18,359949  	37,948769  	-242,047242  	1256,670793  	79,812452  	74,486293  	0,004740  	0,011818  	0,003961  	0,004087  	0,004477  	0,000000  	-0,000000  	25,115115  	21,416158  	22,801440  	24,401779  	31,498757  	29,036532  	30,778680  	31,764761  	38,935875  	36,893358  	40,745999  	67,841535  	23,332069  	22,148636  	24,607520  	73,512482  	0,077077  	0,039056  	-3199,907467  	35508,463541  	-0,021696  	-0,049999  	0,404374  	0,204899  	-4,575737  	16834,861205  	16864,414526  	2,445977  	-0,047951  
239,566000  	18,363446  	37,942106  	657,272221  	357,439972  	79,816826  	74,484359  	0,004751  	0,011774  	0,003962  	0,004121  	0,004491  	0,000001  	-0,000000  	25,111402  	21,425928  	22,793273  	24,403040  	31,493738  	29,028201  	30,769261  	31,763593  	38,931846  	36,886146  	40,740800  	67,841680  	23,335378  	22,143041  	24,610493  	73,504303  	0,104615  	0,053009  	-4340,925324  	-7102,605708  	-0,021692  	-0,049993  	0,415144  	0,210356  	-4,703161  	16741,155011  	17117,632393  	2,482703  	-0,047945  
240,565000  	18,354429  	37,939947  	57,725912  	956,927186  	79,821137  	74,474628  	0,004745  	0,011801  	0,003961  	0,004127  	0,004499  	-0,000000  	-0,000000  	25,113740  	21,427199  	22,799221  	24,391661  	31,495493  	29,025125  	30,776798  	31,756620  	38,929873  	36,883257  	40,741999  	67,838706  	23,337004  	22,135603  	24,601854  	73,499326  	0,109885  	0,055679  	-4561,166494  	21304,686884  	-0,021697  	-0,050001  	0,421447  	0,213550  	-4,787133  	16798,177292  	16986,719723  	2,463715  	-0,047952  
241,564000  	18,327780  	37,937356  	1256,818530  	1256,670793  	79,822074  	74,481209  	0,004738  	0,011819  	0,003960  	0,004106  	0,004491  	0,000001  	-0,000000  	25,115115  	21,422554  	22,804138  	24,391734  	31,488770  	29,018104  	30,778203  	31,758709  	38,938160  	36,888220  	40,746285  	67,832054  	23,330410  	22,127855  	24,607376  	73,505773  	0,092314  	0,046776  	-3836,538863  	-1,993293  	-0,011067  	-0,049993  	0,414773  	0,210168  	-4,706357  	16836,815171  	16817,550050  	2,439179  	-0,047945  
242,564000  	18,300425  	37,941242  	1256,818530  	657,183579  	79,818700  	74,482456  	0,004749  	0,011827  	0,003960  	0,004150  	0,004512  	0,000001  	-0,000000  	25,113178  	21,428829  	22,803269  	24,402110  	31,493520  	29,023950  	30,786517  	31,764504  	38,934954  	36,888238  	40,740964  	67,835088  	23,324503  	22,125827  	24,613715  	73,510202  	0,128181  	0,064950  	-5335,655514  	-9723,634359  	-0,013762  	-0,049985  	0,431987  	0,218891  	-4,897446  	16854,191463  	17070,019441  	2,475797  	-0,047939  
243,567000  	18,282486  	37,943001  	1256,818530  	657,183579  	79,815576  	74,485419  	0,004742  	0,011774  	0,003963  	0,004128  	0,004475  	0,000000  	-0,000000  	25,128077  	21,437373  	22,815105  	24,398707  	31,506077  	29,038657  	30,791005  	31,765029  	38,941150  	36,895021  	40,751770  	67,851035  	23,324175  	22,140604  	24,620595  	73,516704  	0,110456  	0,055969  	-4602,486280  	-9725,961982  	-0,013765  	-0,049999  	0,402640  	0,204021  	-4,559536  	16739,310699  	16906,548070  	2,452087  	-0,047950  
244,565000  	18,279971  	37,939793  	1256,818530  	57,696365  	79,814139  	74,482987  	0,004742  	0,011796  	0,003962  	0,004148  	0,004454  	0,000001  	-0,000000  	25,127540  	21,429652  	22,808757  	24,395100  	31,501027  	29,038122  	30,783937  	31,764601  	38,946481  	36,898390  	40,750753  	67,850463  	23,320110  	22,164432  	24,615427  	73,510046  	0,126778  	0,064239  	-5282,401900  	-24487,234467  	-0,018195  	-0,049986  	0,385502  	0,195337  	-4,366270  	16787,887488  	16913,206681  	2,453053  	-0,047939  
245,563000  	18,296377  	37,934611  	1256,818530  	-242,047242  	79,818232  	74,484109  	0,004750  	0,011786  	0,003961  	0,004133  	0,004455  	-0,000000  	-0,000000  	25,124633  	21,427346  	22,801866  	24,400349  	31,497108  	29,028580  	30,782312  	31,765935  	38,936850  	36,897775  	40,751012  	67,841179  	23,307261  	22,185425  	24,612202  	73,507482  	0,114123  	0,057827  	-4749,860253  	-35511,461235  	-0,021696  	-0,050003  	0,386480  	0,195832  	-4,379792  	16766,499976  	17081,853834  	2,477513  	-0,047954  
246,565000  	18,322812  	37,937202  	657,272221  	-242,047242  	79,823543  	74,481302  	0,004745  	0,011802  	0,003963  	0,004141  	0,004475  	0,000000  	-0,000000  	25,120578  	21,424055  	22,800191  	24,393230  	31,495685  	29,020937  	30,778755  	31,760993  	38,927641  	36,894735  	40,748941  	67,836792  	23,286564  	22,195675  	24,606850  	73,497226  	0,120920  	0,061271  	-5026,626148  	-32743,588879  	-0,035221  	-0,049999  	0,402528  	0,203964  	-4,568599  	16800,563508  	16983,521048  	2,463251  	-0,047951  
247,564000  	18,340936  	37,941273  	-242,047242  	657,183579  	79,821043  	74,485232  	0,004737  	0,011804  	0,003963  	0,004120  	0,004454  	-0,000001  	-0,000000  	25,121930  	21,429456  	22,799619  	24,389991  	31,497374  	29,021943  	30,773576  	31,755530  	38,930248  	36,892893  	40,743310  	67,839173  	23,284862  	22,195951  	24,609442  	73,496661  	0,103490  	0,052439  	-4298,990777  	32747,896290  	-0,035230  	-0,050007  	0,385566  	0,195369  	-4,370818  	16805,647216  	16814,040686  	2,438670  	-0,047958  
248,565000  	18,344003  	37,941520  	-242,047242  	1256,670793  	79,820543  	74,481677  	0,004752  	0,011753  	0,003963  	0,004099  	0,004495  	0,000001  	-0,000000  	25,128140  	21,435354  	22,804297  	24,397431  	31,500473  	29,028241  	30,780524  	31,765229  	38,940866  	36,899371  	40,747164  	67,839637  	23,288557  	22,200758  	24,617783  	73,504320  	0,086660  	0,043911  	-3599,333093  	35504,797106  	-0,021694  	-0,049993  	0,418420  	0,212017  	-4,745971  	16693,821912  	17121,042901  	2,483197  	-0,047946  
249,566000  	18,349891  	37,935536  	1256,818530  	1256,670793  	79,815170  	74,487322  	0,004744  	0,011803  	0,003961  	0,004108  	0,004483  	-0,000001  	-0,000000  	25,127922  	21,432053  	22,807348  	24,396093  	31,498263  	29,031113  	30,785850  	31,769254  	38,941404  	36,900758  	40,746042  	67,837439  	23,279294  	22,197832  	24,612630  	73,502625  	0,094198  	0,047731  	-3910,059732  	-1,994196  	-0,011072  	-0,050018  	0,409034  	0,207260  	-4,629930  	16803,715888  	16958,934321  	2,459685  	-0,047967  
250,564000  	18,368475  	37,927393  	657,272221  	1256,670793  	79,811984  	74,485263  	0,004741  	0,011789  	0,003960  	0,004074  	0,004467  	-0,000000  	-0,000000  	25,128683  	21,433075  	22,805181  	24,395813  	31,495215  	29,030547  	30,781614  	31,761568  	38,938978  	36,896393  	40,747106  	67,841676  	23,283979  	22,182746  	24,612067  	73,505069  	0,066990  	0,033944  	-2776,891686  	9722,786961  	-0,013766  	-0,050001  	0,395843  	0,200577  	-4,479673  	16772,712061  	16882,392070  	2,448584  	-0,047952  
251,565000  	18,366175  	37,923784  	-242,047242  	357,439972  	79,811921  	74,478402  	0,004753  	0,011786  	0,003961  	0,004107  	0,004505  	-0,000000  	-0,000000  	25,130334  	21,435482  	22,803558  	24,403801  	31,495503  	29,029490  	30,785377  	31,765541  	38,943799  	36,898322  	40,755222  	67,847306  	23,294639  	22,170246  	24,622243  	73,511715  	0,093505  	0,047380  	-3875,736819  	30944,875443  	-0,051186  	-0,050004  	0,425842  	0,215777  	-4,825309  	16765,172100  	17153,728702  	2,487938  	-0,047955  
252,565000  	18,347529  	37,925203  	-242,047242  	956,927186  	79,811609  	74,480647  	0,004742  	0,011663  	0,003962  	0,004110  	0,004505  	-0,000001  	-0,000000  	25,129059  	21,437683  	22,803270  	24,400560  	31,499766  	29,031161  	30,790128  	31,768117  	38,940019  	36,897527  	40,742719  	67,844735  	23,286147  	22,152274  	24,619521  	73,515376  	0,095702  	0,048493  	-3970,884371  	34197,604330  	-0,026857  	-0,050007  	0,426286  	0,216002  	-4,828021  	16500,254744  	16906,435092  	2,452071  	-0,047957  
253,564000  	18,344463  	37,922211  	1256,818530  	1256,670793  	79,814951  	74,474472  	0,004739  	0,011788  	0,003960  	0,004111  	0,004476  	-0,000000  	-0,000000  	25,132989  	21,435823  	22,805394  	24,394465  	31,500516  	29,033634  	30,785200  	31,765245  	38,945025  	36,899450  	40,743014  	67,838962  	23,285172  	22,137006  	24,619072  	73,518745  	0,096433  	0,048863  	-4001,215508  	-1,993591  	-0,011069  	-0,050001  	0,403063  	0,204235  	-4,573156  	16770,528882  	16858,560880  	2,445128  	-0,047952  
254,565000  	18,356668  	37,923383  	1256,818530  	1256,670793  	79,814826  	74,469232  	0,004751  	0,011777  	0,003961  	0,004150  	0,004510  	0,000001  	-0,000000  	25,127251  	21,432676  	22,804303  	24,403013  	31,492611  	29,025766  	30,786651  	31,760587  	38,939087  	36,894377  	40,747620  	67,838877  	23,285804  	22,107947  	24,617213  	73,516888  	0,128099  	0,064909  	-5312,114534  	-1,993069  	-0,011066  	-0,049986  	0,430227  	0,217999  	-4,886031  	16746,383745  	17107,217281  	2,481192  	-0,047940  
255,563000  	18,368904  	37,928380  	357,499067  	357,439972  	79,809890  	74,469201  	0,004741  	0,011768  	0,003963  	0,004112  	0,004457  	0,000000  	-0,000000  	25,129207  	21,440265  	22,803205  	24,409348  	31,499903  	29,026703  	30,789568  	31,769647  	38,939126  	36,902427  	40,754791  	67,841767  	23,274094  	22,093717  	24,630251  	73,519615  	0,097180  	0,049242  	-4028,452239  	-1,685152  	-0,026850  	-0,049997  	0,388042  	0,196624  	-4,402899  	16728,124561  	16898,858539  	2,450972  	-0,047949  
256,567000  	18,372952  	37,933377  	957,045375  	956,927186  	79,809078  	74,474503  	0,004743  	0,011779  	0,003961  	0,004119  	0,004450  	0,000001  	-0,000000  	25,117212  	21,437265  	22,803641  	24,398115  	31,494760  	29,030929  	30,787291  	31,760912  	38,940174  	36,898149  	40,751985  	67,845846  	23,264921  	22,073841  	24,633641  	73,518571  	0,103426  	0,052407  	-4287,558466  	-1,916460  	-0,013761  	-0,049982  	0,382564  	0,193848  	-4,335772  	16750,845608  	16932,172778  	2,455804  	-0,047936  
257,566000  	18,374240  	37,931866  	1256,818530  	1256,670793  	79,809203  	74,476219  	0,004749  	0,011803  	0,003963  	0,004158  	0,004438  	0,000000  	-0,000000  	25,128460  	21,440553  	22,804324  	24,402203  	31,496703  	29,036125  	30,789890  	31,768135  	38,945464  	36,897920  	40,740773  	67,851541  	23,268912  	22,061213  	24,627992  	73,512556  	0,134778  	0,068293  	-5586,474227  	-1,993380  	-0,011067  	-0,049995  	0,372764  	0,188882  	-4,223451  	16803,042399  	17068,268290  	2,475543  	-0,047947  
258,564000  	18,360869  	37,934457  	657,272221  	1256,670793  	79,809016  	74,474160  	0,004742  	0,011737  	0,003962  	0,004131  	0,004445  	-0,000000  	-0,000000  	25,123937  	21,435755  	22,803238  	24,398294  	31,507382  	29,017794  	30,796035  	31,771917  	38,939641  	36,902140  	40,750243  	67,837475  	23,249317  	22,053456  	24,624665  	73,506536  	0,113050  	0,057283  	-4689,692134  	9722,888062  	-0,013766  	-0,050002  	0,378912  	0,191997  	-4,294606  	16660,753757  	16912,592366  	2,452964  	-0,047953  
259,563000  	18,352037  	37,933161  	-242,047242  	357,439972  	79,813546  	74,477061  	0,004743  	0,011800  	0,003961  	0,004105  	0,004435  	0,000000  	-0,000000  	25,114731  	21,426084  	22,803002  	24,388947  	31,502553  	29,030589  	30,788373  	31,762322  	38,930747  	36,893604  	40,746714  	67,834912  	23,232793  	22,034260  	24,626427  	73,505792  	0,091374  	0,046300  	-3791,966481  	30940,810389  	-0,051179  	-0,049997  	0,370472  	0,187721  	-4,200237  	16795,438061  	16939,382154  	2,456850  	-0,047949  
260,563000  	18,362219  	37,936246  	957,045375  	956,927186  	79,812171  	74,470386  	0,004752  	0,011783  	0,003961  	0,004089  	0,004482  	-0,000000  	-0,000000  	25,123191  	21,439459  	22,808515  	24,394895  	31,493937  	29,028430  	30,792164  	31,760749  	38,934430  	36,901235  	40,745252  	67,840566  	23,242175  	22,020784  	24,625829  	73,510583  	0,078811  	0,039934  	-3269,427482  	-1,917279  	-0,013767  	-0,050006  	0,408038  	0,206756  	-4,630726  	16758,710994  	17123,563712  	2,483563  	-0,047956  
261,563000  	18,355257  	37,937078  	1256,818530  	57,696365  	79,813108  	74,469513  	0,004742  	0,011746  	0,003962  	0,004115  	0,004468  	-0,000001  	-0,000000  	25,122225  	21,427383  	22,803858  	24,396937  	31,506282  	29,016438  	30,779274  	31,764152  	38,930980  	36,887514  	40,748377  	67,839166  	23,231028  	22,012399  	24,619080  	73,510751  	0,099728  	0,050533  	-4138,786555  	-24498,968484  	-0,018204  	-0,050013  	0,396768  	0,201045  	-4,504348  	16680,051473  	16922,329613  	2,454376  	-0,047962  
262,565000  	18,347223  	37,936770  	1256,818530  	1256,670793  	79,813733  	74,473256  	0,004740  	0,011797  	0,003960  	0,004091  	0,004479  	-0,000001  	-0,000000  	25,145550  	21,447898  	22,818004  	24,413722  	31,507769  	29,039457  	30,793446  	31,773780  	38,946664  	36,895782  	40,753584  	67,847949  	23,236320  	22,009482  	24,635440  	73,513298  	0,080271  	0,040674  	-3332,635499  	-1,993852  	-0,011070  	-0,050008  	0,405751  	0,205597  	-4,603654  	16788,744913  	16860,481497  	2,445406  	-0,047958  
263,563000  	18,360471  	37,935289  	1256,818530  	1256,670793  	79,818388  	74,473755  	0,004750  	0,011817  	0,003963  	0,004110  	0,004491  	0,000000  	-0,000000  	25,133912  	21,436101  	22,809655  	24,397427  	31,487154  	29,029967  	30,783393  	31,766582  	38,928039  	36,885626  	40,743431  	67,845311  	23,227064  	21,990937  	24,626445  	73,506902  	0,096122  	0,048706  	-3987,704084  	-1,993406  	-0,011067  	-0,049996  	0,415097  	0,210333  	-4,713358  	16831,822723  	17089,176187  	2,478575  	-0,047948  
264,567000  	18,386047  	37,938065  	1256,818530  	1256,670793  	79,820450  	74,474628  	0,004743  	0,011793  	0,003962  	0,004096  	0,004500  	0,000000  	-0,000000  	25,136022  	21,433738  	22,814878  	24,404379  	31,498974  	29,026590  	30,786666  	31,771267  	38,941090  	36,898464  	40,762045  	67,841810  	23,217611  	21,978255  	24,632823  	73,506644  	0,084568  	0,042851  	-3504,299263  	-1,993449  	-0,011068  	-0,049997  	0,422592  	0,214130  	-4,799524  	16780,284565  	16937,482720  	2,456574  	-0,047949  
265,563000  	18,404754  	37,934457  	-242,047242  	1256,670793  	79,815576  	74,479961  	0,004742  	0,011799  	0,003961  	0,004145  	0,004497  	-0,000001  	-0,000000  	25,130639  	21,441721  	22,809941  	24,399006  	31,507639  	29,042460  	30,794361  	31,770331  	38,936664  	36,905772  	40,758100  	67,838435  	23,206616  	21,968468  	24,632336  	73,513528  	0,123747  	0,062704  	-5121,920184  	35514,990316  	-0,021700  	-0,050009  	0,419549  	0,212589  	-4,755873  	16793,405568  	16917,584559  	2,453688  	-0,047960  
266,566000  	18,396535  	37,933655  	357,499067  	1256,670793  	79,809328  	74,478714  	0,004750  	0,011775  	0,003964  	0,004133  	0,004520  	0,000000  	-0,000000  	25,131857  	21,443942  	22,814763  	24,397950  	31,510955  	29,043636  	30,793994  	31,766350  	38,936351  	36,911188  	40,764017  	67,842077  	23,221094  	21,971972  	24,642661  	73,519746  	0,114402  	0,057968  	-4736,910429  	16229,884798  	-0,015675  	-0,049996  	0,437989  	0,221932  	-4,960246  	16741,530665  	17096,272586  	2,479605  	-0,047948  
267,564000  	18,386415  	37,935505  	1256,818530  	357,439972  	79,808016  	74,482519  	0,004742  	0,011725  	0,003961  	0,004105  	0,004512  	-0,000000  	-0,000000  	25,138416  	21,443424  	22,815523  	24,408503  	31,514405  	29,038286  	30,789745  	31,773080  	38,937773  	36,908452  	40,759186  	67,848855  	23,207036  	21,974939  	24,634731  	73,515474  	0,091403  	0,046315  	-3786,961720  	-16235,616251  	-0,015676  	-0,050005  	0,431716  	0,218753  	-4,884509  	16635,200095  	16920,423118  	2,454100  	-0,047955  
268,567000  	18,386415  	37,937294  	1256,818530  	-242,047242  	79,812702  	74,477903  	0,004741  	0,011787  	0,003960  	0,004089  	0,004471  	-0,000000  	-0,000000  	25,145179  	21,458595  	22,824289  	24,420137  	31,519304  	29,052691  	30,800657  	31,782928  	38,952420  	36,912998  	40,769477  	67,854800  	23,226699  	21,988074  	24,643293  	73,526088  	0,078540  	0,039797  	-3254,314208  	-35513,198272  	-0,021697  	-0,050006  	0,399445  	0,202402  	-4,527287  	16768,284863  	16901,111028  	2,451299  	-0,047956  
269,564000  	18,371756  	37,939361  	57,725912  	-242,047242  	79,811921  	74,475844  	0,004749  	0,011830  	0,003963  	0,004082  	0,004446  	0,000001  	-0,000000  	25,139643  	21,456493  	22,821415  	24,416537  	31,514216  	29,047579  	30,806088  	31,783085  	38,943022  	36,909103  	40,769317  	67,849528  	23,231831  	21,987439  	24,644755  	73,522188  	0,072694  	0,036835  	-3014,688163  	-27693,847218  	-0,093540  	-0,049988  	0,379219  	0,192153  	-4,299068  	16859,919654  	17054,612136  	2,473562  	-0,047941  
270,564000  	18,354215  	37,942630  	657,272221  	-242,047242  	79,811546  	74,481895  	0,004740  	0,011778  	0,003961  	0,004114  	0,004475  	-0,000001  	-0,000000  	25,143651  	21,449852  	22,811813  	24,407909  	31,513347  	29,044587  	30,803614  	31,777157  	38,940265  	36,906415  	40,760340  	67,847780  	23,234537  	21,981044  	24,638892  	73,514713  	0,099197  	0,050264  	-4118,165794  	-32748,554799  	-0,035227  	-0,050008  	0,402332  	0,203864  	-4,555604  	16747,947201  	16871,786308  	2,447046  	-0,047958  
271,564000  	18,340047  	37,947535  	-242,047242  	657,183579  	79,814358  	74,471478  	0,004741  	0,011783  	0,003960  	0,004100  	0,004450  	0,000000  	-0,000000  	25,144782  	21,447100  	22,820608  	24,408079  	31,520833  	29,048196  	30,799234  	31,778013  	38,943793  	36,905050  	40,760927  	67,848573  	23,243783  	21,973177  	24,635833  	73,514915  	0,087345  	0,044258  	-3629,660789  	32740,539831  	-0,035222  	-0,049995  	0,382942  	0,194040  	-4,346815  	16759,531632  	16886,741703  	2,449215  	-0,047947  
272,565000  	18,330969  	37,949879  	957,045375  	1256,670793  	79,816607  	74,476780  	0,004751  	0,011743  	0,003961  	0,004102  	0,004460  	0,000000  	-0,000000  	25,136788  	21,441411  	22,823953  	24,408723  	31,509883  	29,041757  	30,797247  	31,772419  	38,944848  	36,902968  	40,761305  	67,840812  	23,243482  	21,965123  	24,629793  	73,515107  	0,088938  	0,045065  	-3697,992537  	4416,530912  	-0,012270  	-0,049997  	0,390489  	0,197864  	-4,429949  	16673,540139  	17110,267673  	2,481635  	-0,047949  
273,565000  	18,352835  	37,953396  	957,045375  	-242,047242  	79,820950  	74,471447  	0,004740  	0,011805  	0,003963  	0,004148  	0,004463  	0,000001  	-0,000000  	25,136497  	21,441452  	22,820300  	24,409138  	31,502821  	29,042717  	30,800664  	31,772674  	38,943226  	36,899883  	40,760576  	67,844572  	23,242557  	21,967148  	24,627576  	73,517236  	0,126166  	0,063929  	-5241,026241  	-34183,512658  	-0,026843  	-0,049983  	0,393065  	0,199169  	-4,467249  	16807,537512  	16867,111864  	2,446368  	-0,047937  
274,564000  	18,380742  	37,955431  	357,499067  	357,439972  	79,819638  	74,479930  	0,004741  	0,011795  	0,003960  	0,004187  	0,004477  	-0,000000  	-0,000000  	25,138718  	21,446124  	22,823701  	24,410429  	31,509496  	29,044158  	30,799570  	31,780337  	38,941112  	36,900393  	40,762389  	67,848615  	23,248281  	21,978762  	24,630635  	73,520309  	0,157966  	0,080042  	-6553,307558  	-1,685380  	-0,026854  	-0,050005  	0,403834  	0,204626  	-4,581239  	16785,257911  	16899,522282  	2,451068  	-0,047955  
275,564000  	18,396566  	37,956079  	1256,818530  	1256,670793  	79,814045  	74,481770  	0,004750  	0,011781  	0,003961  	0,004120  	0,004500  	0,000000  	-0,000000  	25,139730  	21,449658  	22,823295  	24,412313  	31,511468  	29,042474  	30,798439  	31,780201  	38,941933  	36,904719  	40,761431  	67,843471  	23,257084  	21,995985  	24,630936  	73,522052  	0,103838  	0,052616  	-4304,452795  	-1,993547  	-0,011068  	-0,050000  	0,422350  	0,214008  	-4,784631  	16755,072599  	17091,873525  	2,478967  	-0,047951  
276,563000  	18,402516  	37,955215  	1256,818530  	1256,670793  	79,812733  	74,482332  	0,004743  	0,011776  	0,003963  	0,004123  	0,004501  	-0,000001  	-0,000000  	25,142978  	21,453250  	22,823748  	24,418230  	31,515787  	29,050305  	30,804184  	31,782685  	38,946567  	36,907920  	40,763397  	67,842900  	23,264775  	22,008624  	24,636495  	73,518599  	0,105907  	0,053664  	-4388,681373  	-1,994143  	-0,011072  	-0,050016  	0,422736  	0,214204  	-4,787322  	16745,055869  	16935,209048  	2,456244  	-0,047965  
277,566000  	18,391445  	37,950712  	957,045375  	956,927186  	79,811546  	74,478558  	0,004739  	0,011768  	0,003962  	0,004147  	0,004498  	-0,000000  	-0,000000  	25,137249  	21,447585  	22,828154  	24,418586  	31,520102  	29,049064  	30,800523  	31,783094  	38,946482  	36,907561  	40,770628  	67,840081  	23,267438  	22,008349  	24,641868  	73,508478  	0,125746  	0,063716  	-5212,543127  	-1,917126  	-0,013766  	-0,050001  	0,420287  	0,212962  	-4,761886  	16727,207710  	16858,031298  	2,445051  	-0,047953  
278,566000  	18,377215  	37,947381  	357,499067  	-242,047242  	79,810859  	74,478059  	0,004751  	0,011803  	0,003961  	0,004101  	0,004505  	-0,000000  	-0,000000  	25,131361  	21,440566  	22,820755  	24,412085  	31,509903  	29,037903  	30,791362  	31,775390  	38,939267  	36,905515  	40,771697  	67,834828  	23,271407  	22,010768  	24,632912  	73,506452  	0,088192  	0,044688  	-3657,857639  	-30944,596013  	-0,051180  	-0,050003  	0,426164  	0,215940  	-4,828302  	16802,750224  	17097,600072  	2,479797  	-0,047954  
279,563000  	18,358723  	37,947103  	1256,818530  	657,183579  	79,815826  	74,481302  	0,004741  	0,011744  	0,003961  	0,004114  	0,004494  	0,000001  	-0,000000  	25,139564  	21,450796  	22,820735  	24,417907  	31,503986  	29,038696  	30,796356  	31,785491  	38,944565  	36,909782  	40,768699  	67,832816  	23,278969  	22,019088  	24,630589  	73,509014  	0,098812  	0,050069  	-4102,152722  	-9724,776091  	-0,013763  	-0,049992  	0,417303  	0,211451  	-4,729445  	16675,027898  	16893,089626  	2,450136  	-0,047944  
280,563000  	18,346272  	37,944944  	1256,818530  	1256,670793  	79,818888  	74,477685  	0,004740  	0,011844  	0,003960  	0,004076  	0,004453  	0,000000  	-0,000000  	25,144807  	21,451780  	22,826868  	24,423810  	31,514746  	29,051475  	30,803663  	31,785028  	38,951809  	36,908610  	40,765105  	67,843141  	23,288013  	22,024978  	24,630374  	73,508323  	0,068017  	0,034465  	-2825,215264  	-1,993543  	-0,011068  	-0,050000  	0,385110  	0,195138  	-4,370050  	16891,760390  	16865,431324  	2,446124  	-0,047951  
281,564000  	18,358600  	37,947165  	57,725912  	1256,670793  	79,815982  	74,474784  	0,004750  	0,011774  	0,003961  	0,004104  	0,004451  	0,000001  	-0,000000  	25,144988  	21,451286  	22,825882  	24,423130  	31,514465  	29,056995  	30,799852  	31,784710  	38,949353  	36,905100  	40,766712  	67,843479  	23,284546  	22,024116  	24,633445  	73,514926  	0,090623  	0,045919  	-3762,224301  	24484,028949  	-0,018196  	-0,049984  	0,383419  	0,194281  	-4,350861  	16741,053846  	17090,327146  	2,478742  	-0,047938  
282,566000  	18,380864  	37,950064  	1256,818530  	1256,670793  	79,812733  	74,484203  	0,004742  	0,011823  	0,003962  	0,004089  	0,004441  	0,000001  	-0,000000  	25,147986  	21,455034  	22,819281  	24,424514  	31,517711  	29,052739  	30,814909  	31,782894  	38,947695  	36,914679  	40,776237  	67,843296  	23,277667  	22,027368  	24,638942  	73,513848  	0,078846  	0,039952  	-3270,070034  	-1,993288  	-0,011067  	-0,049992  	0,375554  	0,190296  	-4,251505  	16845,325748  	16918,770822  	2,453860  	-0,047945  
283,565000  	18,389973  	37,956912  	357,499067  	357,439972  	79,811421  	74,487041  	0,004741  	0,011753  	0,003961  	0,004111  	0,004482  	-0,000000  	-0,000000  	25,140948  	21,458385  	22,828247  	24,421781  	31,522726  	29,055957  	30,809202  	31,795196  	38,952485  	36,909296  	40,767224  	67,843123  	23,259331  	22,015534  	24,630236  	73,502962  	0,096175  	0,048732  	-3988,291484  	-1,685303  	-0,026853  	-0,050002  	0,408320  	0,206899  	-4,618847  	16695,894729  	16882,928713  	2,448662  	-0,047953  
284,563000  	18,386170  	37,963019  	-242,047242  	-242,047242  	79,811359  	74,487291  	0,004751  	0,011803  	0,003961  	0,004088  	0,004487  	-0,000001  	-0,000000  	25,141552  	21,456714  	22,824756  	24,423649  	31,517117  	29,049371  	30,813529  	31,789827  	38,957169  	36,913131  	40,766050  	67,846534  	23,258100  	21,992617  	24,635726  	73,510917  	0,077899  	0,039472  	-3232,038566  	-0,000000  	-0,544537  	-0,050011  	0,412224  	0,208877  	-4,662734  	16803,210772  	17105,077769  	2,480882  	-0,047961  
285,564000  	18,385618  	37,959873  	957,045375  	1256,670793  	79,812015  	74,478527  	0,004744  	0,011732  	0,003961  	0,004108  	0,004525  	0,000000  	-0,000000  	25,137980  	21,450058  	22,813967  	24,413420  	31,515888  	29,044488  	30,808516  	31,777707  	38,945056  	36,909371  	40,761832  	67,842532  	23,241024  	21,978547  	24,622105  	73,511455  	0,094127  	0,047695  	-3904,830023  	4416,495010  	-0,012270  	-0,049997  	0,441974  	0,223951  	-5,008076  	16649,293837  	16957,098437  	2,459419  	-0,047949  
286,567000  	18,380711  	37,957220  	-242,047242  	1256,670793  	79,810765  	74,475657  	0,004742  	0,011821  	0,003963  	0,004150  	0,004519  	0,000001  	-0,000000  	25,143593  	21,448359  	22,825740  	24,417865  	31,511940  	29,048758  	30,809475  	31,780581  	38,946162  	36,905005  	40,769505  	67,843857  	23,232633  	21,961043  	24,634988  	73,508054  	0,128223  	0,064972  	-5319,920318  	35499,773309  	-0,021691  	-0,049985  	0,437056  	0,221459  	-4,953846  	16841,504831  	16908,256854  	2,452335  	-0,047939  
287,569000  	18,374547  	37,951668  	657,272221  	1256,670793  	79,813952  	74,474753  	0,004749  	0,011765  	0,003961  	0,004117  	0,004483  	0,000000  	-0,000000  	25,146614  	21,464580  	22,824423  	24,420935  	31,518887  	29,050160  	30,810187  	31,786838  	38,950785  	36,908496  	40,770924  	67,844358  	23,251863  	21,939589  	24,644504  	73,510793  	0,101803  	0,051584  	-4223,887957  	9721,636401  	-0,013764  	-0,049995  	0,408441  	0,206960  	-4,633066  	16721,230498  	17073,041589  	2,476235  	-0,047947  
288,569000  	18,370192  	37,950619  	57,725912  	1256,670793  	79,809890  	74,470199  	0,004743  	0,011801  	0,003961  	0,004138  	0,004468  	0,000000  	-0,000000  	25,144591  	21,464104  	22,822915  	24,422531  	31,521792  	29,049908  	30,812138  	31,787543  	38,951048  	36,915109  	40,770609  	67,848132  	23,232692  	21,926834  	24,631337  	73,513275  	0,118148  	0,059866  	-4902,875788  	24490,060400  	-0,018200  	-0,049998  	0,396551  	0,200936  	-4,498606  	16798,775792  	16933,514385  	2,455999  	-0,047949  
289,566000  	18,366880  	37,953581  	1256,818530  	956,927186  	79,803424  	74,474191  	0,004739  	0,011755  	0,003961  	0,004136  	0,004488  	0,000000  	-0,000000  	25,142248  	21,447555  	22,819983  	24,415698  	31,514427  	29,046801  	30,799631  	31,780510  	38,947813  	36,902690  	40,768915  	67,834685  	23,223383  	21,903738  	24,626959  	73,505960  	0,117027  	0,059298  	-4857,918440  	-4420,404728  	-0,012270  	-0,049997  	0,412721  	0,209129  	-4,672870  	16698,224349  	16844,601098  	2,443103  	-0,047949  
290,568000  	18,366758  	37,954383  	657,272221  	-242,047242  	79,797925  	74,470573  	0,004749  	0,011815  	0,003962  	0,004115  	0,004475  	-0,000001  	-0,000000  	25,143433  	21,457482  	22,828298  	24,426494  	31,519649  	29,059232  	30,808591  	31,783347  	38,956369  	36,918670  	40,767550  	67,852598  	23,250477  	21,889545  	24,636760  	73,511204  	0,099648  	0,050492  	-4136,689089  	-32754,822743  	-0,035233  	-0,050018  	0,402209  	0,203802  	-4,552242  	16827,854658  	17057,175312  	2,473934  	-0,047967  
291,566000  	18,371910  	37,955308  	657,272221  	657,183579  	79,800425  	74,471322  	0,004742  	0,011808  	0,003961  	0,004126  	0,004462  	-0,000000  	-0,000000  	25,146702  	21,463871  	22,825272  	24,426573  	31,516482  	29,050522  	30,808594  	31,790054  	38,949808  	36,913411  	40,773857  	67,840888  	23,245714  	21,884166  	24,632695  	73,508229  	0,108959  	0,055210  	-4522,259405  	-1,810728  	-0,018201  	-0,050002  	0,392282  	0,198772  	-4,441344  	16813,806900  	16913,531491  	2,453100  	-0,047953  
292,566000  	18,386507  	37,954012  	57,725912  	1256,670793  	79,802486  	74,483049  	0,004741  	0,011775  	0,003959  	0,004066  	0,004418  	-0,000000  	-0,000000  	25,151524  	21,468488  	22,838360  	24,426498  	31,531335  	29,055695  	30,806858  	31,787779  	38,955089  	36,919833  	40,775336  	67,843241  	23,253945  	21,875938  	24,642060  	73,511869  	0,060145  	0,030476  	-2494,244378  	24493,473380  	-0,018203  	-0,050005  	0,356983  	0,180886  	-4,034376  	16742,044978  	16898,392507  	2,450905  	-0,047956  
293,567000  	18,405337  	37,953149  	957,045375  	956,927186  	79,806360  	74,471727  	0,004751  	0,011728  	0,003962  	0,004119  	0,004519  	0,000000  	-0,000000  	25,150857  	21,469614  	22,829150  	24,433529  	31,530150  	29,057687  	30,814884  	31,789491  	38,954321  	36,915351  	40,777523  	67,845073  	23,261555  	21,861278  	24,630685  	73,516922  	0,102859  	0,052119  	-4261,292651  	-1,917032  	-0,013765  	-0,049999  	0,437290  	0,221578  	-4,956063  	16639,891170  	17113,261577  	2,482069  	-0,047950  
294,567000  	18,408956  	37,956233  	357,499067  	357,439972  	79,806860  	74,463556  	0,004742  	0,011795  	0,003961  	0,004126  	0,004476  	0,000000  	-0,000000  	25,150306  	21,464007  	22,830354  	24,427143  	31,522156  	29,055427  	30,813234  	31,797780  	38,955070  	36,919933  	40,777761  	67,847565  	23,257084  	21,861132  	24,633142  	73,506953  	0,108712  	0,055085  	-4503,644797  	-1,685205  	-0,026851  	-0,049999  	0,403552  	0,204483  	-4,581116  	16784,578763  	16903,328211  	2,451620  	-0,047950  
295,566000  	18,402976  	37,957159  	1256,818530  	357,439972  	79,810140  	74,461030  	0,004742  	0,011770  	0,003961  	0,004119  	0,004433  	0,000000  	-0,000000  	25,146671  	21,454381  	22,834542  	24,426590  	31,520726  	29,060592  	30,810757  	31,789740  	38,955936  	36,917972  	40,776869  	67,845924  	23,255234  	21,862379  	24,632725  	73,503854  	0,102789  	0,052084  	-4259,797800  	-16234,014902  	-0,015675  	-0,049999  	0,369548  	0,187253  	-4,199658  	16731,342733  	16922,717974  	2,454433  	-0,047951  
296,568000  	18,391690  	37,959380  	1256,818530  	956,927186  	79,808891  	74,464960  	0,004751  	0,011677  	0,003963  	0,004107  	0,004508  	-0,000000  	-0,000000  	25,148004  	21,464456  	22,838933  	24,435701  	31,528676  	29,064568  	30,819424  	31,793508  	38,956327  	36,924714  	40,780027  	67,851471  	23,257705  	21,869220  	24,632756  	73,510042  	0,093088  	0,047169  	-3860,449202  	-4420,869593  	-0,012271  	-0,050003  	0,428601  	0,217175  	-4,866046  	16530,440763  	17107,704496  	2,481263  	-0,047954  
297,565000  	18,384483  	37,956388  	1256,818530  	1256,670793  	79,801174  	74,472850  	0,004741  	0,011797  	0,003963  	0,004098  	0,004479  	-0,000001  	-0,000000  	25,148928  	21,464633  	22,832207  	24,433554  	31,531055  	29,056141  	30,819599  	31,795612  	38,956996  	36,920786  	40,781662  	67,845262  	23,252380  	21,871411  	24,637959  	73,508295  	0,086090  	0,043622  	-3570,976921  	-1,993934  	-0,011070  	-0,050011  	0,405774  	0,205609  	-4,593430  	16789,574040  	16883,924327  	2,448806  	-0,047960  
298,568000  	18,382950  	37,950835  	1256,818530  	1256,670793  	79,799237  	74,470293  	0,004742  	0,011845  	0,003963  	0,004086  	0,004488  	0,000001  	-0,000000  	25,147603  	21,458602  	22,832113  	24,432777  	31,520820  	29,053681  	30,812831  	31,795298  	38,956284  	36,914160  	40,776469  	67,841096  	23,237769  	21,873362  	24,635697  	73,505403  	0,076080  	0,038550  	-3155,119490  	-1,993310  	-0,011067  	-0,049993  	0,412914  	0,209227  	-4,674803  	16892,319980  	16918,446012  	2,453813  	-0,047945  
299,565000  	18,388378  	37,944173  	1256,818530  	1256,670793  	79,797738  	74,463088  	0,004752  	0,011779  	0,003962  	0,004091  	0,004519  	-0,000001  	-0,000000  	25,148048  	21,462334  	22,833961  	24,430118  	31,519380  	29,056128  	30,814971  	31,794601  	38,952422  	36,912371  	40,773899  	67,840419  	23,233014  	21,876317  	24,626628  	73,507474  	0,080488  	0,040784  	-3335,854776  	-1,993795  	-0,011070  	-0,050007  	0,437488  	0,221679  	-4,958315  	16750,254183  	17127,750940  	2,484170  	-0,047957  
300,567000  	18,393285  	37,949478  	1256,818530  	1256,670793  	79,799050  	74,468453  	0,004742  	0,011782  	0,003961  	0,004088  	0,004482  	0,000000  	-0,000000  	25,155886  	21,468422  	22,831017  	24,423744  	31,525042  	29,055335  	30,815170  	31,793991  	38,949412  	36,910779  	40,772443  	67,835761  	23,239518  	21,883828  	24,620499  	73,509478  	0,077614  	0,039328  	-3216,833035  	-1,993547  	-0,011068  	-0,050000  	0,408088  	0,206781  	-4,621591  	16758,117447  	16920,825601  	2,454158  	-0,047951  
301,566000  	18,393070  	37,956850  	57,725912  	-242,047242  	79,805454  	74,467361  	0,004741  	0,011765  	0,003962  	0,004084  	0,004502  	0,000000  	-0,000000  	25,160819  	21,468771  	22,839870  	24,430931  	31,527029  	29,059643  	30,814792  	31,796106  	38,952879  	36,915119  	40,775332  	67,838185  	23,234849  	21,894299  	24,623837  	73,507703  	0,074975  	0,037991  	-3108,662451  	-27698,234753  	-0,093555  	-0,049997  	0,423506  	0,214594  	-4,802949  	16720,578940  	16886,939414  	2,449243  	-0,047949  
302,608000  	18,391966  	37,960922  	1256,818530  	-242,047242  	79,806454  	74,462870  	0,004751  	0,011821  	0,003961  	0,004094  	0,004487  	-0,000001  	-0,000000  	25,156494  	21,467504  	22,848072  	24,440027  	31,529095  	29,062209  	30,819555  	31,798648  	38,954002  	36,923032  	40,780453  	67,848371  	23,229944  	21,900250  	24,628887  	73,510685  	0,082666  	0,041887  	-3428,440015  	-35516,825767  	-0,021699  	-0,050011  	0,412093  	0,208810  	-4,678312  	16840,949486  	17111,468059  	2,481809  	-0,047961  
