06/23/2020 14:24:24
Tempo T_f_e T_f_s AR AR T_q_e T_q_s Corrente_P_f Corrente_P_q Corrente_P_RESERVA Corrente_eletromag_f Corrente_eletromag_q AR AR T_1 T_2 T_3 T_4 T_5 T_6 T_7 T_8 T_9 T_10 T_11 T_12 T_13 T_14 T_15 T_16 Velocidade_f_(m/s) Vazao_f_(L/s) q_f_(W) AR AR AR Velocidade_q_(m/s) Vazao_q_(L/s) q_q_(W) DeltaP_q_(Pa) DeltaP_f_(Pa) DeltaP_f_(Psi) AR
0,005000  	21,537261  	33,059072  	25,121031  	57,696365  	80,255441  	70,462421  	0,005612  	0,006274  	0,003957  	0,004131  	0,004259  	-0,000001  	-0,000000  	26,047309  	23,552340  	24,638453  	25,043309  	29,071317  	27,734338  	29,307051  	29,426491  	33,316837  	32,717756  	36,422709  	63,329580  	27,366863  	25,915038  	28,084674  	69,073909  	0,112487  	0,056998  	-2746,065533  	1764,500611  	-0,053846  	-0,050014  	0,231070  	0,117085  	-4,804554  	4879,017173  	35660,098739  	5,172060  	-0,047964  
2,542000  	21,560345  	33,063261  	25,120294  	1256,670793  	80,253379  	70,473137  	0,005617  	0,006237  	0,003956  	0,004213  	0,004210  	0,000002  	-0,000000  	26,054682  	23,553522  	24,639548  	25,041083  	29,076599  	27,726902  	29,310212  	29,426038  	33,312651  	32,721920  	36,424317  	63,329007  	27,369368  	25,916662  	28,079229  	69,066461  	0,179037  	0,090719  	-4363,528082  	25520,668842  	-0,018518  	-0,049977  	0,192309  	0,097444  	-3,993392  	4799,433727  	35774,813261  	5,188698  	-0,047931  
3,543000  	21,546716  	33,080725  	25,120109  	1256,670793  	80,255628  	70,472046  	0,005614  	0,006183  	0,003962  	0,004196  	0,004248  	0,000001  	-0,000000  	26,061594  	23,562528  	24,642057  	25,042391  	29,076102  	27,741229  	29,306361  	29,419596  	33,322500  	32,730858  	36,428163  	63,342183  	27,368202  	25,933903  	28,081542  	69,081597  	0,165358  	0,083788  	-4041,045515  	25526,616547  	-0,018522  	-0,049990  	0,223022  	0,113007  	-4,632753  	4683,056714  	35696,053826  	5,177275  	-0,047943  
4,544000  	21,521545  	33,095940  	25,120232  	1256,670793  	80,256378  	70,457592  	0,005613  	0,006220  	0,003957  	0,004248  	0,004189  	0,000001  	-0,000000  	26,055399  	23,566684  	24,644155  	25,050079  	29,073669  	27,741007  	29,307352  	29,422327  	33,322017  	32,731878  	36,429326  	63,335668  	27,366908  	25,939890  	28,086854  	69,073712  	0,207347  	0,105065  	-5084,938887  	25525,619783  	-0,018522  	-0,049988  	0,175848  	0,089104  	-3,658493  	4763,095756  	35683,887562  	5,175510  	-0,047941  
5,547000  	21,519151  	33,093722  	25,120232  	1256,670793  	80,253066  	70,449213  	0,005618  	0,006277  	0,003961  	0,004140  	0,004249  	-0,000002  	-0,000000  	26,049143  	23,551323  	24,634529  	25,037744  	29,068908  	27,726782  	29,294306  	29,422777  	33,311261  	32,724413  	36,420837  	63,331256  	27,354590  	25,931040  	28,073854  	69,053295  	0,119751  	0,060679  	-2936,791514  	25541,954873  	-0,018533  	-0,050023  	0,223857  	0,113430  	-4,659714  	4886,533788  	35781,104695  	5,189610  	-0,047971  
6,546000  	21,530938  	33,097665  	25,119679  	657,183579  	80,248442  	70,439307  	0,005619  	0,006283  	0,003960  	0,004210  	0,004171  	0,000001  	-0,000000  	26,055799  	23,562835  	24,640101  	25,043573  	29,080082  	27,731035  	29,303845  	29,428545  	33,319937  	32,734779  	36,435921  	63,335207  	27,363617  	25,946126  	28,087181  	69,061574  	0,176485  	0,089426  	-4325,211202  	18445,560851  	-0,027561  	-0,049992  	0,161519  	0,081843  	-3,363923  	4899,316633  	35800,812206  	5,192469  	-0,047945  
7,544000  	21,524676  	33,101361  	25,120324  	657,183579  	80,245380  	70,426971  	0,005618  	0,006307  	0,003963  	0,004228  	0,004292  	0,000001  	-0,000000  	26,054068  	23,565618  	24,643181  	25,043902  	29,085171  	27,728773  	29,312475  	29,430674  	33,320163  	32,734758  	36,433725  	63,335201  	27,369816  	25,955818  	28,088058  	69,059151  	0,191590  	0,097080  	-4699,424760  	18445,411841  	-0,027561  	-0,049992  	0,257720  	0,130588  	-5,372533  	4951,443387  	35780,094958  	5,189464  	-0,047944  
8,546000  	21,517309  	33,098651  	25,119587  	57,696365  	80,247005  	70,414262  	0,005618  	0,006384  	0,003958  	0,004267  	0,004255  	0,000001  	-0,000000  	26,045014  	23,559260  	24,634417  	25,038186  	29,077381  	27,730722  	29,309349  	29,425257  	33,321027  	32,734634  	36,426680  	63,330701  	27,364478  	25,964078  	28,084159  	69,049123  	0,222667  	0,112827  	-5463,916550  	1763,611083  	-0,053816  	-0,049983  	0,227980  	0,115519  	-4,759504  	5116,177173  	35789,069608  	5,190766  	-0,047937  
9,544000  	21,507302  	33,084390  	25,119648  	1256,670793  	80,254847  	70,423825  	0,005616  	0,006337  	0,003963  	0,004211  	0,004260  	0,000002  	-0,000000  	26,051580  	23,561526  	24,641120  	25,040790  	29,078845  	27,730799  	29,311898  	29,426096  	33,318458  	32,732988  	36,425197  	63,335199  	27,367632  	25,993424  	28,084597  	69,045439  	0,177675  	0,090029  	-4358,275941  	25522,363078  	-0,018519  	-0,049980  	0,232365  	0,117741  	-4,850205  	5014,357279  	35735,475910  	5,182993  	-0,047935  
10,545000  	21,512397  	33,076567  	25,119710  	657,183579  	80,258659  	70,444509  	0,005615  	0,006241  	0,003960  	0,004146  	0,004239  	0,000002  	-0,000000  	26,053321  	23,558837  	24,638123  	25,042666  	29,080199  	27,725542  	29,308855  	29,425317  	33,317096  	32,728548  	36,424066  	63,335737  	27,364944  	26,013813  	28,080880  	69,041177  	0,125040  	0,063359  	-3063,741470  	18440,912260  	-0,027554  	-0,049978  	0,215160  	0,109023  	-4,483390  	4809,226904  	35721,586739  	5,180978  	-0,047932  
11,544000  	21,522067  	33,079061  	25,119157  	657,183579  	80,257597  	70,471081  	0,005616  	0,006184  	0,003961  	0,004239  	0,004195  	-0,000001  	-0,000001  	26,047847  	23,562856  	24,637228  	25,042408  	29,079886  	27,732252  	29,309379  	29,431152  	33,316401  	32,724143  	36,424111  	63,340866  	27,366344  	26,029234  	28,084570  	69,037139  	0,200418  	0,101553  	-4907,607959  	18454,142715  	-0,027574  	-0,050018  	0,181022  	0,091725  	-3,761424  	4685,389164  	35749,160308  	5,184977  	-0,047967  
12,543000  	21,523049  	33,090026  	25,119956  	1256,670793  	80,255472  	70,499615  	0,005618  	0,006216  	0,003963  	0,004188  	0,004238  	0,000001  	-0,000001  	26,056043  	23,563052  	24,645365  	25,050984  	29,085784  	27,738962  	29,317403  	29,434181  	33,318558  	32,729562  	36,433331  	63,341764  	27,374685  	26,062527  	28,093715  	69,041097  	0,159118  	0,080626  	-3899,660806  	25524,310643  	-0,018521  	-0,049985  	0,215026  	0,108955  	-4,454004  	4754,090674  	35784,409286  	5,190090  	-0,047938  
13,546000  	21,514577  	33,101176  	25,119956  	956,927186  	80,260471  	70,486002  	0,005617  	0,006216  	0,003963  	0,004191  	0,004259  	-0,000001  	-0,000000  	26,066762  	23,567190  	24,650528  	25,052501  	29,089013  	27,741806  	29,320683  	29,435609  	33,321976  	32,736169  	36,441859  	63,346949  	27,374550  	26,099960  	28,094472  	69,043661  	0,161014  	0,081587  	-3952,841194  	22483,322643  	-0,022163  	-0,050009  	0,231068  	0,117084  	-4,795426  	4753,895419  	35772,906765  	5,188421  	-0,047959  
14,543000  	21,510525  	33,108815  	25,121246  	357,439972  	80,264533  	70,464010  	0,005619  	0,006208  	0,003961  	0,004227  	0,004217  	0,000001  	-0,000001  	26,060561  	23,568513  	24,643551  	25,049734  	29,082506  	27,743786  	29,318360  	29,433183  	33,323514  	32,735290  	36,439918  	63,345042  	27,370603  	26,124433  	28,090970  	69,036706  	0,190181  	0,096366  	-4673,583741  	12486,293091  	-0,036450  	-0,049985  	0,198498  	0,100580  	-4,130450  	4736,879924  	35810,330560  	5,193849  	-0,047938  
15,543000  	21,498001  	33,107521  	25,121615  	357,439972  	80,266095  	70,435351  	0,005623  	0,006291  	0,003958  	0,004170  	0,004258  	-0,000001  	-0,000000  	26,049546  	23,564319  	24,633490  	25,051126  	29,074675  	27,740592  	29,313205  	29,424399  	33,320474  	32,730975  	36,435427  	63,332676  	27,369922  	26,146884  	28,084916  	69,032041  	0,144569  	0,073254  	-3556,129939  	12491,865726  	-0,036467  	-0,050010  	0,230368  	0,116729  	-4,808393  	4915,375660  	35890,452786  	5,205470  	-0,047960  
16,547000  	21,494809  	33,101484  	25,122168  	956,927186  	80,266095  	70,414605  	0,005619  	0,006295  	0,003959  	0,004150  	0,004220  	-0,000000  	-0,000000  	26,058767  	23,571768  	24,641553  	25,055957  	29,077484  	27,743615  	29,314569  	29,423789  	33,319226  	32,734251  	36,439981  	63,336953  	27,372913  	26,175353  	28,083177  	69,039141  	0,127919  	0,064818  	-3145,818071  	22480,092208  	-0,022159  	-0,050001  	0,200370  	0,101529  	-4,191063  	4923,820445  	35805,077106  	5,193087  	-0,047952  
17,543000  	21,512244  	33,086915  	25,122199  	956,927186  	80,258128  	70,394326  	0,005613  	0,006195  	0,003964  	0,004240  	0,004254  	0,000002  	-0,000000  	26,070265  	23,570960  	24,650410  	25,055787  	29,081589  	27,743887  	29,319747  	29,427589  	33,315790  	32,737545  	36,442653  	63,343882  	27,371824  	26,199671  	28,088519  	69,044905  	0,200772  	0,101733  	-4923,803167  	22471,313686  	-0,022151  	-0,049979  	0,227062  	0,115054  	-4,755293  	4709,356732  	35682,517710  	5,175312  	-0,047934  
18,546000  	21,513472  	33,076751  	25,122690  	357,439972  	80,248067  	70,401677  	0,005617  	0,006271  	0,003957  	0,004223  	0,004139  	-0,000000  	-0,000000  	26,060634  	23,558794  	24,640882  	25,039030  	29,078203  	27,726687  	29,312497  	29,425234  	33,308683  	32,728089  	36,432129  	63,337274  	27,365629  	26,216546  	28,084757  	69,040384  	0,187470  	0,094992  	-4593,049139  	12490,293738  	-0,036462  	-0,050003  	0,136417  	0,069123  	-2,851890  	4873,783486  	35768,719537  	5,187814  	-0,047954  
19,544000  	21,489345  	33,066864  	25,122414  	1256,670793  	80,238819  	70,421333  	0,005615  	0,006218  	0,003960  	0,004230  	0,004214  	-0,000001  	-0,000000  	26,061024  	23,563379  	24,645752  	25,039904  	29,086160  	27,729129  	29,311802  	29,426049  	33,321432  	32,730834  	36,431925  	63,338293  	27,377087  	26,229592  	28,085977  	69,040390  	0,193365  	0,097980  	-4743,330167  	25538,587968  	-0,018531  	-0,050016  	0,195666  	0,099145  	-4,078539  	4758,075010  	35723,768617  	5,181295  	-0,047965  
20,546000  	21,469823  	33,063661  	25,122721  	1256,670793  	80,228133  	70,420461  	0,005616  	0,006208  	0,003964  	0,004170  	0,004299  	0,000001  	-0,000000  	26,055951  	23,564114  	24,643103  	25,047440  	29,086003  	27,738365  	29,310438  	29,427766  	33,314904  	32,732656  	36,438004  	63,337647  	27,375485  	26,240595  	28,087799  	69,042485  	0,144672  	0,073306  	-3553,866228  	25527,087205  	-0,018523  	-0,049991  	0,263368  	0,133451  	-5,484277  	4738,062067  	35742,063910  	5,183948  	-0,047944  
21,544000  	21,465771  	33,071638  	25,123213  	-242,047242  	80,220822  	70,405758  	0,005617  	0,006277  	0,003961  	0,004227  	0,004228  	0,000001  	-0,000000  	26,060407  	23,571611  	24,641539  	25,050407  	29,088820  	27,746955  	29,315469  	29,436821  	33,315687  	32,734969  	36,441897  	63,339777  	27,387273  	26,267094  	28,089938  	69,040260  	0,190398  	0,096476  	-4681,990473  	-27070,746129  	-0,102795  	-0,049986  	0,206924  	0,104850  	-4,312144  	4886,221097  	35773,175087  	5,188460  	-0,047939  
22,544000  	21,460614  	33,072254  	25,122906  	-242,047242  	80,224759  	70,405571  	0,005614  	0,006316  	0,003959  	0,004180  	0,004173  	-0,000001  	-0,000000  	26,052516  	23,555979  	24,645008  	25,037158  	29,089114  	27,735911  	29,307859  	29,421900  	33,319861  	32,729217  	36,431331  	63,334777  	27,386302  	26,284958  	28,077081  	69,043935  	0,152818  	0,077434  	-3759,758167  	-27082,331663  	-0,102839  	-0,050010  	0,163549  	0,082871  	-3,409664  	4969,840524  	35696,251536  	5,177304  	-0,047960  
23,545000  	21,478111  	33,065324  	25,122168  	657,183579  	80,233007  	70,397036  	0,005615  	0,006205  	0,003959  	0,004140  	0,004189  	-0,000001  	-0,000000  	26,062473  	23,561773  	24,653105  	25,044172  	29,079365  	27,735029  	29,310397  	29,424475  	33,320806  	32,729228  	36,435858  	63,328249  	27,390757  	26,305120  	28,084817  	69,035079  	0,119818  	0,060712  	-2941,638812  	18454,248387  	-0,027574  	-0,050019  	0,175623  	0,088989  	-3,667641  	4730,136547  	35724,135794  	5,181348  	-0,047967  
24,545000  	21,508069  	33,057008  	25,121738  	57,696365  	80,241318  	70,390058  	0,005614  	0,006274  	0,003962  	0,004132  	0,004238  	-0,000000  	-0,000000  	26,061355  	23,564348  	24,644382  	25,045878  	29,088784  	27,741827  	29,308768  	29,431172  	33,323121  	32,726910  	36,438413  	63,333467  	27,395653  	26,347304  	28,081726  	69,039484  	0,113667  	0,057596  	-2781,402010  	1764,091509  	-0,053834  	-0,050003  	0,214485  	0,108681  	-4,486176  	4878,742684  	35695,877298  	5,177249  	-0,047954  
25,542000  	21,535849  	33,048754  	25,121953  	57,696365  	80,243818  	70,402549  	0,005614  	0,006371  	0,003964  	0,004231  	0,004229  	0,000000  	-0,000000  	26,055522  	23,561245  	24,648486  	25,048587  	29,078634  	27,744985  	29,301768  	29,424507  	33,321525  	32,734729  	36,441412  	63,340735  	27,402700  	26,373395  	28,078363  	69,028743  	0,193989  	0,098296  	-4732,064488  	1763,844184  	-0,053827  	-0,049995  	0,207385  	0,105084  	-4,333288  	5087,857396  	35710,006546  	5,179299  	-0,047947  
26,549000  	21,530631  	33,044627  	25,121400  	657,183579  	80,246130  	70,422423  	0,005618  	0,006236  	0,003957  	0,004198  	0,004243  	0,000000  	-0,000000  	26,069001  	23,574312  	24,647612  	25,049928  	29,096293  	27,745413  	29,317191  	29,439514  	33,326151  	32,742874  	36,439185  	63,348232  	27,415699  	26,400781  	28,090470  	69,044181  	0,166963  	0,084601  	-4073,186253  	18447,218285  	-0,027564  	-0,049997  	0,218907  	0,110922  	-4,565889  	4798,372558  	35796,137762  	5,191791  	-0,047949  
27,545000  	21,520133  	33,043980  	25,122137  	657,183579  	80,250161  	70,410960  	0,005617  	0,006189  	0,003963  	0,004212  	0,004273  	0,000000  	-0,000001  	26,068208  	23,571439  	24,663507  	25,053362  	29,099255  	27,751293  	29,323292  	29,429612  	33,324295  	32,737353  	36,442124  	63,332737  	27,403014  	26,413653  	28,095043  	69,050198  	0,178489  	0,090442  	-4358,098464  	18446,315579  	-0,027562  	-0,049995  	0,242829  	0,123043  	-5,072812  	4695,797819  	35775,582920  	5,188810  	-0,047947  
28,545000  	21,505583  	33,046197  	25,122322  	1256,670793  	80,260534  	70,416318  	0,005615  	0,006197  	0,003963  	0,004214  	0,004257  	0,000001  	-0,000001  	26,057026  	23,558679  	24,634047  	25,040077  	29,081608  	27,738582  	29,305307  	29,428289  	33,319242  	32,727462  	36,436123  	63,329639  	27,395415  	26,424844  	28,081929  	69,034855  	0,179759  	0,091085  	-4395,510150  	25524,847231  	-0,018521  	-0,049986  	0,229687  	0,116384  	-4,800734  	4713,136617  	35717,568977  	5,180395  	-0,047939  
29,545000  	21,464697  	33,055499  	25,120970  	57,696365  	80,272094  	70,430959  	0,005614  	0,006210  	0,003960  	0,004214  	0,004158  	-0,000000  	-0,000000  	26,069420  	23,572949  	24,650215  	25,052880  	29,088260  	27,751315  	29,312518  	29,437731  	33,326389  	32,732726  	36,440935  	63,345620  	27,422434  	26,457756  	28,090927  	69,055658  	0,179862  	0,091137  	-4417,150927  	1764,125216  	-0,053834  	-0,050002  	0,151108  	0,076567  	-3,157348  	4740,835963  	35710,952733  	5,179436  	-0,047953  
30,543000  	21,439035  	33,066402  	25,121646  	657,183579  	80,276594  	70,425663  	0,005615  	0,006205  	0,003958  	0,004140  	0,004246  	0,000001  	-0,000001  	26,059464  	23,567404  	24,646662  	25,056488  	29,074759  	27,744246  	29,309649  	29,432100  	33,311734  	32,725372  	36,437180  	63,329879  	27,408632  	26,456141  	28,086720  	69,052816  	0,119982  	0,060796  	-2955,892617  	18444,772076  	-0,027560  	-0,049990  	0,221469  	0,112220  	-4,632118  	4731,319397  	35730,413106  	5,182258  	-0,047943  
31,543000  	21,445758  	33,071207  	25,121185  	-242,047242  	80,274594  	70,415103  	0,005613  	0,006239  	0,003964  	0,004212  	0,004196  	0,000001  	-0,000000  	26,067221  	23,561405  	24,643840  	25,053722  	29,080937  	27,741362  	29,309912  	29,428518  	33,317722  	32,723532  	36,439770  	63,334226  	27,407681  	26,457180  	28,085163  	69,045874  	0,178331  	0,090362  	-4392,659809  	-27072,748408  	-0,102803  	-0,049990  	0,181260  	0,091846  	-3,794433  	4803,269500  	35679,347279  	5,174852  	-0,047943  
32,547000  	21,468165  	33,069298  	25,121062  	956,927186  	80,270782  	70,395354  	0,005613  	0,006306  	0,003959  	0,004245  	0,004207  	0,000001  	-0,000000  	26,054814  	23,561386  	24,630533  	25,047985  	29,075884  	27,723011  	29,304196  	29,416080  	33,307563  	32,723772  	36,430554  	63,324419  	27,399860  	26,453848  	28,080254  	69,036833  	0,205356  	0,104056  	-5047,759481  	22474,256008  	-0,022154  	-0,049987  	0,189893  	0,096220  	-3,981549  	4947,671284  	35673,867871  	5,174057  	-0,047940  
33,544000  	21,470007  	33,057655  	25,119956  	1256,670793  	80,266720  	70,367661  	0,005616  	0,006308  	0,003960  	0,004205  	0,004205  	-0,000001  	-0,000000  	26,069015  	23,566769  	24,646899  	25,048403  	29,079251  	27,736049  	29,305580  	29,421954  	33,319549  	32,731826  	36,440413  	63,337324  	27,412537  	26,460289  	28,092002  	69,048314  	0,172507  	0,087411  	-4235,386560  	25535,180763  	-0,018529  	-0,050009  	0,188702  	0,095617  	-3,966035  	4952,373678  	35735,666559  	5,183020  	-0,047959  
34,544000  	21,446617  	33,041023  	25,118419  	1256,670793  	80,266033  	70,373766  	0,005613  	0,006334  	0,003959  	0,004211  	0,004275  	0,000000  	-0,000000  	26,065097  	23,569328  	24,652486  	25,053323  	29,080402  	27,735230  	29,308567  	29,423987  	33,321190  	32,736381  	36,439528  	63,337584  	27,412528  	26,457792  	28,090448  	69,039332  	0,177266  	0,089822  	-4354,757542  	25531,020109  	-0,018526  	-0,049999  	0,244199  	0,123738  	-5,128932  	5008,036956  	35685,539858  	5,175750  	-0,047951  
35,544000  	21,422123  	33,022913  	25,118419  	357,439972  	80,267002  	70,388656  	0,005614  	0,006323  	0,003961  	0,004176  	0,004239  	-0,000001  	-0,000000  	26,057312  	23,563715  	24,642002  	25,045722  	29,078776  	27,734000  	29,305308  	29,425825  	33,317145  	32,731051  	36,442300  	63,339850  	27,403651  	26,464036  	28,084787  	69,039034  	0,149328  	0,075665  	-3670,453815  	12491,355877  	-0,036465  	-0,050007  	0,215345  	0,109117  	-4,516553  	4985,112163  	35711,369337  	5,179496  	-0,047957  
36,547000  	21,427095  	33,018847  	25,117866  	956,927186  	80,265252  	70,411396  	0,005613  	0,006327  	0,003959  	0,004191  	0,004254  	-0,000001  	-0,000000  	26,056751  	23,565517  	24,637407  	25,036701  	29,075230  	27,735353  	29,305630  	29,418384  	33,315297  	32,725758  	36,437525  	63,338818  	27,414080  	26,473811  	28,086157  	69,041513  	0,161367  	0,081766  	-3963,290423  	22484,869476  	-0,022164  	-0,050013  	0,227495  	0,115273  	-4,759564  	4993,491155  	35682,778970  	5,175350  	-0,047962  
37,544000  	21,425499  	33,032892  	25,116330  	57,696365  	80,263627  	70,446627  	0,005618  	0,006203  	0,003959  	0,004169  	0,004222  	0,000001  	-0,000000  	26,062224  	23,565764  	24,638274  	25,038287  	29,073253  	27,730686  	29,305932  	29,418365  	33,311213  	32,724173  	36,439737  	63,336578  	27,426611  	26,492185  	28,087944  	69,045617  	0,143399  	0,072661  	-3526,734828  	1764,090690  	-0,053826  	-0,049993  	0,201840  	0,102274  	-4,207059  	4727,221869  	35783,357183  	5,189937  	-0,047945  
38,548000  	21,424333  	33,042994  	25,115408  	1256,670793  	80,263627  	70,466377  	0,005612  	0,006203  	0,003960  	0,004149  	0,004227  	0,000001  	-0,000000  	26,061154  	23,561791  	24,636612  	25,038286  	29,074466  	27,728109  	29,311904  	29,421948  	33,309620  	32,726371  	36,436527  	63,334681  	27,431732  	26,517027  	28,088904  	69,039997  	0,127417  	0,064563  	-3136,722078  	25524,132657  	-0,018520  	-0,049984  	0,206274  	0,104520  	-4,290826  	4726,532817  	35659,660951  	5,171997  	-0,047938  
39,544000  	21,407849  	33,045859  	25,115777  	1256,670793  	80,266970  	70,482607  	0,005616  	0,006213  	0,003964  	0,004249  	0,004195  	0,000000  	-0,000000  	26,060369  	23,559545  	24,639686  	25,040492  	29,078207  	27,732948  	29,314714  	29,423685  	33,311039  	32,727351  	36,434898  	63,335188  	27,433671  	26,539881  	28,087281  	69,041703  	0,208610  	0,105704  	-5144,054859  	25529,643674  	-0,018524  	-0,049996  	0,180773  	0,091599  	-3,755439  	4748,024323  	35748,680154  	5,184908  	-0,047948  
40,547000  	21,392748  	33,054914  	25,114486  	1256,670793  	80,272344  	70,483105  	0,005617  	0,006280  	0,003957  	0,004139  	0,004286  	-0,000001  	-0,000000  	26,061738  	23,557370  	24,644035  	25,040853  	29,079008  	27,734646  	29,311448  	29,417981  	33,315243  	32,726281  	36,438585  	63,336012  	27,432529  	26,545371  	28,084815  	69,046825  	0,119125  	0,060362  	-2943,584358  	25537,807291  	-0,018530  	-0,050014  	0,252400  	0,127893  	-5,246040  	4892,322820  	35765,633839  	5,187367  	-0,047963  
41,547000  	21,426236  	33,059965  	25,114978  	57,696365  	80,275531  	70,447593  	0,005617  	0,006321  	0,003959  	0,004111  	0,004305  	0,000000  	-0,000000  	26,057354  	23,557908  	24,639451  	25,036474  	29,073277  	27,730875  	29,306654  	29,413473  	33,313516  	32,721998  	36,437375  	63,336886  	27,433702  	26,532919  	28,084874  	69,043175  	0,096283  	0,048787  	-2373,340874  	1764,202394  	-0,053827  	-0,049994  	0,267486  	0,135537  	-5,581548  	4980,174189  	35768,225260  	5,187742  	-0,047946  
42,546000  	21,467367  	33,051156  	25,115900  	1256,670793  	80,277406  	70,421738  	0,005617  	0,006174  	0,003964  	0,004217  	0,004195  	0,000002  	-0,000000  	26,054564  	23,560396  	24,633959  	25,033881  	29,068818  	27,728237  	29,304314  	29,419490  	33,306109  	32,719112  	36,430857  	63,333549  	27,439795  	26,516851  	28,083273  	69,044249  	0,182262  	0,092354  	-4473,405208  	25521,256156  	-0,018518  	-0,049978  	0,180486  	0,091453  	-3,776751  	4664,199737  	35771,685196  	5,188244  	-0,047932  
43,544000  	21,501163  	33,036187  	25,115162  	1256,670793  	80,278937  	70,418093  	0,005617  	0,006315  	0,003962  	0,004161  	0,004227  	0,000000  	-0,000000  	26,058417  	23,562097  	24,636558  	25,036617  	29,071296  	27,728219  	29,307080  	29,422436  	33,311076  	32,722927  	36,424982  	63,334288  	27,447899  	26,502491  	28,078345  	69,051434  	0,136821  	0,069328  	-3343,966604  	25530,319837  	-0,018525  	-0,049998  	0,206341  	0,104554  	-4,320050  	4968,815434  	35757,096977  	5,186128  	-0,047949  
44,546000  	21,526886  	33,021219  	25,115592  	1256,670793  	80,278187  	70,445880  	0,005617  	0,006336  	0,003956  	0,004129  	0,004268  	0,000000  	-0,000000  	26,061079  	23,561735  	24,638227  	25,041607  	29,072664  	27,729258  	29,302383  	29,419541  	33,316614  	32,723705  	36,428020  	63,346670  	27,453024  	26,488015  	28,074563  	69,053984  	0,110991  	0,056240  	-2703,090553  	25529,116796  	-0,018524  	-0,049995  	0,238329  	0,120763  	-4,975347  	5013,120664  	35773,683486  	5,188534  	-0,047947  
45,544000  	21,529863  	33,005819  	25,115469  	1256,670793  	80,280531  	70,433077  	0,005616  	0,006232  	0,003963  	0,004250  	0,004227  	0,000002  	-0,000000  	26,056037  	23,552763  	24,634290  	25,030807  	29,069203  	27,728014  	29,298651  	29,415317  	33,309843  	32,722170  	36,427746  	63,337855  	27,447556  	26,461554  	28,077313  	69,046185  	0,208930  	0,105866  	-5080,164223  	25522,560154  	-0,018519  	-0,049981  	0,205692  	0,104225  	-4,300621  	4788,975550  	35742,515820  	5,184014  	-0,047935  
46,546000  	21,528636  	33,010315  	25,116330  	1256,670793  	80,282780  	70,429837  	0,005617  	0,006198  	0,003957  	0,004166  	0,004227  	-0,000000  	-0,000000  	26,042813  	23,556416  	24,635265  	25,031948  	29,067416  	27,731211  	29,307467  	29,417942  	33,314709  	32,721214  	36,429030  	63,333898  	27,450342  	26,426142  	28,086611  	69,047552  	0,140892  	0,071391  	-3427,531349  	25532,534933  	-0,018527  	-0,050002  	0,205797  	0,104279  	-4,305212  	4715,493827  	35763,197762  	5,187013  	-0,047954  
47,545000  	21,543738  	33,015859  	25,116422  	357,439972  	80,285217  	70,461331  	0,005616  	0,006196  	0,003959  	0,004137  	0,004247  	-0,000000  	-0,000000  	26,042190  	23,550073  	24,634544  	25,029253  	29,069171  	27,731574  	29,306221  	29,415754  	33,316164  	32,728394  	36,433233  	63,333911  	27,459128  	26,398826  	28,085483  	69,049087  	0,117235  	0,059404  	-2849,629453  	12490,981877  	-0,036464  	-0,050005  	0,221615  	0,112294  	-4,622481  	4711,571746  	35739,048823  	5,183511  	-0,047955  
48,544000  	21,553806  	33,026639  	25,116975  	-242,047242  	80,288029  	70,459025  	0,005614  	0,006341  	0,003963  	0,004183  	0,004229  	-0,000000  	-0,000000  	26,058193  	23,557428  	24,643478  	25,036782  	29,076156  	27,730250  	29,309935  	29,410683  	33,319094  	32,727185  	36,432297  	63,339017  	27,462823  	26,384391  	28,097897  	69,061779  	0,155093  	0,078587  	-3770,076576  	-27079,041955  	-0,102829  	-0,050003  	0,207894  	0,105342  	-4,338549  	5025,041838  	35712,590906  	5,179673  	-0,047954  
49,545000  	21,534529  	33,041393  	25,117682  	956,927186  	80,293310  	70,433233  	0,005615  	0,006340  	0,003963  	0,004219  	0,004225  	0,000002  	-0,000000  	26,040364  	23,554663  	24,634449  	25,038633  	29,065207  	27,722001  	29,306302  	29,414511  	33,316592  	32,712564  	36,417947  	63,332291  	27,453765  	26,369795  	28,090914  	69,061215  	0,183839  	0,093153  	-4482,119271  	22471,005497  	-0,022150  	-0,049978  	0,204342  	0,103542  	-4,277889  	5021,020007  	35729,156231  	5,182076  	-0,047933  
50,546000  	21,507517  	33,056546  	25,117067  	357,439972  	80,293372  	70,421084  	0,005611  	0,006217  	0,003958  	0,004197  	0,004203  	-0,000001  	-0,000000  	26,045924  	23,556466  	24,636443  	25,032120  	29,076328  	27,726467  	29,305946  	29,418168  	33,311850  	32,721998  	36,427480  	63,343323  	27,459770  	26,349803  	28,081240  	69,059964  	0,166477  	0,084355  	-4073,696174  	12492,670980  	-0,036469  	-0,050012  	0,186899  	0,094703  	-3,917543  	4757,656202  	35639,896951  	5,169130  	-0,047962  
51,546000  	21,489376  	33,060427  	25,117713  	357,439972  	80,287717  	70,440615  	0,005611  	0,006268  	0,003964  	0,004150  	0,004257  	0,000000  	-0,000000  	26,048286  	23,550261  	24,633088  	25,026617  	29,066361  	27,725494  	29,300664  	29,410593  	33,302700  	32,713979  	36,420685  	63,337411  	27,459812  	26,321556  	28,085744  	69,060838  	0,128175  	0,064947  	-3142,430032  	12489,401863  	-0,036459  	-0,049998  	0,229457  	0,116267  	-4,797341  	4867,023839  	35646,767394  	5,170127  	-0,047949  
52,544000  	21,466477  	33,067326  	25,117405  	-242,047242  	80,284592  	70,466221  	0,005614  	0,006248  	0,003963  	0,004107  	0,004256  	-0,000001  	-0,000001  	26,053816  	23,548930  	24,642822  	25,035683  	29,074290  	27,727260  	29,300444  	29,414991  	33,304007  	32,722320  	36,425274  	63,335462  	27,452068  	26,321544  	28,098758  	69,073291  	0,092959  	0,047103  	-2284,931503  	-27084,255915  	-0,102849  	-0,050014  	0,229291  	0,116183  	-4,779902  	4823,119024  	35700,897736  	5,177977  	-0,047963  
53,546000  	21,429766  	33,077429  	25,117559  	57,696365  	80,283936  	70,469274  	0,005617  	0,006183  	0,003961  	0,004180  	0,004219  	0,000001  	-0,000000  	26,060651  	23,561324  	24,642695  	25,043398  	29,082435  	27,738686  	29,312771  	29,417851  	33,316697  	32,730667  	36,435174  	63,345636  	27,442721  	26,306428  	28,091717  	69,078750  	0,152522  	0,077284  	-3764,113594  	1763,839595  	-0,053820  	-0,049987  	0,199373  	0,101024  	-4,154648  	4682,314603  	35757,944309  	5,186251  	-0,047940  
54,546000  	21,429213  	33,087408  	25,118235  	1256,670793  	80,283311  	70,461985  	0,005615  	0,006210  	0,003960  	0,004234  	0,004217  	-0,000000  	-0,000000  	26,043508  	23,552567  	24,628196  	25,022925  	29,054099  	27,723116  	29,292813  	29,406724  	33,293307  	32,721553  	36,415785  	63,334767  	27,445261  	26,294816  	28,095801  	69,056721  	0,196386  	0,099510  	-4851,015389  	25533,914693  	-0,018528  	-0,050006  	0,198465  	0,100564  	-4,138545  	4742,417105  	35715,295305  	5,180066  	-0,047956  
55,546000  	21,446341  	33,096002  	25,118327  	1256,670793  	80,278875  	70,456440  	0,005614  	0,006218  	0,003964  	0,004121  	0,004259  	0,000001  	-0,000000  	26,047584  	23,553178  	24,633488  	25,030089  	29,063019  	27,721958  	29,289783  	29,413610  	33,298392  	32,713754  	36,417718  	63,340307  	27,438180  	26,281204  	28,083287  	69,060345  	0,104541  	0,052972  	-2580,417691  	25527,166009  	-0,018523  	-0,049991  	0,231035  	0,117067  	-4,818255  	4759,044919  	35708,897954  	5,179138  	-0,047944  
56,543000  	21,464819  	33,093353  	25,118327  	57,696365  	80,277500  	70,433326  	0,005616  	0,006287  	0,003959  	0,004201  	0,004216  	0,000002  	-0,000000  	26,047323  	23,553804  	24,639133  	25,037337  	29,064357  	27,727312  	29,294779  	29,414709  	33,304412  	32,716187  	36,420153  	63,332924  	27,430454  	26,279643  	28,083183  	69,056591  	0,169208  	0,085739  	-4169,051389  	1763,405276  	-0,053808  	-0,049975  	0,197023  	0,099833  	-4,117996  	4908,506358  	35753,418148  	5,185595  	-0,047930  
57,543000  	21,493243  	33,073240  	25,118542  	-242,047242  	80,285842  	70,423015  	0,005614  	0,006350  	0,003965  	0,004170  	0,004183  	0,000001  	-0,000001  	26,044595  	23,553370  	24,647886  	25,038725  	29,061631  	27,728895  	29,308490  	29,411984  	33,309496  	32,720944  	36,419142  	63,336208  	27,436863  	26,284650  	28,083931  	69,064518  	0,144323  	0,073130  	-3541,071236  	-27069,187873  	-0,102791  	-0,049983  	0,171106  	0,086700  	-3,583071  	5042,730114  	35695,545427  	5,177201  	-0,047937  
58,545000  	21,496313  	33,058517  	25,118481  	357,439972  	80,293841  	70,413172  	0,005614  	0,006354  	0,003958  	0,004195  	0,004263  	-0,000002  	-0,000000  	26,050474  	23,554496  	24,647193  	25,039914  	29,070095  	27,729722  	29,310345  	29,418608  	33,313972  	32,719743  	36,431447  	63,338792  	27,431046  	26,284835  	28,091365  	69,072184  	0,164731  	0,083470  	-4035,579045  	12496,643013  	-0,036480  	-0,050030  	0,234660  	0,118904  	-4,922835  	5051,142356  	35702,811292  	5,178255  	-0,047977  
59,543000  	21,504417  	33,041423  	25,118757  	1256,670793  	80,296091  	70,409870  	0,005617  	0,006353  	0,003958  	0,004219  	0,004263  	0,000000  	-0,000000  	26,053704  	23,559423  	24,642381  	25,046101  	29,080330  	27,730296  	29,315135  	29,427856  	33,314664  	32,725455  	36,440067  	63,340696  	27,427073  	26,288073  	28,092426  	69,076010  	0,183983  	0,093226  	-4497,384190  	25529,074069  	-0,018524  	-0,049995  	0,234606  	0,118876  	-4,924454  	5049,597294  	35772,468978  	5,188358  	-0,047947  
60,545000  	21,521483  	33,024791  	25,118511  	1256,670793  	80,297528  	70,445942  	0,005617  	0,006345  	0,003964  	0,004208  	0,004330  	0,000001  	-0,000000  	26,056431  	23,552956  	24,636957  	25,039074  	29,075811  	27,729154  	29,297896  	29,423008  	33,314008  	32,726667  	36,432406  	63,342101  	27,425367  	26,293276  	28,094143  	69,073491  	0,175251  	0,088801  	-4271,421270  	25527,423656  	-0,018523  	-0,049991  	0,287910  	0,145886  	-6,022183  	5032,566236  	35764,504064  	5,187203  	-0,047944  
61,544000  	21,541681  	33,032553  	25,119003  	956,927186  	80,297528  	70,488681  	0,005615  	0,006349  	0,003958  	0,004229  	0,004211  	0,000000  	-0,000000  	26,049500  	23,549131  	24,637314  	25,031441  	29,066727  	27,728546  	29,296095  	29,422141  	33,305125  	32,716625  	36,424364  	63,340137  	27,425551  	26,306269  	28,091420  	69,063811  	0,191883  	0,097228  	-4671,718441  	22478,081639  	-0,022157  	-0,049996  	0,193017  	0,097803  	-4,019838  	5040,510856  	35729,841157  	5,182175  	-0,047948  
62,546000  	21,532227  	33,055345  	25,118942  	357,439972  	80,297340  	70,524007  	0,005614  	0,006301  	0,003962  	0,004212  	0,004221  	0,000002  	-0,000001  	26,044127  	23,551802  	24,633445  	25,032813  	29,061330  	27,730765  	29,300663  	29,412997  	33,302752  	32,708755  	36,421715  	63,341049  	27,419049  	26,311335  	28,082126  	69,063433  	0,178439  	0,090417  	-4356,612378  	12483,704543  	-0,036443  	-0,049972  	0,201519  	0,102111  	-4,181715  	4938,480851  	35700,544681  	5,177926  	-0,047928  
63,575000  	21,507455  	33,070776  	25,118112  	357,439972  	80,300434  	70,541919  	0,005618  	0,006211  	0,003961  	0,004137  	0,004168  	0,000001  	-0,000000  	26,048344  	23,555779  	24,632907  	25,039333  	29,064875  	27,735141  	29,302248  	29,416100  	33,303921  	32,718800  	36,427448  	63,344906  	27,423285  	26,323232  	28,086276  	69,068440  	0,117824  	0,059702  	-2886,734637  	12487,962405  	-0,036455  	-0,049991  	0,159665  	0,080903  	-3,308186  	4743,617641  	35794,753788  	5,191590  	-0,047944  
64,543000  	21,518567  	33,087716  	25,119587  	-242,047242  	80,300309  	70,546342  	0,005614  	0,006267  	0,003963  	0,004257  	0,004284  	0,000000  	-0,000000  	26,044741  	23,556953  	24,634471  	25,030675  	29,061580  	27,728231  	29,297719  	29,414092  	33,303422  	32,723266  	36,430247  	63,341486  	27,424432  	26,342018  	28,087183  	69,062195  	0,214979  	0,108931  	-5269,699341  	-27075,840271  	-0,102816  	-0,049997  	0,250974  	0,127170  	-5,197652  	4863,522688  	35704,520077  	5,178503  	-0,047948  
65,544000  	21,552578  	33,105735  	25,118819  	1256,670793  	80,296559  	70,547184  	0,005614  	0,006326  	0,003956  	0,004117  	0,004214  	-0,000000  	-0,000001  	26,046601  	23,558217  	24,633720  	25,027903  	29,062624  	27,725459  	29,296632  	29,406600  	33,304334  	32,720770  	36,430337  	63,338652  	27,432725  	26,357046  	28,086097  	69,064101  	0,101724  	0,051544  	-2490,058911  	25531,564319  	-0,018526  	-0,050001  	0,196001  	0,099315  	-4,057255  	4992,751167  	35696,668141  	5,177364  	-0,047952  
66,548000  	21,560989  	33,119164  	25,118389  	1256,670793  	80,292185  	70,532978  	0,005614  	0,006287  	0,003964  	0,004199  	0,004257  	0,000001  	-0,000000  	26,053237  	23,557552  	24,638402  	25,036015  	29,068610  	27,728440  	29,304131  	29,411371  	33,307550  	32,723988  	36,432563  	63,340731  	27,444470  	26,372783  	28,087788  	69,065962  	0,167519  	0,084883  	-4102,416827  	25524,221190  	-0,018521  	-0,049984  	0,229830  	0,116457  	-4,762324  	4906,989593  	35704,597749  	5,178514  	-0,047938  
67,545000  	21,557029  	33,116761  	25,119034  	1256,670793  	80,291435  	70,524754  	0,005613  	0,006292  	0,003965  	0,004156  	0,004273  	0,000001  	-0,000000  	26,056646  	23,558419  	24,642815  	25,041193  	29,069816  	27,731310  	29,309808  	29,417879  	33,309932  	32,725245  	36,433684  	63,344935  	27,447285  	26,399033  	28,092635  	69,061941  	0,132999  	0,067392  	-3257,503439  	25528,010627  	-0,018523  	-0,049993  	0,242501  	0,122877  	-5,028719  	4919,052258  	35680,632398  	5,175038  	-0,047945  
68,548000  	21,550399  	33,113558  	25,119157  	1256,670793  	80,290935  	70,521888  	0,005615  	0,006323  	0,003961  	0,004274  	0,004252  	0,000000  	-0,000000  	26,057153  	23,559481  	24,634924  	25,039596  	29,069273  	27,733123  	29,304138  	29,417924  	33,307066  	32,721901  	36,431828  	63,345891  	27,443719  	26,420397  	28,095015  	69,061051  	0,228647  	0,115857  	-5601,831178  	25529,025602  	-0,018524  	-0,049995  	0,225742  	0,114385  	-4,682309  	4986,036088  	35733,964836  	5,182773  	-0,047947  
69,543000  	21,523080  	33,106412  	25,119403  	1256,670793  	80,290904  	70,518929  	0,005616  	0,006279  	0,003957  	0,004174  	0,004232  	-0,000001  	-0,000000  	26,049885  	23,552251  	24,628057  	25,031515  	29,065220  	27,726004  	29,294825  	29,421121  	33,304155  	32,722698  	36,428068  	63,340906  	27,439099  	26,426027  	28,084822  	69,058463  	0,147446  	0,074712  	-3618,718326  	25537,653537  	-0,018530  	-0,050014  	0,209980  	0,106398  	-4,356680  	4890,340556  	35745,643884  	5,184467  	-0,047963  
70,546000  	21,508039  	33,106227  	25,119403  	657,183579  	80,284030  	70,521421  	0,005614  	0,006255  	0,003961  	0,004186  	0,004241  	0,000001  	-0,000000  	26,047440  	23,548619  	24,630739  	25,030726  	29,064361  	27,724300  	29,297313  	29,421953  	33,308060  	32,725579  	36,428681  	63,342728  	27,444062  	26,433501  	28,082128  	69,062145  	0,157435  	0,079774  	-3868,840685  	18445,195688  	-0,027561  	-0,049991  	0,217365  	0,110141  	-4,505596  	4837,744058  	35705,007292  	5,178573  	-0,047944  
71,544000  	21,511630  	33,116392  	25,119956  	-242,047242  	80,275250  	70,527402  	0,005615  	0,006203  	0,003958  	0,004109  	0,004218  	0,000001  	-0,000000  	26,051377  	23,553996  	24,635294  	25,030750  	29,070460  	27,730881  	29,302662  	29,415564  	33,308358  	32,726711  	36,436256  	63,346923  	27,445552  	26,437776  	28,089183  	69,059144  	0,094998  	0,048136  	-2335,824906  	-27069,716875  	-0,102792  	-0,049984  	0,198796  	0,100731  	-4,114465  	4725,514094  	35718,649324  	5,180552  	-0,047938  
72,545000  	21,532135  	33,119533  	25,120201  	956,927186  	80,266564  	70,526343  	0,005613  	0,006264  	0,003963  	0,004130  	0,004220  	0,000000  	-0,000000  	26,057346  	23,557596  	24,645544  	25,031752  	29,073333  	27,732313  	29,298578  	29,423122  	33,306936  	32,729849  	36,436367  	63,344343  	27,455440  	26,440376  	28,090123  	69,058824  	0,111977  	0,056740  	-2749,187927  	22477,769281  	-0,022157  	-0,049995  	0,200557  	0,101623  	-4,147651  	4858,755208  	35688,999793  	5,176252  	-0,047947  
73,548000  	21,561173  	33,119780  	25,120447  	1256,670793  	80,260503  	70,492980  	0,005611  	0,006219  	0,003958  	0,004167  	0,004213  	-0,000003  	-0,000001  	26,038318  	23,548085  	24,624493  	25,028570  	29,064998  	27,727753  	29,294550  	29,416636  	33,305737  	32,719931  	36,426148  	63,339146  	27,440063  	26,428439  	28,079769  	69,046077  	0,142183  	0,072045  	-3482,102422  	25546,277996  	-0,018537  	-0,050033  	0,195248  	0,098934  	-4,049174  	4760,900550  	35642,742571  	5,169543  	-0,047980  
74,547000  	21,584932  	33,107090  	25,121369  	1256,670793  	80,256628  	70,496594  	0,005618  	0,006223  	0,003963  	0,004195  	0,004221  	0,000000  	-0,000000  	26,047956  	23,540895  	24,630315  	25,029924  	29,071898  	27,733106  	29,297726  	29,417580  	33,304920  	32,723363  	36,421061  	63,331888  	27,447525  	26,428094  	28,076702  	69,042590  	0,164384  	0,083295  	-4013,104164  	25530,462715  	-0,018525  	-0,049998  	0,201520  	0,102112  	-4,176045  	4769,065894  	35783,724360  	5,189990  	-0,047950  
75,545000  	21,570659  	33,098959  	25,121830  	1256,670793  	80,251317  	70,479055  	0,005619  	0,006205  	0,003961  	0,004225  	0,004258  	-0,000002  	-0,000000  	26,053488  	23,552537  	24,633572  	25,036059  	29,075666  	27,729519  	29,302083  	29,421237  	33,314990  	32,728932  	36,447479  	63,335164  	27,450584  	26,427148  	28,084727  	69,043014  	0,188752  	0,095642  	-4610,460017  	25540,534493  	-0,018532  	-0,050020  	0,230614  	0,116854  	-4,784912  	4729,859229  	35799,159910  	5,192229  	-0,047969  
76,548000  	21,529403  	33,099575  	25,123428  	1256,670793  	80,247442  	70,454509  	0,005614  	0,006210  	0,003961  	0,004216  	0,004196  	0,000001  	-0,000000  	26,052276  	23,554593  	24,636982  	25,040888  	29,076709  	27,734291  	29,312784  	29,423161  	33,306142  	32,733341  	36,438083  	63,336442  	27,456535  	26,427706  	28,093398  	69,050701  	0,181710  	0,092074  	-4454,585106  	25527,782247  	-0,018523  	-0,049993  	0,181827  	0,092133  	-3,780619  	4741,043245  	35705,550996  	5,178652  	-0,047945  
77,546000  	21,501009  	33,086854  	25,123244  	-242,047242  	80,242506  	70,435631  	0,005615  	0,006220  	0,003962  	0,004137  	0,004246  	-0,000000  	-0,000000  	26,061507  	23,561960  	24,645282  	25,051436  	29,094956  	27,749268  	29,312522  	29,428916  	33,326147  	32,735451  	36,447838  	63,346680  	27,463897  	26,434108  	28,104380  	69,057290  	0,117971  	0,059777  	-2895,946065  	-27078,400679  	-0,102824  	-0,050002  	0,221144  	0,112055  	-4,604648  	4762,784479  	35724,771292  	5,181440  	-0,047953  
78,544000  	21,458466  	33,088825  	25,123858  	-242,047242  	80,240131  	70,412268  	0,005616  	0,006191  	0,003958  	0,004140  	0,004257  	0,000001  	-0,000000  	26,060251  	23,566466  	24,638131  	25,042295  	29,083864  	27,744038  	29,312372  	29,432602  	33,308508  	32,743082  	36,448861  	63,348546  	27,451232  	26,433813  	28,097463  	69,050987  	0,120429  	0,061022  	-2967,654518  	-27071,193765  	-0,102796  	-0,049987  	0,229438  	0,116258  	-4,787547  	4699,664012  	35740,312759  	5,183694  	-0,047940  
79,544000  	21,401649  	33,081710  	25,123858  	657,183579  	80,240412  	70,393858  	0,005614  	0,006235  	0,003959  	0,004258  	0,004193  	-0,000001  	-0,000000  	26,068227  	23,562681  	24,632018  	25,041950  	29,067436  	27,727615  	29,308379  	29,416639  	33,318007  	32,733122  	36,439771  	63,341858  	27,442985  	26,414042  	28,083931  	69,050352  	0,216056  	0,109477  	-5346,914244  	18453,565901  	-0,027573  	-0,050017  	0,179118  	0,090760  	-3,744652  	4796,071235  	35706,130006  	5,178736  	-0,047966  
80,548000  	21,361010  	33,073887  	25,123366  	1256,670793  	80,242537  	70,388874  	0,005617  	0,006207  	0,003960  	0,004212  	0,004212  	-0,000001  	-0,000000  	26,054916  	23,555770  	24,630628  	25,046761  	29,080390  	27,733098  	29,306135  	29,425399  	33,320802  	32,732403  	36,441463  	63,340508  	27,452645  	26,412875  	28,086299  	69,037828  	0,178060  	0,090224  	-4418,997181  	25538,912322  	-0,018531  	-0,050017  	0,193940  	0,098271  	-4,057438  	4734,207193  	35772,942071  	5,188427  	-0,047966  
81,544000  	21,357633  	33,066248  	25,124350  	1256,670793  	80,243662  	70,375324  	0,005615  	0,006206  	0,003961  	0,004100  	0,004257  	0,000002  	-0,000000  	26,053467  	23,552672  	24,642101  	25,042361  	29,076347  	27,743016  	29,312335  	29,425409  	33,315933  	32,726120  	36,449265  	63,341859  	27,447929  	26,430591  	28,084245  	69,040978  	0,087611  	0,044393  	-2173,491647  	25518,467768  	-0,018516  	-0,049972  	0,229674  	0,116378  	-4,812191  	4733,218183  	35722,483498  	5,181108  	-0,047928  
82,546000  	21,374576  	33,057624  	25,124534  	1256,670793  	80,240975  	70,366353  	0,005610  	0,006220  	0,003961  	0,004143  	0,004325  	-0,000000  	-0,000000  	26,057556  	23,553150  	24,631733  	25,040337  	29,068871  	27,729596  	29,307940  	29,422144  	33,313083  	32,727995  	36,436249  	63,343922  	27,450488  	26,433926  	28,083620  	69,033778  	0,122650  	0,062148  	-3036,104913  	25531,345451  	-0,018526  	-0,050000  	0,283844  	0,143826  	-5,950950  	4762,358597  	35618,876076  	5,166081  	-0,047952  
83,544000  	21,413712  	33,030921  	25,124350  	357,439972  	80,238850  	70,354235  	0,005613  	0,006309  	0,003960  	0,004175  	0,004229  	0,000000  	-0,000000  	26,061178  	23,550489  	24,632736  	25,042862  	29,086662  	27,744808  	29,310118  	29,427139  	33,328550  	32,739321  	36,434127  	63,344501  	27,461659  	26,467000  	28,090065  	69,042281  	0,148457  	0,075224  	-3654,214137  	12489,473677  	-0,036460  	-0,050000  	0,207372  	0,105077  	-4,352071  	4955,619441  	35674,362147  	5,174129  	-0,047951  
84,546000  	21,450853  	33,009545  	25,124534  	956,927186  	80,240912  	70,348628  	0,005612  	0,006304  	0,003961  	0,004130  	0,004270  	0,000000  	-0,000000  	26,073056  	23,559253  	24,649474  	25,063136  	29,092816  	27,755304  	29,320636  	29,437003  	33,334131  	32,736845  	36,440904  	63,354493  	27,465989  	26,490829  	28,095054  	69,056164  	0,111657  	0,056578  	-2734,553364  	22478,018345  	-0,022158  	-0,049996  	0,240238  	0,121730  	-5,045724  	4943,698974  	35654,739369  	5,171283  	-0,047948  
85,545000  	21,476361  	32,997071  	25,125241  	57,696365  	80,249380  	70,355326  	0,005612  	0,006263  	0,003958  	0,004084  	0,004274  	-0,000002  	-0,000000  	26,075460  	23,574846  	24,652864  	25,052853  	29,089649  	27,752846  	29,317997  	29,439065  	33,332367  	32,736253  	36,438909  	63,354193  	27,464401  	26,504092  	28,089815  	69,060995  	0,074972  	0,037989  	-1830,070002  	1764,525350  	-0,053853  	-0,050023  	0,242875  	0,123066  	-5,102022  	4855,623344  	35659,039575  	5,171906  	-0,047971  
86,546000  	21,492323  	32,988324  	25,125118  	1256,670793  	80,251317  	70,372520  	0,005612  	0,006273  	0,003963  	0,004254  	0,004235  	-0,000000  	-0,000000  	26,074526  	23,577900  	24,648351  	25,044079  	29,088794  	27,743576  	29,316073  	29,430933  	33,328660  	32,743040  	36,439183  	63,356668  	27,456558  	26,508348  	28,098260  	69,060726  	0,212505  	0,107678  	-5176,124112  	25532,693233  	-0,018527  	-0,050003  	0,212003  	0,107424  	-4,446657  	4877,095749  	35663,226803  	5,172514  	-0,047954  
87,544000  	21,508438  	32,983797  	25,125671  	1256,670793  	80,251879  	70,407097  	0,005619  	0,006321  	0,003962  	0,004197  	0,004225  	0,000000  	-0,000000  	26,067380  	23,569823  	24,651002  	25,050466  	29,086986  	27,746186  	29,313360  	29,432718  	33,325889  	32,741650  	36,441183  	63,356794  	27,455225  	26,516789  	28,093588  	69,058310  	0,166340  	0,084286  	-4044,383380  	25529,973690  	-0,018525  	-0,049998  	0,204668  	0,103707  	-4,278035  	4981,740475  	35803,495422  	5,192858  	-0,047949  
88,547000  	21,519181  	32,997164  	25,126900  	57,696365  	80,252629  	70,430896  	0,005615  	0,006324  	0,003957  	0,004179  	0,004240  	0,000000  	-0,000000  	26,065663  	23,570098  	24,642675  	25,047677  	29,081634  	27,744472  	29,311575  	29,431925  	33,328174  	32,740786  	36,448586  	63,350366  	27,454296  	26,533622  	28,089642  	69,063352  	0,151859  	0,076948  	-3693,139850  	1763,642913  	-0,053829  	-0,049998  	0,216558  	0,109732  	-4,515998  	4987,612278  	35726,169389  	5,181643  	-0,047949  
89,545000  	21,506043  	33,018662  	25,126562  	57,696365  	80,256316  	70,424978  	0,005615  	0,006314  	0,003961  	0,004180  	0,004263  	0,000002  	-0,000000  	26,068004  	23,569202  	24,643491  	25,046915  	29,079689  	27,744463  	29,312889  	29,429209  	33,324810  	32,739425  	36,447486  	63,346837  	27,456058  	26,553627  	28,094329  	69,061279  	0,152299  	0,077171  	-3715,013409  	1763,062568  	-0,053811  	-0,049979  	0,234326  	0,118735  	-4,891298  	4966,366963  	35719,531961  	5,180680  	-0,047933  
90,546000  	21,513840  	33,026424  	25,127484  	657,183579  	80,262502  	70,445537  	0,005617  	0,006354  	0,003960  	0,004205  	0,004210  	-0,000002  	-0,000000  	26,060695  	23,566846  	24,643119  	25,049348  	29,077076  	27,740644  	29,313283  	29,423786  	33,316788  	32,738763  	36,445636  	63,348696  	27,452296  	26,573907  	28,097137  	69,059141  	0,172905  	0,087612  	-4217,631034  	18454,272275  	-0,027575  	-0,050019  	0,192959  	0,097774  	-4,021916  	5051,158628  	35758,777518  	5,186372  	-0,047968  
91,543000  	21,527745  	33,040191  	25,128037  	657,183579  	80,273532  	70,448870  	0,005616  	0,006343  	0,003962  	0,004181  	0,004192  	0,000000  	-0,000000  	26,052455  	23,567770  	24,642438  	25,042034  	29,075902  	27,732969  	29,311869  	29,418210  	33,314904  	32,736246  	36,441063  	63,345396  	27,444850  	26,594028  	28,095279  	69,057315  	0,153537  	0,077799  	-3745,157490  	18446,934825  	-0,027564  	-0,049997  	0,178218  	0,090304  	-3,717581  	5029,067914  	35735,518276  	5,182999  	-0,047949  
92,545000  	21,526763  	33,051834  	25,129082  	1256,670793  	80,280531  	70,470364  	0,005617  	0,006337  	0,003959  	0,004219  	0,004215  	-0,000001  	-0,000000  	26,056859  	23,566309  	24,645513  	25,037580  	29,073560  	27,731403  	29,309864  	29,423147  	33,313450  	32,734462  	36,436346  	63,345712  	27,445837  	26,619557  	28,094941  	69,059779  	0,183751  	0,093108  	-4487,066524  	25534,542834  	-0,018528  	-0,050008  	0,196291  	0,099462  	-4,088545  	5016,381283  	35759,405955  	5,186463  	-0,047958  
93,543000  	21,497909  	33,058240  	25,128990  	-242,047242  	80,283999  	70,496936  	0,005614  	0,006234  	0,003955  	0,004238  	0,004199  	-0,000000  	-0,000000  	26,060464  	23,564333  	24,641816  	25,040278  	29,069474  	27,728800  	29,307715  	29,425484  	33,311248  	32,732231  	36,437069  	63,349704  	27,449953  	26,641844  	28,096994  	69,065118  	0,199302  	0,100988  	-4881,702051  	-27078,345404  	-0,102822  	-0,050001  	0,183968  	0,093218  	-3,822864  	4793,654599  	35698,094482  	5,177571  	-0,047953  
94,547000  	21,477527  	33,073640  	25,128621  	357,439972  	80,286623  	70,515627  	0,005619  	0,006241  	0,003968  	0,004165  	0,004234  	0,000001  	-0,000000  	26,057274  	23,564036  	24,637779  	25,037792  	29,070968  	27,727676  	29,303799  	29,418562  	33,313011  	32,728903  	36,437663  	63,349337  	27,456094  	26,656335  	28,099010  	69,067671  	0,140650  	0,071269  	-3455,758705  	12486,683011  	-0,036452  	-0,049988  	0,211956  	0,107400  	-4,397240  	4807,554501  	35803,608399  	5,192874  	-0,047941  
95,544000  	21,489499  	33,093322  	25,129358  	357,439972  	80,290060  	70,525658  	0,005615  	0,006300  	0,003959  	0,004201  	0,004211  	0,000001  	-0,000000  	26,061418  	23,562979  	24,642558  	25,037061  	29,075837  	27,734050  	29,301563  	29,422106  	33,311517  	32,731365  	36,435294  	63,353950  	27,465551  	26,677738  	28,099658  	69,071015  	0,169726  	0,086002  	-4172,922134  	12485,278873  	-0,036448  	-0,049982  	0,193037  	0,097813  	-4,002061  	4935,561928  	35715,782520  	5,180136  	-0,047936  
96,546000  	21,486183  	33,100653  	25,129113  	-242,047242  	80,291498  	70,509957  	0,005614  	0,006356  	0,003957  	0,004115  	0,004266  	0,000002  	-0,000000  	26,061421  	23,564165  	24,645438  	25,040974  	29,077676  	27,736630  	29,307815  	29,429678  	33,308368  	32,732684  	36,434440  	63,355622  	27,468814  	26,704216  	28,096368  	69,069031  	0,099900  	0,050620  	-2458,409307  	-27067,985382  	-0,102782  	-0,049980  	0,236772  	0,119974  	-4,917363  	5055,679209  	35710,634983  	5,179390  	-0,047934  
97,543000  	21,445359  	33,103055  	25,130065  	57,696365  	80,299246  	70,484071  	0,005613  	0,006336  	0,003963  	0,004160  	0,004245  	-0,000001  	-0,000000  	26,050589  	23,565881  	24,639681  	25,038632  	29,076612  	27,739140  	29,311552  	29,428439  	33,308983  	32,730387  	36,442510  	63,348369  	27,475047  	26,728444  	28,095257  	69,071575  	0,136662  	0,069248  	-3375,605495  	1764,023820  	-0,053846  	-0,050015  	0,219929  	0,111439  	-4,583250  	5013,522493  	35687,933568  	5,176097  	-0,047965  
98,544000  	21,450700  	33,092706  	25,130557  	657,183579  	80,306745  	70,486314  	0,005613  	0,006326  	0,003963  	0,004213  	0,004193  	0,000000  	-0,000000  	26,056211  	23,571516  	24,641748  	25,037931  	29,081318  	27,732330  	29,310927  	29,430166  	33,311528  	32,730075  	36,439511  	63,350372  	27,477048  	26,751393  	28,101065  	69,076531  	0,179463  	0,090935  	-4426,838687  	18446,843940  	-0,027564  	-0,049997  	0,178913  	0,090657  	-3,730495  	4992,659906  	35688,957427  	5,176246  	-0,047949  
99,544000  	21,449503  	33,083651  	25,130649  	-242,047242  	80,310651  	70,505627  	0,005611  	0,006305  	0,003960  	0,004144  	0,004267  	0,000001  	-0,000000  	26,055369  	23,567439  	24,642464  	25,041599  	29,078943  	27,737232  	29,321106  	29,427452  	33,318848  	32,733323  	36,441492  	63,355968  	27,482967  	26,780546  	28,098591  	69,073039  	0,123601  	0,062630  	-3046,825930  	-27074,156274  	-0,102805  	-0,049993  	0,237680  	0,120434  	-4,948071  	4947,478858  	35631,868487  	5,167966  	-0,047945  
100,546000  	21,456378  	33,083404  	25,131325  	-242,047242  	80,309651  	70,526437  	0,005611  	0,006353  	0,003963  	0,004177  	0,004210  	0,000001  	-0,000000  	26,052181  	23,559107  	24,640355  	25,042886  	29,081327  	27,732061  	29,307966  	29,411166  	33,309652  	32,725698  	36,442370  	63,347541  	27,480355  	26,798122  	28,096017  	69,075297  	0,149798  	0,075904  	-3690,330133  	-27070,724032  	-0,102792  	-0,049986  	0,192335  	0,097458  	-3,995187  	5050,516974  	35638,315266  	5,168901  	-0,047939  
101,545000  	21,473568  	33,079308  	25,130833  	1256,670793  	80,303027  	70,536499  	0,005611  	0,006345  	0,003961  	0,004202  	0,004254  	0,000000  	-0,000000  	26,060172  	23,553203  	24,638150  	25,035119  	29,079352  	27,739569  	29,310750  	29,420162  	33,309388  	32,726862  	36,431194  	63,346461  	27,492805  	26,807236  	28,107466  	69,067610  	0,170658  	0,086474  	-4196,534455  	25529,494182  	-0,018525  	-0,049997  	0,227388  	0,115219  	-4,715246  	5033,190203  	35626,523240  	5,167190  	-0,047949  
102,546000  	21,473629  	33,078692  	25,131817  	1256,670793  	80,298965  	70,542542  	0,005611  	0,006337  	0,003959  	0,004201  	0,004264  	-0,000000  	-0,000001  	26,062055  	23,558805  	24,630195  	25,039529  	29,069904  	27,730738  	29,311304  	29,430324  	33,320190  	32,729866  	36,441011  	63,351604  	27,499575  	26,813809  	28,104371  	69,074447  	0,169084  	0,085676  	-4157,583195  	25532,603277  	-0,018527  	-0,050004  	0,235228  	0,119192  	-4,872787  	5014,480375  	35632,927651  	5,168119  	-0,047955  
103,546000  	21,436795  	33,086731  	25,131817  	1256,670793  	80,296278  	70,546124  	0,005612  	0,006286  	0,003963  	0,004205  	0,004310  	0,000000  	-0,000001  	26,057667  	23,559682  	24,644635  	25,044249  	29,080718  	27,740290  	29,305689  	29,425139  	33,322731  	32,732995  	36,439874  	63,352576  	27,499368  	26,815876  	28,091413  	69,065810  	0,172717  	0,087517  	-4263,344692  	25528,486379  	-0,018524  	-0,049995  	0,271565  	0,137604  	-5,621898  	4904,362846  	35650,855767  	5,170719  	-0,047947  
104,544000  	21,426174  	33,087778  	25,132677  	57,696365  	80,293466  	70,568865  	0,005617  	0,006283  	0,003958  	0,004171  	0,004238  	-0,000000  	-0,000000  	26,064058  	23,565201  	24,643046  	25,038675  	29,079798  	27,740707  	29,312722  	29,430834  	33,326428  	32,735595  	36,452351  	63,350630  	27,503997  	26,819182  	28,109949  	69,070529  	0,144914  	0,073429  	-3580,636930  	1763,471699  	-0,053834  	-0,050003  	0,214797  	0,108839  	-4,435059  	4899,296824  	35770,873170  	5,188127  	-0,047954  
105,544000  	21,454997  	33,094492  	25,133507  	57,696365  	80,287467  	70,578429  	0,005614  	0,006223  	0,003958  	0,004145  	0,004265  	-0,000000  	-0,000000  	26,058259  	23,561698  	24,632202  	25,049284  	29,075892  	27,739289  	29,306941  	29,435198  	33,323682  	32,732160  	36,443006  	63,348847  	27,517584  	26,804916  	28,093401  	69,064718  	0,124163  	0,062914  	-3062,082764  	1763,428687  	-0,053834  	-0,050003  	0,235913  	0,119539  	-4,863256  	4770,267137  	35697,734366  	5,177519  	-0,047954  
106,547000  	21,471634  	33,100468  	25,134121  	657,183579  	80,282468  	70,574566  	0,005616  	0,006185  	0,003963  	0,004201  	0,004211  	-0,000001  	-0,000000  	26,059966  	23,558975  	24,632053  	25,043379  	29,081920  	27,734809  	29,320772  	29,429317  	33,316065  	32,732233  	36,437676  	63,347915  	27,516849  	26,799317  	28,095315  	69,072599  	0,169089  	0,085679  	-4166,217836  	18451,249059  	-0,027570  	-0,050011  	0,193308  	0,097951  	-3,984516  	4686,702892  	35749,449813  	5,185019  	-0,047961  
107,545000  	21,472831  	33,104441  	25,135135  	657,183579  	80,282062  	70,562168  	0,005614  	0,006217  	0,003962  	0,004179  	0,004272  	-0,000000  	-0,000000  	26,061640  	23,560467  	24,642980  	25,041755  	29,074034  	27,731566  	29,311533  	29,430447  	33,317749  	32,732342  	36,444393  	63,352218  	27,512595  	26,790197  	28,092867  	69,078088  	0,151525  	0,076779  	-3734,340292  	18448,687858  	-0,027567  	-0,050003  	0,241380  	0,122309  	-4,981526  	4756,824953  	35698,821774  	5,177676  	-0,047954  
108,547000  	21,469761  	33,097295  	25,134828  	57,696365  	80,280374  	70,529334  	0,005616  	0,006302  	0,003959  	0,004181  	0,004225  	0,000001  	-0,000000  	26,056630  	23,556462  	24,635707  	25,035646  	29,078279  	27,729196  	29,314441  	29,425209  	33,328495  	32,739302  	36,444584  	63,359292  	27,515255  	26,775229  	28,095875  	69,080101  	0,153136  	0,077595  	-3772,723527  	1762,699465  	-0,053814  	-0,049982  	0,204503  	0,103623  	-4,233961  	4939,696243  	35752,055357  	5,185397  	-0,047936  
109,544000  	21,474734  	33,082819  	25,136825  	1256,670793  	80,277031  	70,470645  	0,005613  	0,006327  	0,003961  	0,004201  	0,004192  	-0,000000  	-0,000000  	26,048045  	23,560994  	24,634100  	25,041513  	29,070172  	27,733793  	29,315586  	29,423030  	33,321765  	32,742077  	36,443377  	63,358699  	27,512381  	26,770198  	28,101531  	69,083324  	0,169774  	0,086026  	-4175,635453  	25532,670919  	-0,018527  	-0,050004  	0,178655  	0,090526  	-3,719769  	4993,421826  	35688,434906  	5,176170  	-0,047955  
110,543000  	21,478663  	33,070191  	25,137809  	1256,670793  	80,267595  	70,439556  	0,005619  	0,006205  	0,003966  	0,004175  	0,004276  	0,000001  	-0,000000  	26,058444  	23,565394  	24,652427  	25,052157  	29,088864  	27,737955  	29,327755  	29,442929  	33,329324  	32,754109  	36,455277  	63,362785  	27,526554  	26,776864  	28,110139  	69,091666  	0,148662  	0,075328  	-3651,162392  	25526,989111  	-0,018523  	-0,049992  	0,244830  	0,124057  	-5,108841  	4730,648738  	35802,916412  	5,192774  	-0,047944  
111,544000  	21,497541  	33,061782  	25,138730  	357,439972  	80,250286  	70,439432  	0,005617  	0,006309  	0,003960  	0,004202  	0,004215  	-0,000000  	-0,000000  	26,046047  	23,554003  	24,633775  	25,029850  	29,082321  	27,724114  	29,313346  	29,425169  	33,319146  	32,734647  	36,437785  	63,347296  	27,514281  	26,755694  	28,092583  	69,090150  	0,170159  	0,086221  	-4169,289667  	12489,688202  	-0,036462  	-0,050004  	0,196407  	0,099521  	-4,091243  	4954,040421  	35768,705415  	5,187812  	-0,047955  
112,543000  	21,508284  	33,055499  	25,138976  	956,927186  	80,238913  	70,461112  	0,005616  	0,006355  	0,003958  	0,004130  	0,004262  	0,000000  	-0,000001  	26,042336  	23,556769  	24,624272  	25,029373  	29,076496  	27,726593  	29,305346  	29,426238  	33,320485  	32,731700  	36,436837  	63,349108  	27,515147  	26,742246  	28,087211  	69,088682  	0,112193  	0,056849  	-2744,930546  	22477,900900  	-0,022158  	-0,049997  	0,233625  	0,118380  	-4,850133  	5053,479051  	35753,538186  	5,185612  	-0,047949  
113,543000  	21,476085  	33,054975  	25,140113  	1256,670793  	80,234851  	70,463480  	0,005615  	0,006260  	0,003961  	0,004158  	0,004215  	0,000000  	-0,000000  	26,053191  	23,556748  	24,628923  	25,038331  	29,080347  	27,732241  	29,309442  	29,429141  	33,325959  	32,743113  	36,443152  	63,353806  	27,523991  	26,724311  	28,096870  	69,102820  	0,134799  	0,068304  	-3307,068283  	25529,015868  	-0,018524  	-0,049996  	0,196642  	0,099640  	-4,079664  	4849,605807  	35728,781993  	5,182022  	-0,047948  
114,543000  	21,446801  	33,051341  	25,139990  	1256,670793  	80,230664  	70,458807  	0,005617  	0,006367  	0,003962  	0,004169  	0,004276  	-0,000000  	-0,000001  	26,051512  	23,547896  	24,624502  	25,031550  	29,076753  	27,729239  	29,303357  	29,428341  	33,323112  	32,738578  	36,439058  	63,351649  	27,528478  	26,700430  	28,093406  	69,103317  	0,143607  	0,072767  	-3530,983747  	25530,896927  	-0,018526  	-0,050001  	0,244943  	0,124115  	-5,082001  	5080,959796  	35776,627961  	5,188961  	-0,047952  
115,545000  	21,441829  	33,050232  	25,140912  	1256,670793  	80,227915  	70,473760  	0,005621  	0,006308  	0,003958  	0,004236  	0,004197  	0,000002  	-0,000000  	26,043793  	23,540686  	24,621177  	25,023826  	29,069830  	27,729539  	29,300790  	29,423350  	33,315173  	32,729234  	36,429218  	63,349380  	27,524575  	26,683922  	28,085393  	69,095786  	0,198033  	0,100345  	-4870,800309  	25521,438681  	-0,018519  	-0,049980  	0,182149  	0,092296  	-3,772335  	4952,233604  	35863,211088  	5,201519  	-0,047934  
116,543000  	21,454659  	33,059164  	25,141281  	1256,670793  	80,226227  	70,493759  	0,005615  	0,006268  	0,003959  	0,004197  	0,004224  	-0,000001  	-0,000000  	26,044241  	23,546271  	24,622657  	25,025822  	29,069999  	27,729084  	29,299067  	29,417988  	33,310819  	32,726856  	36,430770  	63,346726  	27,514966  	26,677935  	28,090048  	69,097326  	0,166279  	0,084255  	-4088,407125  	25536,809766  	-0,018530  	-0,050014  	0,203702  	0,103217  	-4,209332  	4866,956631  	35728,605466  	5,181996  	-0,047963  
117,547000  	21,485508  	33,076197  	25,140543  	-242,047242  	80,221884  	70,501484  	0,005619  	0,006360  	0,003958  	0,004194  	0,004247  	0,000000  	-0,000000  	26,043615  	23,551501  	24,629129  	25,034459  	29,076103  	27,731864  	29,297194  	29,416547  	33,315709  	32,729202  	36,442652  	63,351736  	27,514834  	26,689023  	28,092290  	69,103726  	0,163884  	0,083041  	-4024,710707  	-27075,188387  	-0,102805  	-0,049994  	0,222188  	0,112584  	-4,585646  	5064,115504  	35811,608618  	5,194035  	-0,047947  
118,548000  	21,529956  	33,078168  	25,141650  	-242,047242  	80,219760  	70,486220  	0,005618  	0,006205  	0,003959  	0,004160  	0,004203  	-0,000000  	-0,000000  	26,040611  	23,548268  	24,630452  	25,033346  	29,076097  	27,732951  	29,303791  	29,415107  	33,317680  	32,731285  	36,444891  	63,355443  	27,513890  	26,710407  	28,085716  	69,106246  	0,136233  	0,069030  	-3333,383612  	-27080,674242  	-0,102826  	-0,050006  	0,187062  	0,094786  	-3,865903  	4731,207621  	35786,266354  	5,190359  	-0,047956  
119,544000  	21,557121  	33,074564  	25,143124  	657,183579  	80,219385  	70,473168  	0,005615  	0,006195  	0,003963  	0,004204  	0,004260  	0,000001  	-0,000000  	26,046858  	23,550871  	24,630077  	25,029687  	29,078978  	27,735756  	29,313475  	29,424382  	33,319048  	32,735520  	36,448678  	63,357593  	27,510151  	26,734428  	28,090406  	69,111232  	0,171998  	0,087153  	-4197,276527  	18445,145308  	-0,027562  	-0,049994  	0,232030  	0,117571  	-4,801466  	4708,581371  	35723,493234  	5,181255  	-0,047946  
120,543000  	21,556692  	33,070068  	25,141772  	1256,670793  	80,223322  	70,474352  	0,005613  	0,006217  	0,003958  	0,004177  	0,004188  	-0,000001  	-0,000000  	26,056843  	23,555059  	24,637553  	25,039780  	29,085357  	27,744087  	29,315637  	29,433497  	33,327983  	32,742646  	36,454765  	63,360937  	27,510067  	26,762070  	28,100515  	69,115609  	0,150425  	0,076222  	-3669,539343  	25534,507316  	-0,018528  	-0,050009  	0,175463  	0,088908  	-3,631929  	4757,548671  	35686,973260  	5,175958  	-0,047959  
121,545000  	21,549018  	33,070714  	25,142018  	57,696365  	80,228946  	70,449275  	0,005614  	0,006295  	0,003959  	0,004253  	0,004216  	0,000002  	-0,000000  	26,059273  	23,558603  	24,642175  	25,045701  	29,080888  	27,745270  	29,312712  	29,429332  	33,330150  	32,744595  	36,447616  	63,358676  	27,505813  	26,787712  	28,101231  	69,113432  	0,211853  	0,107347  	-5171,761901  	1761,889556  	-0,053801  	-0,049969  	0,197373  	0,100010  	-4,098293  	4924,653816  	35705,409774  	5,178632  	-0,047925  
122,545000  	21,555157  	33,074041  	25,141465  	1256,670793  	80,226509  	70,430024  	0,005613  	0,006359  	0,003960  	0,004178  	0,004268  	0,000001  	-0,000001  	26,056769  	23,566810  	24,641079  	25,041948  	29,079649  	27,746746  	29,312421  	29,431916  	33,323497  	32,740576  	36,449434  	63,362470  	27,500208  	26,809514  	28,103799  	69,112923  	0,150450  	0,076234  	-3671,904800  	25523,821324  	-0,018521  	-0,049985  	0,238809  	0,121006  	-4,967193  	5062,141022  	35690,673273  	5,176495  	-0,047939  
123,545000  	21,546501  	33,084020  	25,141373  	357,439972  	80,223384  	70,405820  	0,005615  	0,006251  	0,003963  	0,004191  	0,004226  	0,000000  	-0,000001  	26,050576  	23,555605  	24,634114  	25,042136  	29,076739  	27,742081  	29,309987  	29,423586  	33,316992  	32,735120  	36,449477  	63,361975  	27,486307  	26,826055  	28,102748  	69,104029  	0,161287  	0,081725  	-3942,745004  	12487,407931  	-0,036456  	-0,049994  	0,205201  	0,103977  	-4,277333  	4828,975970  	35722,815369  	5,181156  	-0,047946  
124,543000  	21,513472  	33,087100  	25,141496  	956,927186  	80,226071  	70,416100  	0,005614  	0,006252  	0,003957  	0,004160  	0,004198  	0,000001  	-0,000001  	26,045679  	23,555131  	24,631238  	25,035165  	29,070732  	27,728744  	29,305270  	29,421991  	33,317215  	32,732706  	36,442592  	63,359568  	27,484942  	26,837675  	28,101880  	69,098295  	0,135893  	0,068858  	-3332,378274  	22473,293013  	-0,022153  	-0,049986  	0,183191  	0,092824  	-3,815585  	4832,547158  	35692,382057  	5,176742  	-0,047939  
125,544000  	21,502698  	33,088117  	25,140236  	-242,047242  	80,228008  	70,434385  	0,005614  	0,006330  	0,003957  	0,004248  	0,004291  	-0,000001  	-0,000000  	26,047138  	23,552676  	24,638475  	25,030231  	29,079244  	27,734949  	29,309867  	29,421414  	33,325602  	32,736508  	36,444514  	63,356561  	27,492228  	26,850235  	28,095612  	69,097360  	0,207813  	0,105300  	-5101,208485  	-27083,442794  	-0,102837  	-0,050011  	0,256435  	0,129937  	-5,332256  	5000,309521  	35694,479202  	5,177047  	-0,047961  
126,552000  	21,537323  	33,081341  	25,139990  	357,439972  	80,231320  	70,435008  	0,005616  	0,006339  	0,003966  	0,004293  	0,004210  	-0,000000  	-0,000000  	26,051129  	23,553239  	24,639217  	25,032300  	29,081968  	27,740148  	29,313662  	29,423916  	33,325165  	32,744389  	36,445154  	63,362749  	27,494788  	26,859832  	28,091730  	69,090000  	0,244138  	0,123707  	-5971,460786  	12488,955818  	-0,036460  	-0,050001  	0,192422  	0,097502  	-4,002287  	5020,588465  	35750,833788  	5,185220  	-0,047952  
127,544000  	21,562923  	33,087531  	25,139898  	1256,670793  	80,232164  	70,441612  	0,005613  	0,006246  	0,003963  	0,004151  	0,004232  	0,000001  	-0,000000  	26,052740  	23,558818  	24,636052  	25,031019  	29,073301  	27,735932  	29,312704  	29,434575  	33,320983  	32,736082  	36,448500  	63,358261  	27,502139  	26,843370  	28,089141  	69,092746  	0,129256  	0,065495  	-3156,190700  	25522,881207  	-0,018520  	-0,049983  	0,209624  	0,106218  	-4,357521  	4819,832229  	35675,972076  	5,174362  	-0,047937  
128,544000  	21,551504  	33,091905  	25,139714  	1256,670793  	80,232351  	70,446783  	0,005613  	0,006360  	0,003957  	0,004169  	0,004185  	-0,000000  	-0,000000  	26,050800  	23,547377  	24,629612  	25,029822  	29,071851  	27,729744  	29,299799  	29,419490  	33,323347  	32,727603  	36,438225  	63,347127  	27,490985  	26,845122  	28,101876  	69,082289  	0,143409  	0,072667  	-3506,600725  	25530,851671  	-0,018526  	-0,050000  	0,172977  	0,087649  	-3,593895  	5064,929774  	35687,291009  	5,176004  	-0,047952  
129,548000  	21,525228  	33,093568  	25,141281  	57,696365  	80,232445  	70,458963  	0,005614  	0,006284  	0,003961  	0,004217  	0,004238  	-0,000001  	-0,000000  	26,041178  	23,535921  	24,620335  	25,020455  	29,079460  	27,721829  	29,298816  	29,415143  	33,308442  	32,724807  	36,433533  	63,350391  	27,499702  	26,824822  	28,083283  	69,070380  	0,182628  	0,092539  	-4476,386876  	1763,203037  	-0,053840  	-0,050010  	0,215098  	0,108992  	-4,463517  	4900,974886  	35692,346752  	5,176737  	-0,047960  
130,545000  	21,519580  	33,089072  	25,141342  	1256,670793  	80,237319  	70,471984  	0,005613  	0,006297  	0,003963  	0,004223  	0,004215  	0,000001  	-0,000000  	26,059540  	23,551665  	24,627496  	25,035585  	29,069827  	27,724924  	29,315799  	29,422933  	33,320159  	32,739168  	36,447163  	63,349793  	27,495774  	26,810723  	28,094371  	69,066559  	0,186958  	0,094733  	-4582,977543  	25525,139631  	-0,018522  	-0,049988  	0,196795  	0,099717  	-4,080316  	4928,996828  	35671,227022  	5,173674  	-0,047941  
131,545000  	21,536893  	33,106813  	25,141527  	1256,670793  	80,242131  	70,480769  	0,005612  	0,006355  	0,003961  	0,004233  	0,004232  	0,000001  	-0,000000  	26,050129  	23,550085  	24,630059  	25,042761  	29,077664  	27,744055  	29,317673  	29,428012  	33,325219  	32,735530  	36,447123  	63,348184  	27,504248  	26,779367  	28,094791  	69,075026  	0,195413  	0,099017  	-4790,394751  	25525,855321  	-0,018522  	-0,049990  	0,209742  	0,106278  	-4,346998  	5054,905262  	35655,134790  	5,171340  	-0,047943  
132,544000  	21,554696  	33,118579  	25,142694  	1256,670793  	80,243756  	70,475785  	0,005611  	0,006341  	0,003958  	0,004205  	0,004247  	0,000001  	-0,000000  	26,061928  	23,562354  	24,639867  	25,047471  	29,086107  	27,749651  	29,316424  	29,434247  	33,329453  	32,744823  	36,461509  	63,360380  	27,517872  	26,766914  	28,097147  	69,079468  	0,172849  	0,087584  	-4235,050876  	25526,211973  	-0,018522  	-0,049990  	0,221756  	0,112365  	-4,599095  	5024,045047  	35642,325967  	5,169482  	-0,047943  
133,547000  	21,545304  	33,110447  	25,143462  	956,927186  	80,245037  	70,472233  	0,005616  	0,006301  	0,003961  	0,004130  	0,004279  	0,000001  	-0,000000  	26,057330  	23,565838  	24,635475  	25,045628  	29,077873  	27,750729  	29,321020  	29,438392  	33,320868  	32,736865  	36,450761  	63,364383  	27,509959  	26,735664  	28,098080  	69,069344  	0,111937  	0,056720  	-2742,928602  	22476,228225  	-0,022156  	-0,049994  	0,247172  	0,125244  	-5,128753  	4938,615973  	35738,957029  	5,183497  	-0,047946  
134,544000  	21,521606  	33,104410  	25,143094  	-242,047242  	80,245037  	70,481890  	0,005616  	0,006359  	0,003962  	0,004189  	0,004308  	-0,000001  	-0,000000  	26,068380  	23,559528  	24,633861  	25,052576  	29,087057  	27,745676  	29,315093  	29,425007  	33,326573  	32,736967  	36,451850  	63,363373  	27,518201  	26,713201  	28,094983  	69,068515  	0,159484  	0,080812  	-3913,994778  	-27081,767045  	-0,102829  	-0,050008  	0,269875  	0,136748  	-5,594300  	5063,566526  	35746,335871  	5,184568  	-0,047958  
135,546000  	21,515897  	33,106628  	25,144200  	657,183579  	80,245099  	70,499459  	0,005612  	0,006346  	0,003965  	0,004248  	0,004246  	0,000002  	-0,000000  	26,063376  	23,558835  	24,642614  	25,044442  	29,083779  	27,732811  	29,307291  	29,426030  	33,317650  	32,736503  	36,450747  	63,354865  	27,518994  	26,685697  	28,092188  	69,069797  	0,207794  	0,105291  	-5103,072651  	18440,222927  	-0,027554  	-0,049979  	0,221154  	0,112060  	-4,576148  	5034,260569  	35668,776822  	5,173319  	-0,047933  
136,545000  	21,519703  	33,116361  	25,145183  	57,696365  	80,249348  	70,513228  	0,005614  	0,006312  	0,003959  	0,004144  	0,004280  	-0,000001  	-0,000000  	26,062914  	23,557448  	24,647768  	25,046163  	29,086890  	27,740301  	29,315395  	29,435718  	33,320859  	32,739640  	36,453789  	63,359934  	27,514698  	26,655752  	28,095254  	69,073104  	0,123275  	0,062465  	-3028,988530  	1763,146872  	-0,053844  	-0,050015  	0,248034  	0,125681  	-5,127344  	4962,401727  	35708,897954  	5,179138  	-0,047964  
137,545000  	21,519243  	33,123322  	25,145675  	-242,047242  	80,251942  	70,524474  	0,005615  	0,006320  	0,003958  	0,004156  	0,004230  	-0,000001  	-0,000000  	26,060047  	23,561920  	24,640595  	25,052665  	29,088441  	27,748961  	29,322553  	29,436984  	33,325461  	32,746223  	36,450425  	63,357651  	27,509069  	26,625964  	28,092609  	69,066016  	0,132869  	0,067326  	-3266,802326  	-27081,773009  	-0,102828  	-0,050008  	0,208095  	0,105443  	-4,297924  	4979,072696  	35720,174520  	5,180773  	-0,047958  
138,545000  	21,522312  	33,123692  	25,145859  	357,439972  	80,251192  	70,532449  	0,005617  	0,006247  	0,003961  	0,004195  	0,004231  	-0,000000  	-0,000000  	26,063891  	23,565107  	24,647544  	25,058449  	29,094589  	27,750921  	29,319273  	29,436185  	33,333782  	32,746086  	36,452918  	63,355958  	27,507828  	26,595039  	28,091865  	69,073082  	0,164785  	0,083498  	-4050,563613  	12488,853794  	-0,036461  	-0,050002  	0,209253  	0,106030  	-4,317953  	4821,035595  	35763,953299  	5,187123  	-0,047953  
139,545000  	21,558319  	33,123507  	25,147242  	357,439972  	80,248005  	70,536623  	0,005613  	0,006130  	0,003958  	0,004227  	0,004214  	-0,000001  	-0,000000  	26,065464  	23,562314  	24,649360  	25,057662  	29,091765  	27,753596  	29,320547  	29,436632  	33,328836  	32,746889  	36,457995  	63,354893  	27,500733  	26,575115  	28,087966  	69,078341  	0,190896  	0,096728  	-4677,747713  	12491,231072  	-0,036468  	-0,050013  	0,195644  	0,099134  	-4,034089  	4569,121098  	35678,895369  	5,174786  	-0,047962  
140,545000  	21,585393  	33,123630  	25,147857  	956,927186  	80,238944  	70,538555  	0,005617  	0,006201  	0,003964  	0,004198  	0,004276  	0,000000  	-0,000000  	26,060263  	23,559466  	24,643819  	25,051311  	29,088379  	27,747888  	29,313597  	29,439789  	33,326856  	32,745054  	36,452450  	63,353534  	27,503315  	26,550650  	28,090988  	69,083287  	0,167411  	0,084828  	-4092,702395  	22478,290676  	-0,022158  	-0,049999  	0,244737  	0,124010  	-5,040655  	4721,715109  	35767,109608  	5,187581  	-0,047951  
141,546000  	21,558871  	33,138722  	25,148625  	1256,670793  	80,234195  	70,513104  	0,005614  	0,006229  	0,003961  	0,004125  	0,004230  	0,000000  	-0,000000  	26,060887  	23,563501  	24,641674  	25,052295  	29,088863  	27,744950  	29,316315  	29,438564  	33,320444  	32,743393  	36,451590  	63,353469  	27,498858  	26,525985  	28,090508  	69,081154  	0,107709  	0,054577  	-2642,672537  	25529,968374  	-0,018525  	-0,049999  	0,208553  	0,105675  	-4,304535  	4783,269997  	35711,439948  	5,179506  	-0,047951  
142,545000  	21,507425  	33,137860  	25,148686  	657,183579  	80,233757  	70,468059  	0,005616  	0,006240  	0,003960  	0,004160  	0,004260  	0,000002  	-0,000000  	26,058836  	23,558913  	24,644641  	25,050980  	29,089355  	27,743306  	29,315391  	29,437898  	33,323552  	32,740237  	36,450904  	63,349621  	27,484616  	26,494096  	28,084848  	69,078762  	0,136229  	0,069028  	-3357,031082  	18440,324096  	-0,027555  	-0,049980  	0,232477  	0,117798  	-4,820313  	4806,942560  	35747,508013  	5,184738  	-0,047934  
143,545000  	21,474182  	33,127511  	25,149700  	657,183579  	80,234851  	70,431052  	0,005616  	0,006242  	0,003961  	0,004181  	0,004182  	-0,000001  	-0,000000  	26,058747  	23,561587  	24,646710  	25,050991  	29,089549  	27,744120  	29,319465  	29,438248  	33,326501  	32,745358  	36,451570  	63,351871  	27,483659  	26,475089  	28,084057  	69,083239  	0,153194  	0,077624  	-3782,515475  	18450,299002  	-0,027570  	-0,050010  	0,170182  	0,086232  	-3,542398  	4809,837430  	35750,734932  	5,185206  	-0,047960  
144,545000  	21,472401  	33,117162  	25,150438  	1256,670793  	80,233851  	70,399777  	0,005616  	0,006248  	0,003957  	0,004190  	0,004309  	0,000001  	-0,000000  	26,071854  	23,570955  	24,644962  	25,053672  	29,091448  	27,749587  	29,330768  	29,442352  	33,328722  	32,754395  	36,460467  	63,359105  	27,488544  	26,467596  	28,094349  	69,093902  	0,160823  	0,081490  	-3967,982722  	25525,489954  	-0,018522  	-0,049989  	0,270841  	0,137237  	-5,655044  	4823,110534  	35746,470032  	5,184587  	-0,047942  
145,547000  	21,476576  	33,099513  	25,149823  	1256,670793  	80,230852  	70,389186  	0,005613  	0,006215  	0,003959  	0,004199  	0,004177  	0,000001  	-0,000000  	26,073373  	23,565733  	24,648988  	25,053794  	29,093886  	27,753993  	29,326916  	29,446920  	33,337512  	32,753792  	36,460781  	63,360032  	27,484037  	26,452922  	28,100700  	69,101937  	0,167765  	0,085008  	-4131,487987  	25526,083824  	-0,018522  	-0,049991  	0,166560  	0,084397  	-3,480391  	4751,973995  	35689,035099  	5,176257  	-0,047943  
146,545000  	21,480443  	33,080663  	25,150561  	1256,670793  	80,228664  	70,390619  	0,005614  	0,006234  	0,003964  	0,004199  	0,004268  	0,000000  	-0,000000  	26,067473  	23,565621  	24,654484  	25,056705  	29,096565  	27,750697  	29,321457  	29,451363  	33,340382  	32,751480  	36,458186  	63,360353  	27,485581  	26,436040  	28,100238  	69,102400  	0,167909  	0,085081  	-4126,963913  	25527,742546  	-0,018524  	-0,049994  	0,238120  	0,120657  	-4,973859  	4792,228388  	35708,559022  	5,179089  	-0,047947  
147,545000  	21,483022  	33,064585  	25,151022  	357,439972  	80,227821  	70,382582  	0,005616  	0,006262  	0,003960  	0,004161  	0,004276  	-0,000002  	-0,000000  	26,073632  	23,574427  	24,651167  	25,057015  	29,098170  	27,746963  	29,329361  	29,456770  	33,338850  	32,751046  	36,466078  	63,359363  	27,495197  	26,414485  	28,102561  	69,101922  	0,136922  	0,069379  	-3359,920477  	12492,710308  	-0,036472  	-0,050020  	0,244852  	0,124068  	-5,118201  	4854,245239  	35735,588887  	5,183009  	-0,047969  
148,545000  	21,476453  	33,054729  	25,151821  	-242,047242  	80,225884  	70,376290  	0,005615  	0,006360  	0,003959  	0,004162  	0,004227  	-0,000000  	-0,000000  	26,073014  	23,570851  	24,650543  	25,055949  	29,098063  	27,753486  	29,330509  	29,451372  	33,339842  	32,748082  	36,465851  	63,351823  	27,491727  	26,387055  	28,097843  	69,104422  	0,137927  	0,069888  	-3383,624639  	-27080,799992  	-0,102822  	-0,050005  	0,205806  	0,104284  	-4,303921  	5065,774465  	35719,214212  	5,180634  	-0,047956  
149,547000  	21,483237  	33,050509  	25,151452  	956,927186  	80,224853  	70,371617  	0,005614  	0,006336  	0,003961  	0,004201  	0,004193  	-0,000000  	-0,000000  	26,074974  	23,574266  	24,650228  	25,062995  	29,097602  	27,749269  	29,324524  	29,446547  	33,340609  	32,750361  	36,464165  	63,351224  	27,483363  	26,360318  	28,097018  	69,109645  	0,169226  	0,085748  	-4147,518841  	22479,180804  	-0,022159  	-0,050002  	0,178968  	0,090685  	-3,744050  	5012,176930  	35709,731163  	5,179259  	-0,047953  
150,544000  	21,470406  	33,055068  	25,151145  	357,439972  	80,223978  	70,367381  	0,005616  	0,006354  	0,003961  	0,004159  	0,004281  	0,000001  	-0,000000  	26,058343  	23,567353  	24,649021  	25,054150  	29,087687  	27,736860  	29,322609  	29,441651  	33,335677  	32,748943  	36,454456  	63,350026  	27,488484  	26,333599  	28,097223  	69,111027  	0,135170  	0,068492  	-3317,834641  	12485,804202  	-0,036452  	-0,049989  	0,248984  	0,126162  	-5,210559  	5051,088590  	35750,148862  	5,185121  	-0,047942  
151,547000  	21,449503  	33,054975  	25,151421  	357,439972  	80,223540  	70,398033  	0,005611  	0,006355  	0,003960  	0,004259  	0,004240  	-0,000001  	-0,000000  	26,064765  	23,568173  	24,645062  	25,055959  	29,090031  	27,743116  	29,324546  	29,439869  	33,330991  	32,749411  	36,453158  	63,348553  	27,498920  	26,330528  	28,097147  	69,122495  	0,216329  	0,109615  	-5319,472513  	12490,687578  	-0,036467  	-0,050011  	0,216115  	0,109507  	-4,508457  	5053,166360  	35647,960719  	5,170300  	-0,047961  
152,543000  	21,457483  	33,054914  	25,151913  	956,927186  	80,226415  	70,435849  	0,005613  	0,006268  	0,003960  	0,004153  	0,004247  	-0,000001  	-0,000000  	26,062064  	23,566907  	24,642727  	25,054547  	29,089691  	27,742627  	29,326410  	29,440779  	33,327540  	32,740023  	36,467809  	63,352545  	27,482472  	26,337431  	28,094582  	69,115270  	0,130627  	0,066190  	-3209,865376  	22483,570459  	-0,022164  	-0,050013  	0,222108  	0,112544  	-4,617039  	4866,370866  	35679,008346  	5,174803  	-0,047962  
153,543000  	21,496344  	33,053743  	25,151329  	1256,670793  	80,230664  	70,464383  	0,005613  	0,006317  	0,003958  	0,004131  	0,004258  	0,000001  	-0,000000  	26,069300  	23,565845  	24,646300  	25,052860  	29,086356  	27,737953  	29,326374  	29,435626  	33,333665  	32,743184  	36,459125  	63,355688  	27,483711  	26,347047  	28,085057  	69,110028  	0,113110  	0,057314  	-2769,805849  	25525,365734  	-0,018522  	-0,049989  	0,230905  	0,117001  	-4,788006  	4971,225703  	35690,786250  	5,176511  	-0,047942  
154,546000  	21,498922  	33,061813  	25,150899  	657,183579  	80,234538  	70,483510  	0,005617  	0,006302  	0,003964  	0,004228  	0,004212  	0,000000  	-0,000000  	26,069370  	23,583966  	24,650570  	25,060579  	29,097079  	27,756888  	29,325525  	29,448734  	33,336546  	32,754749  	36,456980  	63,362369  	27,494877  	26,349582  	28,099289  	69,122126  	0,191227  	0,096896  	-4684,942978  	18445,551122  	-0,027563  	-0,049996  	0,193922  	0,098262  	-4,014877  	4939,964366  	35768,959614  	5,187849  	-0,047948  
155,546000  	21,494778  	33,075950  	25,151267  	-242,047242  	80,238600  	70,482171  	0,005615  	0,006288  	0,003959  	0,004229  	0,004189  	0,000001  	-0,000000  	26,055355  	23,562677  	24,649367  	25,052309  	29,084374  	27,741304  	29,326329  	29,437724  	33,328908  	32,740613  	36,450547  	63,345971  	27,483502  	26,331772  	28,085621  	69,113926  	0,192213  	0,097396  	-4716,563954  	-27070,370248  	-0,102783  	-0,049984  	0,176025  	0,089193  	-3,646356  	4909,760660  	35722,102199  	5,181053  	-0,047938  
156,546000  	21,506504  	33,079770  	25,151206  	956,927186  	80,242724  	70,472576  	0,005617  	0,006285  	0,003960  	0,004222  	0,004219  	0,000001  	-0,000000  	26,066379  	23,578382  	24,659284  	25,060673  	29,097117  	27,759819  	29,331806  	29,445391  	33,335668  	32,753312  	36,462986  	63,358836  	27,500685  	26,342339  	28,093300  	69,130211  	0,186266  	0,094382  	-4567,493179  	22476,017812  	-0,022156  	-0,049994  	0,199839  	0,101260  	-4,145468  	4903,620027  	35762,223331  	5,186872  	-0,047946  
157,544000  	21,557275  	33,074842  	25,151267  	956,927186  	80,251817  	70,478775  	0,005617  	0,006283  	0,003960  	0,004191  	0,004145  	-0,000001  	-0,000001  	26,079116  	23,581679  	24,656246  	25,065709  	29,097998  	27,745159  	29,334626  	29,438692  	33,338834  	32,760144  	36,461985  	63,360543  	27,491161  	26,334878  	28,110230  	69,138856  	0,161041  	0,081601  	-3929,932622  	22485,551380  	-0,022166  	-0,050017  	0,141161  	0,071527  	-2,929120  	4899,034362  	35767,533273  	5,187642  	-0,047966  
158,545000  	21,593005  	33,076875  	25,151390  	357,439972  	80,260128  	70,475224  	0,005613  	0,006303  	0,003962  	0,004183  	0,004244  	0,000002  	-0,000000  	26,058235  	23,562302  	24,632979  	25,042228  	29,081665  	27,740213  	29,315353  	29,424349  	33,325423  	32,742329  	36,442452  	63,348025  	27,480962  	26,306091  	28,094959  	69,119049  	0,154910  	0,078494  	-3769,231668  	12483,006337  	-0,036444  	-0,049977  	0,219233  	0,111087  	-4,554651  	4941,554704  	35683,654546  	5,175477  	-0,047931  
159,545000  	21,596781  	33,080016  	25,151022  	1256,670793  	80,261190  	70,466938  	0,005615  	0,006356  	0,003958  	0,004126  	0,004267  	0,000000  	-0,000000  	26,064209  	23,571754  	24,655924  	25,053485  	29,099938  	27,744300  	29,322218  	29,444811  	33,337004  	32,760053  	36,450666  	63,360703  	27,488583  	26,307223  	28,111461  	69,120283  	0,108522  	0,054989  	-2640,396145  	25529,694401  	-0,018525  	-0,049999  	0,237693  	0,120441  	-4,942877  	5057,421648  	35717,018212  	5,180316  	-0,047950  
160,547000  	21,578179  	33,080571  	25,151390  	57,696365  	80,262815  	70,468371  	0,005615  	0,006294  	0,003960  	0,004157  	0,004293  	0,000002  	-0,000000  	26,067935  	23,580865  	24,641849  	25,054841  	29,100866  	27,752456  	29,327219  	29,437029  	33,332509  	32,750262  	36,454920  	63,357960  	27,484680  	26,312144  	28,107948  	69,118349  	0,133588  	0,067690  	-3255,675279  	1761,724108  	-0,053811  	-0,049981  	0,258511  	0,130989  	-5,375900  	4923,630142  	35721,021852  	5,180896  	-0,047935  
161,546000  	21,550031  	33,081248  	25,151605  	1256,670793  	80,262596  	70,474663  	0,005616  	0,006359  	0,003957  	0,004208  	0,004257  	-0,000000  	-0,000000  	26,062900  	23,567393  	24,649478  	25,036229  	29,090679  	27,746324  	29,319277  	29,433350  	33,327855  	32,745385  	36,442475  	63,349069  	27,476051  	26,305551  	28,098109  	69,110277  	0,174975  	0,088661  	-4275,031327  	25531,337531  	-0,018526  	-0,050002  	0,229550  	0,116314  	-4,770466  	5062,679388  	35755,084566  	5,185837  	-0,047953  
162,547000  	21,500549  	33,098004  	25,151237  	1256,670793  	80,261409  	70,492980  	0,005615  	0,006349  	0,003960  	0,004195  	0,004265  	0,000000  	-0,000001  	26,064472  	23,568157  	24,641301  	25,045511  	29,092352  	27,742041  	29,320992  	29,429694  	33,324102  	32,740275  	36,438401  	63,341588  	27,480080  	26,308627  	28,100259  	69,114555  	0,164404  	0,083305  	-4039,838204  	25527,548641  	-0,018523  	-0,049994  	0,236092  	0,119630  	-4,896666  	5041,763743  	35717,590160  	5,180398  	-0,047946  
163,545000  	21,476883  	33,111494  	25,150776  	357,439972  	80,259784  	70,497808  	0,005619  	0,006340  	0,003967  	0,004258  	0,004227  	0,000001  	-0,000000  	26,060513  	23,564068  	24,644516  	25,054444  	29,092144  	27,737407  	29,311641  	29,436864  	33,329378  	32,737182  	36,439174  	63,341271  	27,482130  	26,316530  	28,101020  	69,116468  	0,216063  	0,109481  	-5326,261705  	12485,463215  	-0,036451  	-0,049988  	0,206419  	0,104594  	-4,278401  	5022,134942  	35812,081711  	5,194103  	-0,047941  
164,545000  	21,475839  	33,126402  	25,149731  	-242,047242  	80,260221  	70,516998  	0,005617  	0,006332  	0,003958  	0,004091  	0,004244  	-0,000001  	-0,000000  	26,058819  	23,573068  	24,652001  	25,055781  	29,089175  	27,739912  	29,326217  	29,444370  	33,335758  	32,742027  	36,438267  	63,355391  	27,483369  	26,312407  	28,100989  	69,113752  	0,080023  	0,040548  	-1975,397058  	-27081,585503  	-0,102826  	-0,050007  	0,219143  	0,111042  	-4,533429  	5003,735683  	35762,286881  	5,186881  	-0,047958  
165,545000  	21,459356  	33,139831  	25,148901  	1256,670793  	80,262096  	70,541452  	0,005621  	0,006246  	0,003961  	0,004209  	0,004265  	-0,000002  	-0,000000  	26,064089  	23,570460  	24,656109  	25,055931  	29,091768  	27,751882  	29,327390  	29,441799  	33,338762  	32,743393  	36,442873  	63,354168  	27,489073  	26,305567  	28,100673  	69,122058  	0,175936  	0,089148  	-4354,165140  	25541,143222  	-0,018533  	-0,050024  	0,235880  	0,119522  	-4,868362  	4819,916415  	35853,177274  	5,200064  	-0,047972  
166,547000  	21,454076  	33,138414  	25,148471  	1256,670793  	80,261034  	70,544131  	0,005621  	0,006189  	0,003962  	0,004261  	0,004259  	0,000000  	-0,000000  	26,063129  	23,561443  	24,651416  	25,050206  	29,090109  	27,746581  	29,318716  	29,441610  	33,329274  	32,746429  	36,448886  	63,350463  	27,494768  	26,292543  	28,097681  	69,116853  	0,217786  	0,110354  	-5391,696051  	25529,866786  	-0,018525  	-0,049999  	0,231703  	0,117405  	-4,780317  	4697,308924  	35861,361081  	5,201251  	-0,047950  
167,546000  	21,439527  	33,121874  	25,148010  	357,439972  	80,258909  	70,545346  	0,005616  	0,006193  	0,003963  	0,004261  	0,004286  	0,000002  	-0,000000  	26,066940  	23,571554  	24,652150  	25,053264  	29,092632  	27,747542  	29,320971  	29,442148  	33,328134  	32,742157  	36,452909  	63,351806  	27,496230  	26,294062  	28,091883  	69,108148  	0,217936  	0,110430  	-5394,492361  	12483,574743  	-0,036445  	-0,049978  	0,252502  	0,127945  	-5,207639  	4705,564113  	35748,666032  	5,184906  	-0,047933  
168,546000  	21,431055  	33,104626  	25,146781  	956,927186  	80,258347  	70,519739  	0,005620  	0,006306  	0,003962  	0,004171  	0,004199  	-0,000001  	-0,000000  	26,065159  	23,580799  	24,651462  	25,054754  	29,092186  	27,753365  	29,324121  	29,443925  	33,333292  	32,741328  	36,457631  	63,351369  	27,499556  	26,293577  	28,093533  	69,108285  	0,145466  	0,073709  	-3597,971880  	22482,369737  	-0,022162  	-0,050009  	0,184209  	0,093340  	-3,808940  	4948,682932  	35841,957197  	5,198436  	-0,047959  
169,545000  	21,463193  	33,104164  	25,146904  	1256,670793  	80,258003  	70,488619  	0,005611  	0,006343  	0,003959  	0,004233  	0,004224  	-0,000001  	-0,000000  	26,061076  	23,575376  	24,649090  	25,053268  	29,093546  	27,747816  	29,319572  	29,437209  	33,331718  	32,740897  	36,453165  	63,347448  	27,505324  	26,285207  	28,096299  	69,101719  	0,195088  	0,098853  	-4811,838143  	25537,493114  	-0,018531  	-0,050016  	0,203678  	0,103205  	-4,224788  	5028,353394  	35635,702661  	5,168522  	-0,047965  
170,545000  	21,505614  	33,094985  	25,145921  	1256,670793  	80,257753  	70,443450  	0,005614  	0,006212  	0,003961  	0,004093  	0,004256  	0,000001  	-0,000000  	26,062022  	23,568676  	24,655193  	25,054056  	29,094661  	27,742245  	29,319964  	29,437993  	33,331510  	32,740579  	36,443977  	63,351011  	27,504121  	26,280132  	28,099623  	69,096036  	0,081582  	0,041338  	-2003,292915  	25525,516648  	-0,018522  	-0,049989  	0,228631  	0,115849  	-4,764151  	4746,614383  	35704,844887  	5,178550  	-0,047942  
171,544000  	21,523202  	33,086669  	25,146289  	357,439972  	80,251723  	70,437313  	0,005617  	0,006209  	0,003962  	0,004230  	0,004247  	-0,000000  	-0,000000  	26,065875  	23,569645  	24,655222  	25,056373  	29,093072  	27,744353  	29,330255  	29,448367  	33,330925  	32,743768  	36,449087  	63,354606  	27,506016  	26,272418  	28,105372  	69,100342  	0,192614  	0,097599  	-4719,165623  	12489,647148  	-0,036463  	-0,050005  	0,222133  	0,112557  	-4,628804  	4740,405836  	35765,118379  	5,187292  	-0,047956  
172,547000  	21,530815  	33,068743  	25,147150  	956,927186  	80,244787  	70,454882  	0,005614  	0,006314  	0,003960  	0,004221  	0,004252  	0,000000  	-0,000000  	26,069566  	23,571368  	24,649830  	25,054543  	29,091287  	27,746989  	29,330756  	29,447372  	33,329586  	32,753822  	36,454553  	63,349610  	27,511050  	26,253792  	28,099013  	69,100671  	0,186088  	0,094292  	-4549,206527  	22477,063957  	-0,022157  	-0,049996  	0,225791  	0,114410  	-4,693296  	4965,130347  	35697,727305  	5,177518  	-0,047948  
173,545000  	21,546562  	33,047091  	25,146781  	-242,047242  	80,240381  	70,446440  	0,005612  	0,006346  	0,003958  	0,004203  	0,004318  	-0,000001  	-0,000000  	26,067829  	23,571068  	24,653601  	25,051947  	29,092395  	27,745779  	29,323290  	29,446385  	33,337446  	32,758031  	36,449435  	63,350850  	27,514698  	26,233530  	28,090682  	69,097478  	0,171044  	0,086669  	-4167,874688  	-27081,986320  	-0,102828  	-0,050008  	0,278134  	0,140933  	-5,783667  	5035,875669  	35669,461748  	5,173418  	-0,047958  
174,546000  	21,572961  	33,058671  	25,145429  	357,439972  	80,236194  	70,432859  	0,005615  	0,006345  	0,003958  	0,004238  	0,004287  	-0,000001  	-0,000000  	26,069215  	23,573418  	24,653559  	25,058917  	29,102427  	27,748341  	29,328936  	29,449358  	33,343190  	32,742163  	36,449266  	63,357570  	27,527855  	26,224217  	28,097576  	69,096380  	0,199234  	0,100953  	-4848,509052  	12490,729947  	-0,036466  	-0,050010  	0,253434  	0,128417  	-5,275090  	5031,618965  	35726,819009  	5,181737  	-0,047960  
175,543000  	21,583643  	33,072809  	25,145982  	1256,670793  	80,234663  	70,433606  	0,005616  	0,006343  	0,003966  	0,004267  	0,004228  	0,000001  	-0,000000  	26,071237  	23,569117  	24,650334  	25,053534  	29,096182  	27,760547  	29,326183  	29,445293  	33,342655  	32,744724  	36,442593  	63,359076  	27,522092  	26,213323  	28,093730  	69,092762  	0,222765  	0,112876  	-5422,769566  	25523,919902  	-0,018521  	-0,049986  	0,206761  	0,104767  	-4,302602  	5027,369336  	35750,000579  	5,185099  	-0,047939  
176,547000  	21,571978  	33,077059  	25,145859  	1256,670793  	80,231789  	70,458465  	0,005614  	0,006226  	0,003962  	0,004186  	0,004249  	-0,000001  	-0,000000  	26,058319  	23,564039  	24,642911  	25,044343  	29,087576  	27,755545  	29,318817  	29,443140  	33,337764  	32,743896  	36,444585  	63,355384  	27,512780  	26,195650  	28,085416  	69,093427  	0,157537  	0,079825  	-3840,238120  	25533,309197  	-0,018528  	-0,050006  	0,223191  	0,113092  	-4,631384  	4775,031080  	35698,383986  	5,177613  	-0,047957  
177,545000  	21,538243  	33,080293  	25,145337  	1256,670793  	80,225071  	70,491454  	0,005617  	0,006197  	0,003954  	0,004201  	0,004225  	0,000000  	-0,000001  	26,061623  	23,561651  	24,654170  	25,049979  	29,095379  	27,752448  	29,328029  	29,440438  	33,334715  	32,748970  	36,446442  	63,353971  	27,515619  	26,191092  	28,089734  	69,099654  	0,169528  	0,085901  	-4145,845381  	25529,659870  	-0,018525  	-0,049998  	0,204238  	0,103489  	-4,220891  	4713,645270  	35764,814752  	5,187248  	-0,047950  
178,547000  	21,508407  	33,087994  	25,145951  	1256,670793  	80,218135  	70,509210  	0,005614  	0,006318  	0,003966  	0,004166  	0,004322  	0,000001  	-0,000000  	26,059018  	23,561553  	24,651439  	25,054113  	29,091042  	27,751393  	29,325579  	29,445584  	33,335082  	32,746663  	36,448904  	63,358327  	27,518507  	26,179165  	28,091885  	69,105688  	0,141399  	0,071648  	-3469,200840  	25525,446478  	-0,018522  	-0,049989  	0,281020  	0,142395  	-5,793000  	4973,452036  	35691,273466  	5,176582  	-0,047942  
179,544000  	21,491647  	33,106843  	25,144845  	357,439972  	80,217604  	70,492482  	0,005616  	0,006212  	0,003960  	0,004176  	0,004235  	0,000001  	-0,000000  	26,069744  	23,565791  	24,653015  	25,059812  	29,088806  	27,758016  	29,327010  	29,448366  	33,336426  	32,754959  	36,453837  	63,356959  	27,524668  	26,180081  	28,095366  	69,103139  	0,149071  	0,075536  	-3668,683211  	12485,908441  	-0,036452  	-0,049988  	0,212522  	0,107686  	-4,388262  	4746,505436  	35752,189518  	5,185417  	-0,047941  
180,547000  	21,482561  	33,110724  	25,145583  	-242,047242  	80,219354  	70,461642  	0,005614  	0,006219  	0,003960  	0,004204  	0,004255  	0,000002  	-0,000000  	26,064795  	23,565358  	24,637747  	25,052078  	29,093435  	27,753959  	29,325550  	29,442666  	33,341164  	32,745650  	36,445087  	63,358442  	27,522123  	26,162767  	28,087983  	69,107307  	0,171701  	0,087002  	-4230,331443  	-27067,210567  	-0,102773  	-0,049978  	0,228193  	0,115627  	-4,727620  	4761,540082  	35707,153864  	5,178885  	-0,047932  
181,544000  	21,452633  	33,109030  	25,145091  	-242,047242  	80,222478  	70,454041  	0,005615  	0,006171  	0,003961  	0,004160  	0,004209  	0,000001  	-0,000000  	26,076313  	23,573419  	24,646363  	25,060922  	29,097632  	27,745996  	29,328257  	29,442277  	33,337215  	32,755978  	36,457191  	63,359662  	27,523265  	26,158823  	28,096208  	69,112232  	0,136120  	0,068973  	-3361,835142  	-27071,727360  	-0,102790  	-0,049987  	0,191520  	0,097045  	-3,972204  	4658,391605  	35721,261929  	5,180931  	-0,047940  
182,546000  	21,463561  	33,105889  	25,144661  	-242,047242  	80,223728  	70,433108  	0,005615  	0,006282  	0,003957  	0,004165  	0,004219  	-0,000000  	-0,000000  	26,074040  	23,584444  	24,652417  	25,067416  	29,104984  	27,759186  	29,328417  	29,456241  	33,336409  	32,749016  	36,449853  	63,363644  	27,529782  	26,145000  	28,100073  	69,116209  	0,140120  	0,071000  	-3456,460126  	-27078,030045  	-0,102814  	-0,050000  	0,199897  	0,101289  	-4,155340  	4896,370119  	35731,098032  	5,182358  	-0,047951  
183,545000  	21,502606  	33,098404  	25,145214  	657,183579  	80,224321  	70,401802  	0,005616  	0,006332  	0,003961  	0,004209  	0,004262  	0,000000  	-0,000000  	26,058627  	23,559988  	24,642894  	25,048209  	29,087688  	27,748399  	29,317186  	29,439181  	33,322386  	32,743458  	36,442765  	63,354887  	27,514350  	26,130239  	28,081199  	69,109702  	0,175727  	0,089042  	-4317,448707  	18445,203749  	-0,027562  	-0,049994  	0,233367  	0,118249  	-4,866883  	5005,569383  	35739,747871  	5,183612  	-0,047946  
184,546000  	21,530723  	33,087316  	25,145275  	1256,670793  	80,228696  	70,380246  	0,005616  	0,006264  	0,003961  	0,004163  	0,004274  	0,000000  	-0,000001  	26,068322  	23,577022  	24,643595  	25,054224  	29,098092  	27,751011  	29,325087  	29,447596  	33,345710  	32,746792  	36,449825  	63,358164  	27,513075  	26,133165  	28,088756  	69,112760  	0,138799  	0,070330  	-3398,625015  	25527,848363  	-0,018524  	-0,049994  	0,243522  	0,123394  	-5,092054  	4857,058752  	35739,663138  	5,183600  	-0,047946  
185,543000  	21,521760  	33,067080  	25,145491  	-242,047242  	80,228789  	70,382115  	0,005613  	0,006305  	0,003961  	0,004146  	0,004257  	-0,000000  	-0,000000  	26,060660  	23,573685  	24,662917  	25,062090  	29,106112  	27,756613  	29,328154  	29,450248  	33,343501  	32,743537  	36,458667  	63,362161  	27,512962  	26,151245  	28,098109  	69,123333  	0,125265  	0,063473  	-3064,256859  	-27080,363298  	-0,102823  	-0,050005  	0,229485  	0,116282  	-4,797689  	4947,191635  	35682,383549  	5,175292  	-0,047956  
186,548000  	21,499229  	33,054698  	25,145613  	357,439972  	80,226790  	70,398001  	0,005615  	0,006351  	0,003957  	0,004168  	0,004239  	0,000001  	-0,000001  	26,059204  	23,567495  	24,636530  	25,046877  	29,087114  	27,752287  	29,318744  	29,436861  	33,338145  	32,745414  	36,439073  	63,345279  	27,486373  	26,131258  	28,089530  	69,112170  	0,142412  	0,072161  	-3486,780488  	12485,658822  	-0,036451  	-0,049987  	0,215447  	0,109169  	-4,496031  	5045,852074  	35714,716295  	5,179982  	-0,047940  
187,546000  	21,463960  	33,050171  	25,144599  	357,439972  	80,230320  	70,425133  	0,005616  	0,006253  	0,003961  	0,004191  	0,004217  	0,000002  	-0,000000  	26,072746  	23,576883  	24,653343  	25,060113  	29,100741  	27,758878  	29,338364  	29,447838  	33,342930  	32,759654  	36,448633  	63,360508  	27,496345  	26,144643  	28,095273  	69,117357  	0,161306  	0,081735  	-3959,884816  	12484,050499  	-0,036446  	-0,049980  	0,198189  	0,100424  	-4,125957  	4833,536875  	35748,955537  	5,184948  	-0,047934  
188,545000  	21,442351  	33,060273  	25,144907  	956,927186  	80,234882  	70,446627  	0,005614  	0,006201  	0,003962  	0,004187  	0,004266  	0,000000  	-0,000000  	26,065625  	23,574255  	24,648444  	25,055326  	29,092112  	27,748530  	29,332662  	29,439102  	33,347481  	32,747684  	36,451812  	63,360009  	27,490567  	26,149144  	28,091928  	69,118399  	0,158264  	0,080194  	-3895,853601  	22476,576817  	-0,022157  	-0,049995  	0,236928  	0,120053  	-4,923954  	4723,061379  	35710,133646  	5,179317  	-0,047947  
189,543000  	21,448981  	33,068312  	25,145122  	57,696365  	80,238600  	70,458683  	0,005612  	0,006288  	0,003964  	0,004173  	0,004226  	0,000001  	-0,000000  	26,059481  	23,567985  	24,646908  	25,065637  	29,090023  	27,749233  	29,320776  	29,437849  	33,342589  	32,750089  	36,450653  	63,348334  	27,492519  	26,141458  	28,093400  	69,112230  	0,146592  	0,074279  	-3608,962701  	1762,469981  	-0,053824  	-0,049993  	0,205223  	0,103988  	-4,261401  	4910,055665  	35657,514378  	5,171685  	-0,047946  
190,546000  	21,470713  	33,074534  	25,145183  	1256,670793  	80,239662  	70,449587  	0,005612  	0,006337  	0,003957  	0,004189  	0,004189  	0,000001  	-0,000000  	26,067165  	23,572084  	24,647962  	25,057557  	29,093278  	27,755911  	29,316693  	29,439835  	33,335011  	32,753498  	36,454611  	63,358463  	27,493749  	26,142855  	28,091869  	69,116220  	0,159836  	0,080990  	-3929,759913  	25523,364344  	-0,018520  	-0,049984  	0,176195  	0,089279  	-3,662445  	5016,106794  	35668,423768  	5,173267  	-0,047938  
191,544000  	21,488670  	33,083959  	25,146013  	1256,670793  	80,243599  	70,441238  	0,005612  	0,006294  	0,003959  	0,004150  	0,004185  	-0,000000  	-0,000000  	26,075598  	23,572240  	24,644863  	25,060779  	29,094622  	27,747241  	29,321709  	29,442786  	33,334199  	32,749278  	36,453663  	63,361720  	27,487454  	26,130580  	28,093590  	69,113785  	0,128443  	0,065083  	-3155,598493  	25531,337416  	-0,018526  	-0,050002  	0,172487  	0,087400  	-3,589864  	4922,822946  	35650,234391  	5,170629  	-0,047953  
192,546000  	21,497203  	33,081310  	25,145644  	1256,670793  	80,247224  	70,429463  	0,005614  	0,006352  	0,003960  	0,004216  	0,004226  	-0,000001  	-0,000001  	26,071505  	23,563038  	24,646427  	25,055994  	29,092576  	27,742050  	29,316085  	29,434273  	33,331283  	32,744601  	36,451172  	63,355255  	27,483984  	26,116341  	28,087400  	69,103748  	0,181697  	0,092067  	-4459,634878  	25537,296514  	-0,018530  	-0,050015  	0,205013  	0,103882  	-4,273503  	5047,774205  	35712,548540  	5,179667  	-0,047964  
193,544000  	21,521483  	33,064493  	25,146443  	57,696365  	80,255410  	70,430772  	0,005617  	0,006256  	0,003960  	0,004245  	0,004229  	0,000000  	-0,000000  	26,069549  	23,562436  	24,648198  	25,052866  	29,092189  	27,736619  	29,314107  	29,432701  	33,330073  	32,739929  	36,445758  	63,352223  	27,491089  	26,117040  	28,082605  	69,092177  	0,205019  	0,103884  	-5014,190950  	1762,435702  	-0,053825  	-0,049995  	0,207652  	0,105219  	-4,331543  	4840,256199  	35757,308810  	5,186159  	-0,047947  
194,547000  	21,528114  	33,054021  	25,146320  	1256,670793  	80,261784  	70,448091  	0,005614  	0,006308  	0,003964  	0,004179  	0,004154  	0,000002  	-0,000000  	26,069055  	23,566098  	24,646184  	25,049506  	29,092279  	27,737617  	29,318503  	29,447547  	33,331445  	32,743555  	36,445227  	63,352957  	27,496206  	26,113628  	28,086247  	69,092338  	0,151952  	0,076995  	-3710,821788  	25520,083784  	-0,018518  	-0,049977  	0,148362  	0,075176  	-3,091337  	4952,476258  	35694,846379  	5,177100  	-0,047932  
195,546000  	21,516419  	33,054945  	25,146505  	1256,670793  	80,263252  	70,470707  	0,005611  	0,006264  	0,003963  	0,004213  	0,004201  	-0,000000  	-0,000000  	26,069392  	23,564625  	24,649610  	25,052921  	29,098457  	27,746162  	29,322175  	29,448439  	33,334440  	32,742146  	36,446978  	63,358560  	27,498321  	26,106677  	28,087092  	69,093948  	0,179227  	0,090815  	-4381,688271  	25530,801739  	-0,018526  	-0,050001  	0,185266  	0,093876  	-3,851979  	4858,134778  	35630,230314  	5,167728  	-0,047952  
196,544000  	21,510095  	33,065170  	25,146136  	1256,670793  	80,263002  	70,474258  	0,005614  	0,006235  	0,003958  	0,004172  	0,004241  	0,000003  	-0,000000  	26,069557  	23,564902  	24,652279  	25,056032  	29,096924  	27,748204  	29,327412  	29,439851  	33,336098  	32,740068  	36,447233  	63,358272  	27,503438  	26,095101  	28,086687  	69,086891  	0,145828  	0,073892  	-3570,281227  	25515,885063  	-0,018515  	-0,049968  	0,217326  	0,110121  	-4,516806  	4795,039779  	35693,469466  	5,176900  	-0,047924  
197,545000  	21,507517  	33,078445  	25,146781  	1256,670793  	80,262534  	70,488214  	0,005619  	0,006203  	0,003961  	0,004229  	0,004294  	-0,000000  	-0,000000  	26,068899  	23,563734  	24,648920  	25,049409  	29,089407  	27,744308  	29,324670  	29,437352  	33,334415  	32,742973  	36,444845  	63,355900  	27,508376  	26,089196  	28,093893  	69,082847  	0,191767  	0,097170  	-4701,431880  	25532,963362  	-0,018527  	-0,050006  	0,258847  	0,131160  	-5,371846  	4726,914130  	35804,639319  	5,193024  	-0,047956  
198,546000  	21,484495  	33,088425  	25,145859  	657,183579  	80,260034  	70,488650  	0,005618  	0,006323  	0,003963  	0,004134  	0,004274  	0,000002  	-0,000000  	26,069053  	23,564849  	24,650681  	25,050413  	29,088826  	27,742290  	29,320229  	29,434897  	33,328966  	32,742119  	36,443061  	63,354057  	27,509909  	26,091874  	28,098793  	69,087652  	0,115488  	0,058518  	-2839,427959  	18439,071726  	-0,027553  	-0,049976  	0,243112  	0,123187  	-5,043784  	4984,633222  	35790,693659  	5,191001  	-0,047931  
199,545000  	21,453831  	33,093969  	25,146689  	657,183579  	80,256222  	70,457686  	0,005613  	0,006356  	0,003962  	0,004254  	0,004224  	0,000002  	-0,000000  	26,067118  	23,571390  	24,652826  	25,057483  	29,089749  	27,743173  	29,325053  	29,437943  	33,327194  	32,741967  	36,450312  	63,351442  	27,508605  	26,083491  	28,100305  	69,092240  	0,212715  	0,107784  	-5246,226817  	18440,404909  	-0,027555  	-0,049980  	0,204014  	0,103375  	-4,244363  	5057,414574  	35690,115446  	5,176414  	-0,047934  
200,547000  	21,449410  	33,089410  	25,146689  	57,696365  	80,256222  	70,420118  	0,005614  	0,006274  	0,003960  	0,004218  	0,004250  	0,000001  	-0,000000  	26,065709  	23,567983  	24,647133  	25,056221  	29,094373  	27,748540  	29,320562  	29,442198  	33,332166  	32,740640  	36,453618  	63,358708  	27,508184  	26,077612  	28,102827  	69,089752  	0,182990  	0,092722  	-4513,059079  	1762,040193  	-0,053813  	-0,049982  	0,224610  	0,113811  	-4,690743  	4880,334438  	35711,503498  	5,179516  	-0,047936  
201,545000  	21,439741  	33,075581  	25,146167  	57,696365  	80,262471  	70,425351  	0,005615  	0,006262  	0,003959  	0,004212  	0,004189  	0,000001  	-0,000000  	26,063004  	23,568690  	24,646168  	25,051520  	29,092208  	27,748453  	29,316744  	29,435063  	33,327520  	32,737851  	36,441275  	63,350348  	27,510814  	26,078448  	28,092015  	69,084485  	0,178758  	0,090578  	-4407,126634  	1762,111556  	-0,053814  	-0,049984  	0,175638  	0,088997  	-3,668410  	4852,610331  	35719,030623  	5,180607  	-0,047937  
202,546000  	21,446249  	33,065109  	25,145183  	657,183579  	80,267783  	70,452390  	0,005618  	0,006226  	0,003958  	0,004187  	0,004140  	0,000000  	-0,000000  	26,060628  	23,569024  	24,648910  	25,046566  	29,091685  	27,737577  	29,317628  	29,426215  	33,329745  	32,735955  	36,434632  	63,346673  	27,510686  	26,085344  	28,093324  	69,083877  	0,157872  	0,079995  	-3886,519569  	18446,403282  	-0,027564  	-0,049998  	0,136746  	0,069290  	-2,849802  	4775,204404  	35780,497441  	5,189522  	-0,047950  
203,543000  	21,474059  	33,057439  	25,144722  	-242,047242  	80,271720  	70,462950  	0,005616  	0,006295  	0,003962  	0,004140  	0,004245  	0,000001  	-0,000000  	26,069314  	23,572408  	24,654949  	25,056571  	29,093490  	27,742642  	29,318789  	29,437217  	33,330408  	32,744111  	36,441571  	63,349410  	27,510753  	26,083595  	28,096646  	69,086816  	0,120224  	0,060918  	-2950,642965  	-27071,808943  	-0,102791  	-0,049987  	0,220532  	0,111745  	-4,592821  	4924,122524  	35734,508540  	5,182852  	-0,047940  
204,544000  	21,496405  	33,061444  	25,142940  	-242,047242  	80,271532  	70,462639  	0,005614  	0,006322  	0,003962  	0,004139  	0,004223  	0,000000  	-0,000000  	26,058870  	23,569701  	24,651144  	25,057195  	29,094958  	27,737220  	29,311501  	29,435854  	33,330148  	32,743412  	36,447557  	63,355578  	27,505597  	26,075667  	28,095983  	69,095877  	0,119355  	0,060478  	-2924,683974  	-27076,064977  	-0,102807  	-0,049996  	0,203133  	0,102929  	-4,230519  	4983,646335  	35694,804012  	5,177094  	-0,047948  
205,545000  	21,501378  	33,064462  	25,143063  	1256,670793  	80,266783  	70,443138  	0,005612  	0,006265  	0,003961  	0,004224  	0,004174  	0,000000  	-0,000001  	26,075650  	23,576958  	24,647713  	25,065140  	29,089555  	27,753422  	29,322551  	29,438502  	33,334764  	32,741710  	36,449848  	63,357049  	27,514894  	26,076681  	28,100776  	69,095841  	0,187877  	0,095199  	-4602,947612  	25527,847136  	-0,018524  	-0,049994  	0,164252  	0,083228  	-3,425908  	4859,640223  	35652,380964  	5,170941  	-0,047946  
206,547000  	21,516419  	33,053805  	25,142387  	657,183579  	80,260784  	70,451175  	0,005615  	0,006243  	0,003960  	0,004134  	0,004204  	0,000001  	-0,000000  	26,073617  	23,575438  	24,658087  	25,058406  	29,095291  	27,753343  	29,322252  	29,441958  	33,331964  	32,737901  	36,448451  	63,366311  	27,519192  	26,064745  	28,106047  	69,093199  	0,115292  	0,058419  	-2818,351929  	18443,896013  	-0,027560  	-0,049990  	0,187945  	0,095233  	-3,914485  	4811,659811  	35733,597659  	5,182720  	-0,047943  
207,544000  	21,533915  	33,045674  	25,140543  	-242,047242  	80,260378  	70,463480  	0,005614  	0,006267  	0,003960  	0,004225  	0,004241  	-0,000000  	-0,000000  	26,046720  	23,542871  	24,640417  	25,028878  	29,078595  	27,730041  	29,306179  	29,420159  	33,314547  	32,722920  	36,429998  	63,345456  	27,483038  	26,050986  	28,085185  	69,078964  	0,188640  	0,095585  	-4601,122622  	-27079,019360  	-0,102820  	-0,050002  	0,217468  	0,110193  	-4,523528  	4863,914613  	35705,720462  	5,178677  	-0,047953  
208,548000  	21,535696  	33,050663  	25,139621  	956,927186  	80,266252  	70,450833  	0,005612  	0,006363  	0,003962  	0,004172  	0,004226  	0,000002  	-0,000000  	26,058306  	23,557588  	24,649917  	25,049003  	29,094453  	27,735424  	29,321920  	29,440201  	33,326606  	32,738063  	36,443338  	63,352536  	27,512397  	26,064457  	28,100176  	69,100863  	0,145716  	0,073836  	-3555,159692  	22468,267108  	-0,022148  	-0,049973  	0,205476  	0,104116  	-4,282149  	5071,392295  	35656,674108  	5,171563  	-0,047929  
209,545000  	21,534069  	33,060366  	25,138331  	57,696365  	80,273157  	70,442235  	0,005616  	0,006362  	0,003962  	0,004154  	0,004271  	0,000000  	-0,000000  	26,069111  	23,564029  	24,648135  	25,047452  	29,091759  	27,735629  	29,326948  	29,431765  	33,335823  	32,740874  	36,441335  	63,360432  	27,502553  	26,056904  	28,105746  	69,096435  	0,131449  	0,066606  	-3210,221083  	1762,912731  	-0,053826  	-0,049995  	0,241160  	0,122198  	-5,033747  	5070,162753  	35738,949968  	5,183496  	-0,047947  
210,546000  	21,517063  	33,064493  	25,137102  	1256,670793  	80,274157  	70,444976  	0,005615  	0,006314  	0,003962  	0,004238  	0,004222  	-0,000000  	-0,000000  	26,060029  	23,564239  	24,642203  	25,050158  	29,083866  	27,736942  	29,313484  	29,427404  	33,330379  	32,738724  	36,441699  	63,356700  	27,505792  	26,050635  	28,094632  	69,101520  	0,199634  	0,101156  	-4884,372276  	25530,822265  	-0,018526  	-0,050000  	0,202376  	0,102545  	-4,223445  	4966,740495  	35725,773967  	5,181585  	-0,047952  
211,544000  	21,520747  	33,077799  	25,136641  	357,439972  	80,276344  	70,472514  	0,005609  	0,006211  	0,003956  	0,004192  	0,004228  	0,000001  	-0,000000  	26,060310  	23,563421  	24,643524  	25,049503  	29,091863  	27,745275  	29,319286  	29,434277  	33,317811  	32,738927  	36,429302  	63,358582  	27,511829  	26,041233  	28,098164  	69,100471  	0,161955  	0,082064  	-3965,802109  	12486,566008  	-0,036453  	-0,049989  	0,206494  	0,104632  	-4,298302  	4744,056965  	35596,711304  	5,162866  	-0,047942  
212,549000  	21,512950  	33,099051  	25,135965  	-242,047242  	80,278531  	70,498307  	0,005614  	0,006224  	0,003958  	0,004154  	0,004222  	0,000000  	-0,000000  	26,065472  	23,564197  	24,640875  	25,045638  	29,094262  	27,744005  	29,310576  	29,434139  	33,321025  	32,739614  	36,440272  	63,355603  	27,510722  	26,035368  	28,102357  	69,112576  	0,131799  	0,066783  	-3235,465357  	-27077,498669  	-0,102816  	-0,049999  	0,201875  	0,102292  	-4,192053  	4772,458098  	35698,016810  	5,177560  	-0,047951  
213,548000  	21,475102  	33,099667  	25,135473  	-242,047242  	80,283811  	70,512294  	0,005614  	0,006282  	0,003964  	0,004237  	0,004264  	0,000001  	-0,000000  	26,057113  	23,562416  	24,645277  	25,044862  	29,091146  	27,741458  	29,317266  	29,436481  	33,321930  	32,740218  	36,440265  	63,353741  	27,511544  	26,042883  	28,096196  	69,115632  	0,198971  	0,100820  	-4900,681506  	-27072,735464  	-0,102798  	-0,049990  	0,235156  	0,119155  	-4,878817  	4896,682103  	35697,903832  	5,177543  	-0,047942  
214,544000  	21,459632  	33,109523  	25,133630  	-242,047242  	80,288373  	70,506437  	0,005614  	0,006175  	0,003961  	0,004195  	0,004210  	0,000002  	-0,000000  	26,054088  	23,561490  	24,644289  	25,053248  	29,089353  	27,742670  	29,329614  	29,431933  	33,320292  	32,735867  	36,438430  	63,358430  	27,519598  	26,043648  	28,102221  	69,115837  	0,164753  	0,083482  	-4066,746535  	-27063,002850  	-0,102762  	-0,049969  	0,192630  	0,097607  	-4,000782  	4665,111635  	35699,174829  	5,177728  	-0,047925  
215,545000  	21,453923  	33,113774  	25,133445  	657,183579  	80,283624  	70,485192  	0,005610  	0,006281  	0,003963  	0,004174  	0,004203  	-0,000001  	-0,000000  	26,052711  	23,554326  	24,635349  	25,042863  	29,079587  	27,740982  	29,315735  	29,420856  	33,319123  	32,730008  	36,431614  	63,348578  	27,510874  	26,030644  	28,086722  	69,107637  	0,147514  	0,074746  	-3644,322336  	18450,444286  	-0,027569  	-0,050009  	0,187393  	0,094954  	-3,898566  	4894,479823  	35624,595561  	5,166911  	-0,047959  
216,546000  	21,446065  	33,109831  	25,132954  	1256,670793  	80,275938  	70,469243  	0,005611  	0,006227  	0,003957  	0,004208  	0,004194  	-0,000002  	-0,000000  	26,054369  	23,563915  	24,637676  	25,044581  	29,092327  	27,738000  	29,310166  	29,427528  	33,327308  	32,739902  	36,430110  	63,353663  	27,517475  	26,028627  	28,088407  	69,115563  	0,175301  	0,088826  	-4332,248604  	25540,562775  	-0,018533  	-0,050021  	0,180241  	0,091329  	-3,752915  	4778,910007  	35646,647356  	5,170109  	-0,047970  
217,544000  	21,431761  	33,099667  	25,131632  	57,696365  	80,273563  	70,450365  	0,005615  	0,006205  	0,003956  	0,004156  	0,004297  	0,000002  	-0,000000  	26,052976  	23,567904  	24,650395  	25,048300  	29,092612  	27,740253  	29,318655  	29,436900  	33,330065  	32,740855  	36,433297  	63,356579  	27,522328  	26,027726  	28,098418  	69,111007  	0,132726  	0,067253  	-3281,258855  	1762,748239  	-0,053810  	-0,049978  	0,261409  	0,132458  	-5,452118  	4730,970626  	35725,795151  	5,181589  	-0,047932  
218,545000  	21,435935  	33,091967  	25,130280  	1256,670793  	80,271313  	70,434915  	0,005616  	0,006231  	0,003962  	0,004200  	0,004216  	-0,000000  	-0,000000  	26,055479  	23,561544  	24,640904  	25,041543  	29,083602  	27,733328  	29,322106  	29,433700  	33,324166  	32,731949  	36,428527  	63,348019  	27,508607  	26,013027  	28,092359  	69,102889  	0,168494  	0,085377  	-4161,268832  	25533,094299  	-0,018527  	-0,050005  	0,197354  	0,100001  	-4,121666  	4787,108600  	35752,316617  	5,185435  	-0,047955  
219,547000  	21,465771  	33,083466  	25,128990  	1256,670793  	80,269407  	70,424884  	0,005612  	0,006206  	0,003961  	0,004159  	0,004280  	0,000000  	-0,000001  	26,062361  	23,561930  	24,634644  	25,043146  	29,090962  	27,734734  	29,322241  	29,434001  	33,327157  	32,738019  	36,426721  	63,350872  	27,512116  	26,013388  	28,093547  	69,106544  	0,135130  	0,068471  	-3326,295799  	25530,954273  	-0,018526  	-0,050000  	0,247757  	0,125540  	-5,178577  	4732,470412  	35657,966288  	5,171751  	-0,047951  
220,544000  	21,504693  	33,069236  	25,128006  	57,696365  	80,268658  	70,416037  	0,005611  	0,006230  	0,003961  	0,004178  	0,004215  	0,000001  	-0,000000  	26,070180  	23,562819  	24,641049  	25,047223  	29,092891  	27,740920  	29,318862  	29,430674  	33,332631  	32,740125  	36,432347  	63,354570  	27,515304  	26,010626  	28,094194  	69,107030  	0,150924  	0,076474  	-3698,080675  	1763,389043  	-0,053823  	-0,049992  	0,196631  	0,099634  	-4,113319  	4784,511565  	35630,329169  	5,167742  	-0,047944  
221,545000  	21,517677  	33,055037  	25,127023  	1256,670793  	80,267689  	70,401739  	0,005613  	0,006339  	0,003962  	0,004190  	0,004214  	0,000001  	-0,000000  	26,072324  	23,565134  	24,646143  	25,052057  	29,091328  	27,743770  	29,321698  	29,432272  	33,332502  	32,740619  	36,438504  	63,360978  	27,512272  	26,000815  	28,098708  	69,110940  	0,160299  	0,081224  	-3918,545574  	25525,633471  	-0,018522  	-0,049988  	0,195381  	0,099001  	-4,092692  	5020,014019  	35684,360655  	5,175579  	-0,047941  
222,544000  	21,539533  	33,037419  	25,126163  	657,183579  	80,266877  	70,383361  	0,005616  	0,006324  	0,003957  	0,004183  	0,004257  	0,000001  	-0,000000  	26,067182  	23,563417  	24,641780  	25,055778  	29,090182  	27,741176  	29,322967  	29,432118  	33,328724  	32,742554  	36,434292  	63,361359  	27,505373  	25,992358  	28,099319  	69,109172  	0,155018  	0,078549  	-3776,488248  	18443,980295  	-0,027559  	-0,049988  	0,230055  	0,116570  	-4,827589  	4986,718066  	35748,433016  	5,184872  	-0,047941  
223,546000  	21,559516  	33,021711  	25,125056  	-242,047242  	80,264315  	70,382520  	0,005617  	0,006338  	0,003960  	0,004274  	0,004232  	0,000001  	-0,000000  	26,061799  	23,559139  	24,637047  	25,052042  	29,088290  	27,740274  	29,318170  	29,430163  	33,321850  	32,735704  	36,431480  	63,347845  	27,500301  	25,984772  	28,090893  	69,102241  	0,228681  	0,115875  	-5553,747483  	-27072,451974  	-0,102801  	-0,049989  	0,209644  	0,106228  	-4,398501  	5017,956058  	35760,959395  	5,186689  	-0,047942  
224,544000  	21,568049  	33,027379  	25,124196  	956,927186  	80,262315  	70,412673  	0,005615  	0,006343  	0,003964  	0,004240  	0,004228  	0,000001  	-0,000000  	26,057347  	23,557966  	24,640102  	25,043619  	29,086056  	27,736767  	29,316966  	29,427581  	33,316733  	32,729833  	36,429503  	63,346028  	27,493336  	25,978590  	28,087427  	69,097722  	0,201457  	0,102080  	-4891,340200  	22474,399319  	-0,022154  	-0,049987  	0,207129  	0,104954  	-4,331631  	5028,714899  	35727,334469  	5,181812  	-0,047940  
225,546000  	21,567804  	33,042809  	25,123090  	1256,670793  	80,265564  	70,442952  	0,005611  	0,006334  	0,003963  	0,004269  	0,004279  	0,000001  	-0,000000  	26,059873  	23,561440  	24,644964  	25,045934  	29,084640  	27,735701  	29,317996  	29,421368  	33,324302  	32,734851  	36,424912  	63,359731  	27,486388  	25,975337  	28,089287  	69,094427  	0,224199  	0,113603  	-5450,960581  	25524,151143  	-0,018521  	-0,049985  	0,247398  	0,125358  	-5,159584  	5008,798875  	35646,110713  	5,170031  	-0,047938  
226,545000  	21,543677  	33,057655  	25,122598  	1256,670793  	80,275063  	70,472919  	0,005614  	0,006204  	0,003962  	0,004206  	0,004179  	0,000000  	-0,000000  	26,068208  	23,574229  	24,648834  	25,058881  	29,093494  	27,747335  	29,321968  	29,431469  	33,333927  	32,741990  	36,436113  	63,364421  	27,499376  	25,978462  	28,098662  	69,105988  	0,173807  	0,088069  	-4240,150007  	25528,839300  	-0,018524  	-0,049995  	0,167971  	0,085112  	-3,495822  	4727,647045  	35699,174829  	5,177728  	-0,047947  
227,548000  	21,523141  	33,072716  	25,122137  	357,439972  	80,283280  	70,501920  	0,005614  	0,006224  	0,003958  	0,004154  	0,004257  	0,000001  	-0,000000  	26,059774  	23,566413  	24,645270  	25,049976  	29,089301  	27,733053  	29,318477  	29,429244  	33,322712  	32,736300  	36,431093  	63,358225  	27,490430  	25,971734  	28,098294  	69,105729  	0,131550  	0,066657  	-3219,171164  	12487,594903  	-0,036454  	-0,049991  	0,230014  	0,116550  	-4,776932  	4771,059477  	35693,292938  	5,176874  	-0,047943  
228,545000  	21,503127  	33,097110  	25,121215  	956,927186  	80,283655  	70,511266  	0,005615  	0,006213  	0,003960  	0,004148  	0,004157  	-0,000000  	-0,000000  	26,057898  	23,551451  	24,636959  	25,043162  	29,084112  	27,732339  	29,306130  	29,424057  	33,315456  	32,726073  	36,421628  	63,357536  	27,483094  	25,960793  	28,084229  	69,101924  	0,126342  	0,064018  	-3103,628517  	22481,358550  	-0,022161  	-0,050004  	0,150499  	0,076259  	-3,122701  	4747,746297  	35727,270919  	5,181803  	-0,047955  
229,546000  	21,501531  	33,115221  	25,119679  	1256,670793  	80,281280  	70,493416  	0,005614  	0,006249  	0,003960  	0,004166  	0,004242  	0,000001  	-0,000001  	26,057032  	23,560330  	24,636901  	25,041850  	29,082318  	27,737097  	29,304891  	29,420766  	33,317770  	32,723452  	36,422378  	63,361446  	27,483942  	25,956969  	28,089998  	69,093866  	0,141367  	0,071632  	-3478,622366  	25525,217033  	-0,018521  	-0,049987  	0,218199  	0,110563  	-4,534567  	4825,200330  	35700,692964  	5,177948  	-0,047940  
230,544000  	21,514915  	33,121012  	25,118757  	1256,670793  	80,283218  	70,474850  	0,005608  	0,006356  	0,003963  	0,004252  	0,004221  	-0,000001  	-0,000000  	26,063558  	23,568422  	24,642598  	25,047655  	29,090785  	27,740116  	29,313933  	29,422467  	33,327777  	32,738044  	36,430187  	63,359506  	27,493364  	25,963380  	28,101696  	69,107831  	0,211089  	0,106960  	-5190,877018  	25536,640537  	-0,018530  	-0,050012  	0,201403  	0,102052  	-4,194262  	5056,719862  	35577,017915  	5,160010  	-0,047961  
231,545000  	21,503035  	33,123045  	25,118112  	1256,670793  	80,293310  	70,442889  	0,005613  	0,006339  	0,003961  	0,004203  	0,004190  	0,000001  	-0,000000  	26,052113  	23,562106  	24,641389  	25,039749  	29,082385  	27,734735  	29,308284  	29,421512  	33,321361  	32,728574  	36,424925  	63,347987  	27,474278  	25,942580  	28,084083  	69,093778  	0,171131  	0,086713  	-4213,314933  	25527,713307  	-0,018523  	-0,049992  	0,176859  	0,089616  	-3,698912  	5019,312232  	35679,417890  	5,174862  	-0,047945  
232,545000  	21,479523  	33,117747  	25,117743  	1256,670793  	80,299871  	70,446814  	0,005610  	0,006353  	0,003960  	0,004123  	0,004246  	-0,000001  	-0,000000  	26,064032  	23,565202  	24,645424  	25,041531  	29,088884  	27,741334  	29,313330  	29,431685  	33,324081  	32,736627  	36,436955  	63,359034  	27,474866  	25,947354  	28,093190  	69,093669  	0,106170  	0,053797  	-2618,064242  	25535,153378  	-0,018529  	-0,050008  	0,221329  	0,112149  	-4,630214  	5049,848437  	35621,608719  	5,166478  	-0,047959  
233,544000  	21,442872  	33,095416  	25,116698  	956,927186  	80,304464  	70,454353  	0,005615  	0,006357  	0,003959  	0,004191  	0,004236  	0,000000  	-0,000000  	26,073796  	23,562314  	24,642107  	25,054231  	29,086362  	27,750430  	29,312552  	29,429559  	33,324618  	32,731668  	36,434760  	63,359523  	27,475203  	25,942538  	28,100767  	69,086305  	0,161785  	0,081978  	-3994,382403  	22477,744889  	-0,022157  	-0,049995  	0,212813  	0,107834  	-4,450737  	5058,527387  	35716,269736  	5,180207  	-0,047947  
234,543000  	21,418071  	33,082665  	25,115838  	357,439972  	80,306089  	70,476844  	0,005610  	0,006343  	0,003963  	0,004140  	0,004263  	0,000002  	-0,000000  	26,062809  	23,558175  	24,641158  	25,050626  	29,088946  	27,733938  	29,318139  	29,431481  	33,324555  	32,741277  	36,421022  	63,350115  	27,466650  	25,942601  	28,093323  	69,081208  	0,119960  	0,060785  	-2964,816156  	12483,059186  	-0,036440  	-0,049969  	0,234223  	0,118683  	-4,888136  	5028,226054  	35619,970545  	5,166240  	-0,047925  
235,544000  	21,403521  	33,098558  	25,115469  	357,439972  	80,305777  	70,509023  	0,005615  	0,006351  	0,003959  	0,004163  	0,004246  	0,000002  	-0,000000  	26,072062  	23,571375  	24,647798  	25,051267  	29,100155  	27,753300  	29,323688  	29,439240  	33,329311  	32,737563  	36,429502  	63,356878  	27,463466  	25,955314  	28,102790  	69,083708  	0,139013  	0,070439  	-3444,684821  	12485,692547  	-0,036448  	-0,049981  	0,221134  	0,112050  	-4,599729  	5046,150616  	35731,175704  	5,182369  	-0,047935  
236,545000  	21,409415  	33,112788  	25,115224  	-242,047242  	80,302965  	70,534006  	0,005616  	0,006344  	0,003963  	0,004217  	0,004231  	0,000002  	-0,000001  	26,067751  	23,565281  	24,654258  	25,050196  	29,095118  	27,750100  	29,319611  	29,442363  	33,323195  	32,739358  	36,429245  	63,356840  	27,466741  	25,946205  	28,101648  	69,080661  	0,182694  	0,092572  	-4530,298076  	-27067,897593  	-0,102787  	-0,049980  	0,208918  	0,105860  	-4,333319  	5030,242275  	35739,613710  	5,183593  	-0,047935  
237,545000  	21,445666  	33,102593  	25,114824  	1256,670793  	80,298965  	70,546436  	0,005613  	0,006357  	0,003959  	0,004143  	0,004204  	0,000001  	-0,000001  	26,065370  	23,571532  	24,646202  	25,044588  	29,090422  	27,746922  	29,322741  	29,442024  	33,322684  	32,733067  	36,420883  	63,347603  	27,466925  	25,945872  	28,099742  	69,094585  	0,122267  	0,061954  	-3019,845001  	25523,373793  	-0,018520  	-0,049982  	0,188015  	0,095269  	-3,893209  	5059,435040  	35690,779189  	5,176510  	-0,047936  
238,546000  	21,483973  	33,097726  	25,115193  	657,183579  	80,296278  	70,555781  	0,005613  	0,006336  	0,003957  	0,004253  	0,004188  	-0,000000  	-0,000000  	26,059838  	23,558818  	24,642738  	25,050296  	29,083664  	27,729380  	29,322757  	29,438245  	33,326992  	32,742891  	36,416019  	63,347075  	27,460933  	25,932166  	28,098042  	69,088201  	0,211396  	0,107116  	-5201,857490  	18449,632855  	-0,027567  	-0,050004  	0,174803  	0,088574  	-3,615159  	5013,639929  	35684,664282  	5,175623  	-0,047955  
239,544000  	21,501470  	33,096525  	25,115469  	-242,047242  	80,300121  	70,570952  	0,005615  	0,006220  	0,003959  	0,004173  	0,004237  	0,000001  	-0,000000  	26,072282  	23,561286  	24,650707  	25,044755  	29,087050  	27,741529  	29,316942  	29,436779  	33,320671  	32,738353  	36,427478  	63,349321  	27,456776  	25,928888  	28,090437  	69,088805  	0,146720  	0,074344  	-3604,561049  	-27071,529356  	-0,102801  	-0,049988  	0,214131  	0,108502  	-4,423391  	4764,038074  	35713,021633  	5,179736  	-0,047941  
240,544000  	21,498646  	33,097511  	25,115531  	956,927186  	80,301683  	70,586342  	0,005612  	0,006234  	0,003960  	0,004177  	0,004279  	0,000000  	-0,000000  	26,066791  	23,564799  	24,642236  	25,040863  	29,089790  	27,748084  	29,322201  	29,431543  	33,328599  	32,744087  	36,426157  	63,356237  	27,470909  	25,928292  	28,093853  	69,087366  	0,150066  	0,076040  	-3687,968398  	22477,991918  	-0,022157  	-0,049995  	0,247482  	0,125401  	-5,105081  	4792,498632  	35654,442803  	5,171240  	-0,047947  
241,547000  	21,508990  	33,089934  	25,116299  	1256,670793  	80,297778  	70,585376  	0,005618  	0,006345  	0,003961  	0,004139  	0,004279  	0,000002  	-0,000000  	26,061786  	23,562637  	24,635631  	25,050304  	29,093883  	27,742709  	29,316953  	29,429001  	33,317288  	32,738440  	36,431428  	63,363244  	27,471207  	25,928839  	28,096037  	69,089922  	0,119437  	0,060519  	-2930,691818  	25522,293962  	-0,018519  	-0,049980  	0,246878  	0,125095  	-5,091070  	5032,247177  	35778,838084  	5,189282  	-0,047934  
242,545000  	21,532380  	33,089811  	25,115562  	1256,670793  	80,300152  	70,561264  	0,005614  	0,006348  	0,003960  	0,004236  	0,004273  	-0,000001  	-0,000000  	26,059740  	23,560476  	24,648911  	25,046309  	29,089352  	27,743262  	29,321641  	29,437151  	33,317883  	32,739035  	36,427127  	63,357996  	27,465323  	25,918743  	28,090377  	69,091021  	0,197610  	0,100131  	-4839,041672  	25534,936162  	-0,018528  	-0,050008  	0,242241  	0,122745  	-5,009060  	5039,122846  	35702,634765  	5,178229  	-0,047958  
243,549000  	21,546102  	33,094893  	25,115654  	357,439972  	80,304683  	70,526468  	0,005614  	0,006223  	0,003961  	0,004211  	0,004224  	-0,000001  	-0,000000  	26,065302  	23,561588  	24,642923  	25,040646  	29,086789  	27,742409  	29,321524  	29,432154  	33,321454  	32,740593  	36,428507  	63,353550  	27,452428  	25,921096  	28,090959  	69,091623  	0,177854  	0,090120  	-4351,979591  	12492,001660  	-0,036467  	-0,050009  	0,203729  	0,103231  	-4,229704  	4768,886202  	35711,044527  	5,179449  	-0,047959  
244,547000  	21,545242  	33,095324  	25,115224  	956,927186  	80,300559  	70,512013  	0,005614  	0,006209  	0,003954  	0,004216  	0,004228  	-0,000002  	-0,000001  	26,058010  	23,563000  	24,640252  	25,046390  	29,084571  	27,743227  	29,318813  	29,432215  	33,323565  	32,743585  	36,429714  	63,357750  	27,460642  	25,921431  	28,096445  	69,091017  	0,181989  	0,092215  	-4453,659058  	22488,843379  	-0,022168  	-0,050022  	0,206955  	0,104866  	-4,301208  	4739,955192  	35691,153427  	5,176564  	-0,047971  
245,544000  	21,527776  	33,094123  	25,114793  	956,927186  	80,292185  	70,522636  	0,005615  	0,006293  	0,003959  	0,004215  	0,004263  	-0,000000  	-0,000000  	26,057361  	23,558442  	24,641805  	25,046337  	29,084076  	27,738162  	29,313673  	29,429184  	33,328263  	32,742790  	36,423383  	63,354947  	27,455224  	25,918991  	28,092713  	69,088002  	0,181210  	0,091820  	-4440,859584  	22479,898966  	-0,022159  	-0,050000  	0,234828  	0,118989  	-4,871025  	4920,676554  	35715,761337  	5,180133  	-0,047951  
246,544000  	21,552763  	33,100283  	25,114978  	357,439972  	80,284936  	70,518836  	0,005619  	0,006357  	0,003964  	0,004201  	0,004279  	0,000004  	-0,000001  	26,058413  	23,553879  	24,645819  	25,043929  	29,084802  	27,734556  	29,317349  	29,429304  	33,328877  	32,734061  	36,420852  	63,353644  	27,450002  	25,916232  	28,094541  	69,084749  	0,169430  	0,085852  	-4145,407210  	12479,108820  	-0,036429  	-0,049951  	0,247534  	0,125427  	-5,132768  	5058,989349  	35799,463537  	5,192273  	-0,047909  
247,547000  	21,584257  	33,106659  	25,113595  	1256,670793  	80,281155  	70,499646  	0,005612  	0,006334  	0,003962  	0,004175  	0,004202  	0,000000  	-0,000001  	26,054229  	23,558305  	24,644957  	25,044561  	29,086388  	27,738127  	29,318838  	29,430770  	33,330072  	32,737775  	36,425172  	63,355879  	27,458989  	25,914640  	28,097193  	69,086158  	0,148023  	0,075004  	-3613,748043  	25531,380237  	-0,018526  	-0,050000  	0,186574  	0,094539  	-3,874832  	5009,648518  	35658,743009  	5,171863  	-0,047951  
248,547000  	21,578179  	33,105242  	25,113964  	1256,670793  	80,279968  	70,497715  	0,005611  	0,006164  	0,003964  	0,004198  	0,004218  	0,000001  	-0,000000  	26,056200  	23,559173  	24,640544  	25,049007  	29,087949  	27,743960  	29,318378  	29,432110  	33,329539  	32,744937  	36,425799  	63,351545  	27,459069  	25,918260  	28,098708  	69,093542  	0,167223  	0,084733  	-4084,140404  	25524,018654  	-0,018520  	-0,049984  	0,198805  	0,100736  	-4,129158  	4643,030119  	35642,841426  	5,169557  	-0,047937  
249,546000  	21,552087  	33,093230  	25,113534  	1256,670793  	80,276719  	70,509584  	0,005613  	0,006221  	0,003957  	0,004106  	0,004213  	0,000000  	-0,000000  	26,059435  	23,557167  	24,638748  	25,053688  	29,086528  	27,742616  	29,318469  	29,434613  	33,328664  	32,742220  	36,423559  	63,350626  	27,454821  	25,920017  	28,104068  	69,096484  	0,092855  	0,047051  	-2270,616716  	25531,268179  	-0,018526  	-0,050000  	0,194906  	0,098760  	-4,041929  	4765,709769  	35671,551832  	5,173721  	-0,047951  
250,545000  	21,528329  	33,097049  	25,112120  	657,183579  	80,273532  	70,525035  	0,005614  	0,006353  	0,003963  	0,004133  	0,004254  	-0,000001  	-0,000000  	26,062049  	23,566790  	24,643838  	25,055658  	29,090788  	27,742797  	29,320046  	29,436722  	33,331791  	32,746319  	36,433607  	63,359476  	27,463003  	25,920651  	28,106007  	69,096421  	0,114677  	0,058108  	-2810,940883  	18454,114980  	-0,027574  	-0,050017  	0,227636  	0,115345  	-4,711677  	5049,111279  	35709,674675  	5,179250  	-0,047966  
251,548000  	21,499966  	33,111186  	25,112304  	657,183579  	80,273282  	70,502948  	0,005614  	0,006339  	0,003959  	0,004208  	0,004256  	0,000000  	-0,000000  	26,063386  	23,569626  	24,647979  	25,050359  	29,093974  	27,748631  	29,325458  	29,439438  	33,326862  	32,750263  	36,437966  	63,363758  	27,461848  	25,916066  	28,099858  	69,094196  	0,174904  	0,088625  	-4302,962248  	18448,039898  	-0,027565  	-0,049999  	0,229381  	0,116229  	-4,758411  	5019,864748  	35705,614546  	5,178662  	-0,047950  
252,544000  	21,473752  	33,118271  	25,112366  	57,696365  	80,270470  	70,477654  	0,005613  	0,006338  	0,003962  	0,004172  	0,004274  	0,000001  	-0,000000  	26,052911  	23,555654  	24,636685  	25,036560  	29,081551  	27,743032  	29,320088  	29,434957  	33,323057  	32,740447  	36,420047  	63,360143  	27,443188  	25,900255  	28,089305  	69,082777  	0,146158  	0,074060  	-3606,081603  	1764,240316  	-0,053824  	-0,049990  	0,243484  	0,123375  	-5,062578  	5017,231633  	35685,377453  	5,175726  	-0,047943  
253,544000  	21,509021  	33,109616  	25,112366  	-242,047242  	80,261440  	70,499802  	0,005616  	0,006249  	0,003964  	0,004153  	0,004224  	0,000001  	-0,000000  	26,055270  	23,554702  	24,638296  	25,043632  	29,083495  	27,743261  	29,320078  	29,433281  	33,334029  	32,737430  	36,423093  	63,355810  	27,444825  	25,903378  	28,088751  	69,084118  	0,130850  	0,066303  	-3216,207528  	-27071,847669  	-0,102803  	-0,049989  	0,203961  	0,103349  	-4,227324  	4825,791755  	35736,577440  	5,183152  	-0,047942  
254,546000  	21,542050  	33,107398  	25,111690  	-242,047242  	80,249005  	70,518618  	0,005614  	0,006248  	0,003960  	0,004152  	0,004235  	0,000001  	-0,000001  	26,068206  	23,564121  	24,649393  	25,061921  	29,093829  	27,745852  	29,322390  	29,444438  	33,335314  	32,742892  	36,431784  	63,354878  	27,458118  	25,905019  	28,090775  	69,088346  	0,129853  	0,065797  	-3181,988022  	-27072,200475  	-0,102805  	-0,049989  	0,212413  	0,107631  	-4,388417  	4822,940747  	35707,867035  	5,178988  	-0,047942  
255,543000  	21,555679  	33,114605  	25,110491  	657,183579  	80,239725  	70,525627  	0,005613  	0,006298  	0,003959  	0,004164  	0,004183  	0,000001  	-0,000000  	26,063060  	23,570621  	24,644191  	25,060023  	29,096746  	27,744543  	29,323076  	29,447684  	33,333056  	32,749096  	36,438609  	63,361878  	27,459947  	25,904224  	28,093385  	69,097521  	0,139300  	0,070585  	-3411,596110  	18445,939173  	-0,027561  	-0,049992  	0,171003  	0,086648  	-3,526976  	4931,511092  	35675,668449  	5,174318  	-0,047944  
256,545000  	21,582569  	33,110540  	25,111106  	1256,670793  	80,237725  	70,503385  	0,005614  	0,006382  	0,003959  	0,004100  	0,004178  	0,000001  	-0,000000  	26,064468  	23,569482  	24,642331  	25,055581  	29,095005  	27,750512  	29,318010  	29,441497  	33,331541  	32,746884  	36,433828  	63,364786  	27,454684  	25,906697  	28,093461  	69,086241  	0,087842  	0,044510  	-2145,567934  	25525,070373  	-0,018521  	-0,049986  	0,167545  	0,084896  	-3,462852  	5112,777894  	35699,880938  	5,177830  	-0,047939  
257,548000  	21,593005  	33,111618  	25,109785  	-242,047242  	80,242724  	70,485940  	0,005616  	0,006347  	0,003961  	0,004272  	0,004285  	0,000001  	-0,000000  	26,070882  	23,567902  	24,651053  	25,061366  	29,097238  	27,752941  	29,322199  	29,445632  	33,345959  	32,748781  	36,430214  	63,366454  	27,461588  	25,914828  	28,109192  	69,097712  	0,227305  	0,115177  	-5547,475466  	-27071,054519  	-0,102801  	-0,049987  	0,251911  	0,127645  	-5,218528  	5036,291647  	35744,944836  	5,184366  	-0,047940  
258,544000  	21,582139  	33,110755  	25,110153  	-242,047242  	80,243849  	70,489180  	0,005616  	0,006299  	0,003963  	0,004252  	0,004256  	0,000002  	-0,000000  	26,076078  	23,569488  	24,649039  	25,052821  	29,106868  	27,764791  	29,327398  	29,450113  	33,338963  	32,747148  	36,431944  	63,368836  	27,478245  	25,914031  	28,106558  	69,110012  	0,210789  	0,106808  	-5148,857728  	-27063,648258  	-0,102773  	-0,049972  	0,229086  	0,116079  	-4,744656  	4932,435016  	35737,982598  	5,183356  	-0,047927  
259,546000  	21,561419  	33,113435  	25,110522  	657,183579  	80,241693  	70,501266  	0,005612  	0,006204  	0,003958  	0,004173  	0,004268  	0,000000  	-0,000000  	26,065029  	23,554035  	24,638921  	25,051518  	29,090304  	27,742064  	29,323367  	29,442273  	33,335967  	32,743051  	36,427757  	63,361341  	27,456864  	25,915609  	28,096357  	69,087708  	0,146649  	0,074308  	-3589,429040  	18446,972720  	-0,027563  	-0,049995  	0,238333  	0,120765  	-4,928980  	4729,434761  	35659,434996  	5,171964  	-0,047947  
260,544000  	21,533056  	33,118178  	25,111014  	1256,670793  	80,240256  	70,509054  	0,005613  	0,006220  	0,003961  	0,004220  	0,004225  	-0,000001  	-0,000000  	26,072920  	23,558840  	24,647127  	25,057285  	29,079726  	27,753696  	29,326381  	29,443166  	33,336197  	32,737126  	36,425202  	63,361845  	27,454067  	25,915021  	28,097536  	69,093369  	0,184710  	0,093594  	-4533,973791  	25535,319135  	-0,018529  	-0,050008  	0,204097  	0,103417  	-4,216946  	4763,688596  	35682,899009  	5,175367  	-0,047958  
261,544000  	21,522128  	33,137090  	25,109815  	1256,670793  	80,245068  	70,515035  	0,005614  	0,006244  	0,003958  	0,004215  	0,004327  	0,000001  	-0,000000  	26,055137  	23,561340  	24,653499  	25,045203  	29,081476  	27,748595  	29,314625  	29,437105  	33,325811  	32,744136  	36,418166  	63,359416  	27,443749  	25,907223  	28,073885  	69,093182  	0,180775  	0,091600  	-4448,830511  	25528,191531  	-0,018523  	-0,049992  	0,285505  	0,144667  	-5,898253  	4814,404702  	35701,582662  	5,178077  	-0,047945  
262,545000  	21,520593  	33,150396  	25,109139  	1256,670793  	80,246692  	70,490675  	0,005612  	0,006276  	0,003959  	0,004176  	0,004285  	-0,000002  	-0,000001  	26,078155  	23,568669  	24,662641  	25,067848  	29,093007  	27,757883  	29,335588  	29,462083  	33,357287  	32,752770  	36,441799  	63,363909  	27,471338  	25,921135  	28,102120  	69,109274  	0,149006  	0,075503  	-3671,691395  	25543,933633  	-0,018535  	-0,050027  	0,252299  	0,127842  	-5,226160  	4883,420318  	35661,673362  	5,172288  	-0,047975  
263,551000  	21,522251  	33,158158  	25,109969  	1256,670793  	80,242974  	70,463293  	0,005611  	0,006308  	0,003963  	0,004150  	0,004230  	-0,000000  	-0,000000  	26,074026  	23,571099  	24,648165  	25,055001  	29,098985  	27,747476  	29,340054  	29,446643  	33,341126  	32,750182  	36,432766  	63,367043  	27,460692  	25,909690  	28,094047  	69,098882  	0,127999  	0,064858  	-3155,686371  	25532,632627  	-0,018527  	-0,050002  	0,208080  	0,105436  	-4,320642  	4951,840971  	35628,493285  	5,167476  	-0,047953  
264,550000  	21,524400  	33,151628  	25,110707  	57,696365  	80,237725  	70,451518  	0,005610  	0,006347  	0,003960  	0,004240  	0,004231  	0,000002  	-0,000000  	26,072694  	23,567547  	24,654846  	25,055074  	29,104370  	27,760833  	29,330383  	29,454966  	33,346306  	32,757637  	36,436368  	63,370115  	27,471265  	25,918637  	28,096334  	69,097383  	0,201346  	0,102024  	-4960,300266  	1763,885925  	-0,053810  	-0,049976  	0,209339  	0,106074  	-4,349667  	5036,960184  	35605,255227  	5,164106  	-0,047931  
265,545000  	21,537445  	33,123168  	25,110860  	-242,047242  	80,237538  	70,433388  	0,005616  	0,006356  	0,003963  	0,004255  	0,004201  	0,000001  	-0,000000  	26,068132  	23,573645  	24,651153  	25,053375  	29,094489  	27,754097  	29,316876  	29,445171  	33,338827  	32,750098  	36,434550  	63,361522  	27,466338  	25,909804  	28,091410  	69,093235  	0,213086  	0,107972  	-5230,766890  	-27068,334533  	-0,102791  	-0,049981  	0,185116  	0,093800  	-3,853408  	5055,387033  	35736,697479  	5,183170  	-0,047936  
266,548000  	21,556722  	33,101484  	25,110246  	357,439972  	80,236038  	70,449898  	0,005612  	0,006258  	0,003956  	0,004165  	0,004255  	0,000000  	-0,000000  	26,066160  	23,566199  	24,647022  	25,057918  	29,097911  	27,747453  	29,325017  	29,445358  	33,344835  	32,752776  	36,425934  	63,359515  	27,460926  	25,908662  	28,091558  	69,090908  	0,140586  	0,071236  	-3438,868949  	12489,462937  	-0,036459  	-0,049996  	0,228224  	0,115643  	-4,742022  	4844,198796  	35653,150623  	5,171052  	-0,047948  
267,544000  	21,568326  	33,098527  	25,111167  	357,439972  	80,230664  	70,474102  	0,005614  	0,006178  	0,003961  	0,004255  	0,004284  	0,000002  	-0,000000  	26,073078  	23,577206  	24,652111  	25,070469  	29,108108  	27,757940  	29,344410  	29,454421  	33,351192  	32,758486  	36,435998  	63,368092  	27,475410  	25,919682  	28,102124  	69,093545  	0,213151  	0,108005  	-5207,297789  	12486,033585  	-0,036449  	-0,049981  	0,251531  	0,127453  	-5,210528  	4673,134075  	35699,443150  	5,177766  	-0,047935  
268,546000  	21,558380  	33,106905  	25,110799  	-242,047242  	80,226602  	70,495846  	0,005614  	0,006227  	0,003961  	0,004178  	0,004239  	-0,000001  	-0,000000  	26,076181  	23,575383  	24,653890  	25,063999  	29,110486  	27,760154  	29,340282  	29,455696  	33,347080  	32,751294  	36,444181  	63,367523  	27,473280  	25,915558  	28,102645  	69,091365  	0,150564  	0,076292  	-3684,128557  	-27081,370563  	-0,102840  	-0,050008  	0,215888  	0,109392  	-4,460359  	4779,084039  	35700,332848  	5,177896  	-0,047959  
269,545000  	21,541313  	33,116176  	25,110707  	57,696365  	80,227102  	70,500083  	0,005617  	0,006207  	0,003962  	0,004160  	0,004237  	-0,000001  	-0,000000  	26,074414  	23,573946  	24,651802  	25,059448  	29,104840  	27,756394  	29,338282  	29,449978  	33,350051  	32,755852  	36,434361  	63,363005  	27,467694  	25,906949  	28,093888  	69,080370  	0,136179  	0,069003  	-3339,750767  	1764,990272  	-0,053844  	-0,050011  	0,213891  	0,108380  	-4,417411  	4734,296331  	35764,242804  	5,187165  	-0,047961  
270,545000  	21,542357  	33,124492  	25,110645  	657,183579  	80,228727  	70,474850  	0,005613  	0,006226  	0,003964  	0,004166  	0,004245  	0,000000  	-0,000000  	26,080959  	23,581466  	24,659841  	25,066820  	29,111228  	27,761088  	29,341866  	29,461216  	33,354803  	32,764270  	36,436682  	63,371095  	27,472833  	25,914160  	28,093062  	69,084366  	0,141244  	0,071569  	-3466,141744  	18446,556797  	-0,027562  	-0,049994  	0,220660  	0,111810  	-4,569763  	4776,494786  	35687,580514  	5,176046  	-0,047946  
271,545000  	21,527254  	33,137429  	25,110369  	657,183579  	80,235007  	70,447936  	0,005614  	0,006300  	0,003959  	0,004183  	0,004196  	0,000001  	-0,000000  	26,084127  	23,581482  	24,659938  	25,069215  	29,106776  	27,756466  	29,341965  	29,465750  	33,355998  	32,764861  	36,437026  	63,372025  	27,473815  	25,914563  	28,100392  	69,082179  	0,155300  	0,078692  	-3820,313497  	18443,181634  	-0,027557  	-0,049984  	0,181497  	0,091966  	-3,771497  	4935,904332  	35711,785942  	5,179557  	-0,047937  
272,546000  	21,509880  	33,137490  	25,108894  	1256,670793  	80,243381  	70,424012  	0,005615  	0,006217  	0,003960  	0,004192  	0,004223  	-0,000001  	-0,000000  	26,086498  	23,581660  	24,664643  	25,075043  	29,107785  	27,760067  	29,345082  	29,465969  	33,355410  	32,768248  	36,437378  	63,372640  	27,476894  	25,918440  	28,107149  	69,090493  	0,162226  	0,082201  	-3996,680565  	25539,706796  	-0,018532  	-0,050018  	0,203074  	0,102899  	-4,233778  	4757,308846  	35714,928128  	5,180012  	-0,047967  
273,544000  	21,495822  	33,124092  	25,108740  	1256,670793  	80,246193  	70,411084  	0,005614  	0,006227  	0,003959  	0,004175  	0,004175  	0,000002  	-0,000000  	26,085739  	23,584059  	24,666364  	25,078332  	29,112577  	27,765640  	29,349434  	29,465265  	33,356421  	32,769223  	36,439358  	63,375195  	27,486172  	25,923906  	28,109641  	69,095194  	0,148510  	0,075251  	-3658,993368  	25520,641118  	-0,018518  	-0,049976  	0,164699  	0,083454  	-3,439213  	4778,886661  	35708,396617  	5,179065  	-0,047931  
274,546000  	21,482623  	33,114359  	25,107818  	1256,670793  	80,247005  	70,407097  	0,005613  	0,006258  	0,003961  	0,004217  	0,004290  	-0,000001  	-0,000000  	26,089604  	23,588930  	24,664377  	25,075350  	29,112253  	27,763646  	29,348767  	29,465824  	33,358406  	32,762965  	36,441445  	63,371004  	27,481981  	25,918823  	28,105673  	69,092406  	0,182327  	0,092386  	-4493,507285  	25537,301734  	-0,018530  	-0,050012  	0,255742  	0,129586  	-5,342967  	4845,487056  	35689,338726  	5,176301  	-0,047962  
275,545000  	21,498370  	33,103917  	25,107542  	357,439972  	80,248036  	70,399777  	0,005611  	0,006311  	0,003960  	0,004228  	0,004236  	-0,000000  	-0,000000  	26,093283  	23,588811  	24,663438  	25,074705  	29,111749  	27,766491  	29,344247  	29,463887  	33,358224  	32,763058  	36,441772  	63,368492  	27,475297  	25,914185  	28,097309  	69,092906  	0,191031  	0,096797  	-4697,424725  	12490,916954  	-0,036463  	-0,050002  	0,213506  	0,108185  	-4,464350  	4959,766490  	35645,778841  	5,169983  	-0,047953  
276,549000  	21,505368  	33,097942  	25,106804  	956,927186  	80,251660  	70,398219  	0,005612  	0,006194  	0,003959  	0,004107  	0,004270  	0,000000  	-0,000000  	26,088193  	23,580753  	24,658086  	25,069669  	29,109342  	27,768623  	29,337610  	29,454075  	33,357273  	32,764488  	36,438131  	63,369524  	27,476264  	25,909825  	28,093548  	69,090068  	0,092966  	0,047107  	-2283,458049  	22479,125781  	-0,022158  	-0,049997  	0,239983  	0,121601  	-5,020617  	4707,909297  	35667,957735  	5,173200  	-0,047949  
277,543000  	21,521361  	33,081063  	25,107204  	1256,670793  	80,245630  	70,397160  	0,005610  	0,006270  	0,003961  	0,004194  	0,004217  	-0,000000  	-0,000000  	26,084924  	23,583186  	24,660869  	25,065781  	29,108116  	27,762875  	29,334379  	29,451994  	33,356271  	32,757770  	36,436780  	63,367067  	27,472527  	25,903400  	28,091386  	69,091053  	0,163518  	0,082856  	-4004,993153  	25534,343260  	-0,018528  	-0,050006  	0,197862  	0,100258  	-4,137315  	4869,944884  	35619,299741  	5,166143  	-0,047956  
278,547000  	21,533086  	33,079339  	25,106343  	1256,670793  	80,242131  	70,406568  	0,005614  	0,006220  	0,003959  	0,004148  	0,004225  	-0,000001  	-0,000000  	26,078481  	23,586631  	24,660884  	25,071258  	29,105999  	27,758135  	29,334424  	29,454141  	33,349329  	32,754269  	36,434329  	63,364587  	27,472780  	25,904465  	28,082954  	69,093090  	0,126495  	0,064096  	-3094,575104  	25538,510612  	-0,018531  	-0,050015  	0,204139  	0,103439  	-4,262995  	4764,163292  	35700,664720  	5,177944  	-0,047964  
279,545000  	21,530600  	33,081371  	25,106989  	357,439972  	80,245099  	70,410493  	0,005615  	0,006199  	0,003958  	0,004189  	0,004223  	0,000001  	-0,000000  	26,082416  	23,581966  	24,651070  	25,070646  	29,104746  	27,761586  	29,335912  	29,453697  	33,344813  	32,756207  	36,435513  	63,362864  	27,471875  	25,905679  	28,087699  	69,096804  	0,159756  	0,080949  	-3909,806503  	12487,691104  	-0,036453  	-0,049988  	0,202834  	0,102777  	-4,235317  	4716,804017  	35723,295524  	5,181226  	-0,047941  
280,548000  	21,534898  	33,078907  	25,106927  	956,927186  	80,249973  	70,408935  	0,005613  	0,006213  	0,003961  	0,004200  	0,004267  	0,000001  	-0,000001  	26,098961  	23,592895  	24,664960  	25,077722  	29,115159  	27,770320  	29,350422  	29,466863  	33,356943  	32,769992  	36,447053  	63,363924  	27,477383  	25,911029  	28,104353  	69,106997  	0,168730  	0,085497  	-4127,022964  	22476,851136  	-0,022156  	-0,049992  	0,237674  	0,120431  	-4,966061  	4747,176803  	35670,189041  	5,173524  	-0,047944  
281,545000  	21,525934  	33,077860  	25,106282  	1256,670793  	80,252160  	70,412549  	0,005613  	0,006309  	0,003961  	0,004223  	0,004189  	0,000001  	-0,000000  	26,087905  	23,582636  	24,655486  	25,069562  	29,113739  	27,758903  	29,334153  	29,455576  	33,352727  	32,766625  	36,439069  	63,359192  	27,470306  	25,899204  	28,091917  	69,099092  	0,187460  	0,094987  	-4588,294476  	25528,534131  	-0,018524  	-0,049993  	0,176193  	0,089278  	-3,680923  	4955,047825  	35690,842739  	5,176519  	-0,047945  
282,545000  	21,491432  	33,073055  	25,106589  	657,183579  	80,258222  	70,404823  	0,005614  	0,006191  	0,003957  	0,004151  	0,004164  	0,000001  	-0,000000  	26,080786  	23,574133  	24,661937  	25,067042  	29,110016  	27,766446  	29,332018  	29,445496  	33,350959  	32,759728  	36,428430  	63,362334  	27,467972  	25,901955  	28,088922  	69,098218  	0,129275  	0,065505  	-3172,291264  	18444,963438  	-0,027560  	-0,049988  	0,156335  	0,079216  	-3,270618  	4700,431591  	35694,867562  	5,177103  	-0,047942  
283,544000  	21,456624  	33,061875  	25,107142  	657,183579  	80,268095  	70,376695  	0,005611  	0,006263  	0,003960  	0,004165  	0,004271  	-0,000001  	-0,000000  	26,089010  	23,582238  	24,668717  	25,067068  	29,109241  	27,770875  	29,334980  	29,450372  	33,350353  	32,758297  	36,433358  	63,363839  	27,474874  	25,902119  	28,086437  	69,111192  	0,140500  	0,071192  	-3454,789684  	18450,846479  	-0,027569  	-0,050006  	0,241065  	0,122150  	-5,062669  	4855,337536  	35636,493504  	5,168636  	-0,047957  
284,551000  	21,461658  	33,062183  	25,106466  	1256,670793  	80,274532  	70,378314  	0,005616  	0,006352  	0,003960  	0,004157  	0,004284  	0,000003  	-0,000000  	26,074690  	23,582241  	24,654587  	25,063828  	29,104930  	27,752473  	29,330829  	29,448745  	33,348804  	32,758799  	36,436122  	63,350719  	27,479429  	25,903657  	28,084697  	69,109140  	0,133677  	0,067735  	-3285,673956  	25517,298873  	-0,018515  	-0,049968  	0,251123  	0,127246  	-5,276463  	5047,109913  	35738,250919  	5,183395  	-0,047924  
285,545000  	21,482347  	33,068343  	25,107787  	1256,670793  	80,279343  	70,381834  	0,005614  	0,006232  	0,003964  	0,004180  	0,004266  	0,000000  	-0,000000  	26,086965  	23,575291  	24,665372  	25,066970  	29,113878  	27,759235  	29,332297  	29,451819  	33,343674  	32,765280  	36,438018  	63,356447  	27,468851  	25,905213  	28,092514  	69,115263  	0,152312  	0,077177  	-3739,004830  	25530,347540  	-0,018525  	-0,049997  	0,236818  	0,119997  	-4,976536  	4788,615460  	35698,080359  	5,177569  	-0,047949  
286,544000  	21,499904  	33,070437  	25,107787  	657,183579  	80,281718  	70,391616  	0,005614  	0,006266  	0,003961  	0,004158  	0,004212  	0,000002  	-0,000001  	26,087310  	23,582732  	24,658973  	25,065666  	29,105079  	27,754720  	29,348078  	29,454269  	33,351608  	32,763765  	36,447197  	63,364173  	27,473026  	25,916031  	28,096245  	69,127706  	0,134948  	0,068379  	-3308,342236  	18440,221863  	-0,027553  	-0,049974  	0,193924  	0,098263  	-4,072111  	4862,637672  	35699,697350  	5,177803  	-0,047929  
287,543000  	21,530293  	33,071454  	25,108709  	-242,047242  	80,283061  	70,423700  	0,005616  	0,006261  	0,003960  	0,004225  	0,004187  	-0,000001  	-0,000000  	26,072996  	23,576469  	24,664715  	25,074405  	29,105973  	27,751932  	29,338173  	29,449650  	33,347005  	32,762366  	36,439616  	63,367934  	27,473205  	25,912293  	28,098724  	69,128104  	0,189187  	0,095863  	-4626,258710  	-27085,152133  	-0,102855  	-0,050016  	0,174687  	0,088515  	-3,656780  	4850,971178  	35755,670637  	5,185922  	-0,047965  
288,548000  	21,539870  	33,065109  	25,108832  	-242,047242  	80,284436  	70,423514  	0,005613  	0,006196  	0,003958  	0,004175  	0,004227  	-0,000001  	-0,000000  	26,084978  	23,580053  	24,664136  	25,069619  	29,099881  	27,756827  	29,330932  	29,448853  	33,343355  	32,752999  	36,429175  	63,349715  	27,465990  	25,912147  	28,095487  	69,132690  	0,148760  	0,075378  	-3632,659623  	-27085,799112  	-0,102858  	-0,050018  	0,206429  	0,104599  	-4,321937  	4710,764550  	35671,622443  	5,173731  	-0,047967  
289,546000  	21,527899  	33,067203  	25,108986  	1256,670793  	80,283593  	70,432485  	0,005618  	0,006281  	0,003956  	0,004159  	0,004260  	0,000001  	-0,000000  	26,077209  	23,579565  	24,669489  	25,064185  	29,101177  	27,757031  	29,333800  	29,447199  	33,333167  	32,752678  	36,424985  	63,356609  	27,462537  	25,913437  	28,082680  	69,119105  	0,135594  	0,068707  	-3315,197178  	25528,164193  	-0,018523  	-0,049992  	0,232553  	0,117836  	-4,864048  	4895,047903  	35782,022637  	5,189744  	-0,047945  
290,544000  	21,532565  	33,065786  	25,110215  	1256,670793  	80,283718  	70,439712  	0,005613  	0,006354  	0,003964  	0,004233  	0,004195  	-0,000000  	-0,000001  	26,090991  	23,582459  	24,674930  	25,073370  	29,105658  	27,767460  	29,337818  	29,450392  	33,346290  	32,766083  	36,434732  	63,370919  	27,476472  	25,916625  	28,096994  	69,143943  	0,195475  	0,099049  	-4776,733982  	25531,629997  	-0,018526  	-0,050000  	0,180894  	0,091660  	-3,780826  	5052,340770  	35685,553980  	5,175752  	-0,047951  
291,545000  	21,538642  	33,059411  	25,110307  	1256,670793  	80,284217  	70,436877  	0,005612  	0,006265  	0,003964  	0,004154  	0,004238  	0,000001  	-0,000000  	26,079463  	23,581158  	24,666661  	25,070196  	29,101201  	27,760229  	29,342616  	29,452358  	33,339131  	32,758454  	36,438585  	63,368060  	27,471631  	25,921871  	28,088844  	69,135071  	0,131086  	0,066422  	-3199,827901  	25523,168628  	-0,018520  	-0,049982  	0,214508  	0,108693  	-4,484905  	4860,543632  	35668,430829  	5,173269  	-0,047936  
292,546000  	21,528820  	33,071361  	25,111475  	1256,670793  	80,285967  	70,430336  	0,005613  	0,006297  	0,003960  	0,004167  	0,004252  	0,000000  	-0,000000  	26,078989  	23,587371  	24,660384  	25,065878  	29,108369  	27,759204  	29,335969  	29,453791  	33,336531  	32,747535  	36,431512  	63,363874  	27,452790  	25,919043  	28,093086  	69,128885  	0,142028  	0,071966  	-3473,463597  	25529,543755  	-0,018524  	-0,049996  	0,225668  	0,114348  	-4,722202  	4929,494870  	35670,972822  	5,173637  	-0,047948  
293,544000  	21,515866  	33,087870  	25,112950  	1256,670793  	80,288873  	70,453481  	0,005616  	0,006225  	0,003961  	0,004155  	0,004233  	0,000001  	-0,000000  	26,077966  	23,578328  	24,659983  	25,064877  	29,104853  	27,757290  	29,338497  	29,451150  	33,339135  	32,745122  	36,426417  	63,361603  	27,444466  	25,920644  	28,092624  	69,124611  	0,131905  	0,066837  	-3234,140231  	25526,923306  	-0,018522  	-0,049990  	0,211143  	0,106988  	-4,409202  	4774,788426  	35744,817736  	5,184348  	-0,047943  
294,545000  	21,534038  	33,086700  	25,112458  	1256,670793  	80,294372  	70,477218  	0,005614  	0,006338  	0,003960  	0,004141  	0,004267  	0,000002  	-0,000000  	26,082749  	23,594207  	24,672224  	25,078165  	29,114231  	27,764715  	29,343319  	29,458209  	33,343038  	32,755347  	36,438531  	63,363711  	27,454142  	25,919604  	28,095284  	69,134507  	0,120793  	0,061207  	-2956,728045  	25522,051935  	-0,018519  	-0,049979  	0,237814  	0,120502  	-4,956977  	5016,602713  	35699,429028  	5,177764  	-0,047934  
295,547000  	21,538274  	33,091043  	25,112274  	1256,670793  	80,297528  	70,474944  	0,005617  	0,006327  	0,003960  	0,004183  	0,004242  	-0,000000  	-0,000000  	26,092416  	23,590640  	24,677615  	25,077641  	29,110998  	27,762321  	29,344283  	29,455785  	33,343525  	32,764727  	36,437627  	63,367648  	27,453424  	25,930998  	28,097234  	69,141850  	0,154689  	0,078382  	-3786,463607  	25534,322904  	-0,018528  	-0,050006  	0,217729  	0,110325  	-4,540829  	4994,408713  	35766,551781  	5,187500  	-0,047957  
296,545000  	21,515559  	33,097449  	25,111905  	1256,670793  	80,303902  	70,465474  	0,005612  	0,006278  	0,003963  	0,004242  	0,004275  	0,000002  	-0,000000  	26,086285  	23,583386  	24,671884  	25,068738  	29,101246  	27,757967  	29,333246  	29,444934  	33,342600  	32,750393  	36,435407  	63,365467  	27,448608  	25,923004  	28,099340  	69,135876  	0,202466  	0,102591  	-4968,435444  	25518,775503  	-0,018517  	-0,049972  	0,243866  	0,123569  	-5,094136  	4888,003154  	35653,235356  	5,171065  	-0,047927  
297,547000  	21,503434  	33,099605  	25,111598  	1256,670793  	80,316369  	70,491921  	0,005619  	0,006335  	0,003957  	0,004198  	0,004219  	0,000001  	-0,000000  	26,075990  	23,583211  	24,667432  	25,064758  	29,103899  	27,754369  	29,335690  	29,446428  	33,340271  	32,746057  	36,434806  	63,362402  	27,451233  	25,916147  	28,099672  	69,135340  	0,167329  	0,084787  	-4111,273042  	25523,975648  	-0,018520  	-0,049983  	0,199806  	0,101243  	-4,167842  	5012,147925  	35808,007460  	5,193512  	-0,047937  
298,624000  	21,469853  	33,100037  	25,110614  	657,183579  	80,327242  	70,495659  	0,005616  	0,006239  	0,003958  	0,004148  	0,004210  	-0,000000  	-0,000000  	26,080769  	23,588648  	24,669274  	25,070198  	29,114373  	27,753527  	29,338304  	29,455741  	33,341842  	32,752007  	36,438210  	63,359128  	27,450763  	25,920525  	28,094529  	69,137085  	0,126622  	0,064160  	-3120,227121  	18449,538373  	-0,027567  	-0,050003  	0,192610  	0,097597  	-4,020658  	4803,431505  	35744,591781  	5,184315  	-0,047954  
299,545000  	21,464052  	33,104287  	25,109693  	-242,047242  	80,334991  	70,504973  	0,005614  	0,006196  	0,003963  	0,004205  	0,004231  	-0,000001  	-0,000000  	26,092113  	23,596156  	24,669644  	25,074904  	29,115384  	27,764549  	29,339846  	29,455365  	33,344773  	32,751779  	36,439948  	63,364683  	27,453547  	25,929028  	28,097771  	69,138638  	0,172536  	0,087425  	-4255,323635  	-27082,358865  	-0,102844  	-0,050011  	0,209356  	0,106082  	-4,369537  	4712,364793  	35709,074482  	5,179163  	-0,047960  
300,545000  	21,470559  	33,110262  	25,108463  	956,927186  	80,333679  	70,508400  	0,005615  	0,006385  	0,003961  	0,004209  	0,004242  	0,000003  	-0,000000  	26,083835  	23,589411  	24,667024  	25,067524  	29,104834  	27,764677  	29,336335  	29,451544  	33,341075  	32,747090  	36,438317  	63,363511  	27,451129  	25,931253  	28,093920  	69,135426  	0,176303  	0,089334  	-4348,024261  	22464,201185  	-0,022144  	-0,049960  	0,217952  	0,110438  	-4,546757  	5118,439585  	35726,536566  	5,181696  	-0,047917  
301,547000  	21,476330  	33,112418  	25,107910  	-242,047242  	80,325961  	70,511204  	0,005613  	0,006337  	0,003964  	0,004249  	0,004195  	0,000001  	-0,000000  	26,069843  	23,576052  	24,663429  	25,062353  	29,097569  	27,753118  	29,325666  	29,452449  	33,336173  	32,747398  	36,432470  	63,356161  	27,446907  	25,933441  	28,085358  	69,129376  	0,208659  	0,105729  	-5144,397727  	-27073,301869  	-0,102811  	-0,049992  	0,180633  	0,091528  	-3,764203  	5016,235549  	35690,765067  	5,176508  	-0,047944  
302,545000  	21,477312  	33,108476  	25,106558  	357,439972  	80,318900  	70,504849  	0,005617  	0,006243  	0,003958  	0,004210  	0,004233  	-0,000001  	-0,000000  	26,079498  	23,572778  	24,661298  	25,067160  	29,101237  	27,756629  	29,332296  	29,453598  	33,337208  	32,754991  	36,432753  	63,360743  	27,452568  	25,953988  	28,093463  	69,132430  	0,176986  	0,089680  	-4361,658964  	12492,600592  	-0,036467  	-0,050010  	0,210539  	0,106681  	-4,387078  	4812,416778  	35764,299293  	5,187173  	-0,047960  
303,547000  	21,474458  	33,100252  	25,106282  	357,439972  	80,313557  	70,509116  	0,005613  	0,006236  	0,003963  	0,004171  	0,004282  	-0,000001  	-0,000000  	26,093142  	23,574896  	24,665845  	25,070349  	29,104083  	27,762108  	29,345099  	29,458179  	33,335814  	32,754750  	36,437323  	63,361413  	27,450964  	25,981556  	28,099146  	69,135705  	0,145483  	0,073717  	-3583,653558  	12493,459566  	-0,036470  	-0,050013  	0,249562  	0,126455  	-5,195142  	4796,664075  	35679,622662  	5,174892  	-0,047963  
304,544000  	21,496743  	33,088363  	25,105114  	956,927186  	80,308745  	70,532729  	0,005616  	0,006297  	0,003959  	0,004155  	0,004298  	0,000000  	-0,000000  	26,088783  	23,575849  	24,666773  	25,069211  	29,101037  	27,757093  	29,336858  	29,461529  	33,331975  	32,743655  	36,426955  	63,356177  	27,443159  	25,997264  	28,093479  	69,129903  	0,132167  	0,066970  	-3246,067490  	22480,017572  	-0,022159  	-0,049999  	0,262006  	0,132760  	-5,438381  	4928,174068  	35741,527267  	5,183870  	-0,047951  
305,547000  	21,508806  	33,083158  	25,103977  	1256,670793  	80,302183  	70,524661  	0,005616  	0,006193  	0,003959  	0,004223  	0,004253  	0,000000  	-0,000000  	26,079696  	23,571378  	24,656436  	25,060714  	29,103049  	27,752483  	29,329921  	29,449465  	33,334519  	32,743049  	36,427494  	63,359577  	27,441457  	26,008132  	28,087335  	69,126188  	0,186995  	0,094752  	-4585,812241  	25530,437356  	-0,018525  	-0,049997  	0,226821  	0,114932  	-4,708773  	4704,234822  	35737,926109  	5,183348  	-0,047949  
306,547000  	21,510279  	33,090550  	25,104284  	1256,670793  	80,299559  	70,505285  	0,005613  	0,006209  	0,003963  	0,004186  	0,004232  	0,000000  	-0,000000  	26,074261  	23,578180  	24,655568  	25,061561  	29,099813  	27,744296  	29,328968  	29,437906  	33,328934  	32,746639  	36,425706  	63,360080  	27,446613  	26,018659  	28,085588  	69,123413  	0,157728  	0,079922  	-3870,040096  	25531,222014  	-0,018525  	-0,049999  	0,210111  	0,106465  	-4,369335  	4738,656321  	35684,261800  	5,175565  	-0,047950  
307,547000  	21,531368  	33,094985  	25,103731  	1256,670793  	80,302465  	70,495534  	0,005616  	0,006210  	0,003962  	0,004158  	0,004206  	0,000003  	-0,000000  	26,080194  	23,574030  	24,655837  	25,062763  	29,092168  	27,747800  	29,324812  	29,437458  	33,332295  	32,745404  	36,433434  	63,349172  	27,440690  	26,026896  	28,085087  	69,115816  	0,134952  	0,068381  	-3306,435352  	25514,979294  	-0,018514  	-0,049963  	0,189383  	0,095962  	-3,943384  	4741,892180  	35743,454945  	5,184150  	-0,047920  
308,546000  	21,541988  	33,087470  	25,103178  	1256,670793  	80,306964  	70,472109  	0,005613  	0,006211  	0,003961  	0,004249  	0,004249  	-0,000001  	-0,000000  	26,082615  	23,583884  	24,661024  	25,069276  	29,091488  	27,762475  	29,335716  	29,442732  	33,343848  	32,758209  	36,437743  	63,358212  	27,453541  	26,033607  	28,097085  	69,126240  	0,208644  	0,105721  	-5103,944412  	25537,826067  	-0,018530  	-0,050013  	0,223671  	0,113336  	-4,670581  	4744,005322  	35680,554726  	5,175027  	-0,047963  
309,544000  	21,528144  	33,091382  	25,103240  	57,696365  	80,308089  	70,451705  	0,005615  	0,006233  	0,003960  	0,004135  	0,004254  	-0,000000  	-0,000000  	26,079244  	23,582722  	24,657295  	25,067402  	29,098004  	27,755603  	29,333761  	29,447095  	33,334135  	32,749067  	36,435929  	63,354009  	27,454142  	26,029673  	28,092855  	69,119517  	0,116202  	0,058881  	-2846,971082  	1765,166240  	-0,053837  	-0,050003  	0,227519  	0,115285  	-4,761313  	4790,249661  	35720,548758  	5,180828  	-0,047954  
310,547000  	21,532319  	33,088302  	25,102441  	657,183579  	80,302527  	70,437999  	0,005615  	0,006317  	0,003963  	0,004194  	0,004268  	0,000001  	-0,000000  	26,077647  	23,568391  	24,656307  	25,064072  	29,092498  	27,745947  	29,320757  	29,444237  	33,331745  	32,745467  	36,424272  	63,359828  	27,443767  	26,030880  	28,080481  	69,115442  	0,163826  	0,083012  	-4011,227283  	18445,878735  	-0,027561  	-0,049991  	0,238179  	0,120687  	-4,988507  	4971,396905  	35720,922996  	5,180882  	-0,047943  
