06/24/2020 11:33:33
Tempo T_f_e T_f_s AR AR T_q_e T_q_s Corrente_P_f Corrente_P_q Corrente_P_RESERVA Corrente_eletromag_f Corrente_eletromag_q AR AR T_1 T_2 T_3 T_4 T_5 T_6 T_7 T_8 T_9 T_10 T_11 T_12 T_13 T_14 T_15 T_16 Velocidade_f_(m/s) Vazao_f_(L/s) q_f_(W) AR AR AR Velocidade_q_(m/s) Vazao_q_(L/s) q_q_(W) DeltaP_q_(Pa) DeltaP_f_(Pa) DeltaP_f_(Psi) AR
0,008000  	24,257042  	31,106409  	25,600051  	1256,670793  	80,189765  	72,527498  	0,009877  	0,008298  	0,003962  	0,004378  	0,004363  	0,000001  	-0,000000  	26,874197  	25,723009  	26,757244  	26,472583  	29,678665  	28,174557  	29,586553  	29,062122  	32,192103  	31,221888  	34,286513  	65,400312  	27,609856  	26,652239  	28,322215  	71,475531  	0,312516  	0,158354  	-4534,533246  	25512,017287  	-0,018518  	-0,049992  	0,313438  	0,158822  	-5,100790  	9244,795358  	127542,377762  	18,498458  	-0,047944  
2,556000  	24,287824  	31,122601  	25,598268  	1256,670793  	80,187141  	72,526750  	0,009885  	0,008298  	0,003962  	0,004361  	0,004335  	-0,000000  	-0,000000  	26,875434  	25,720486  	26,761785  	26,474693  	29,692673  	28,181532  	29,601236  	29,064447  	32,210256  	31,228832  	34,285913  	65,402950  	27,614554  	26,645002  	28,328896  	71,482678  	0,299097  	0,151555  	-4330,572386  	25517,874873  	-0,018522  	-0,050005  	0,291853  	0,147884  	-4,748345  	9244,056077  	127714,619011  	18,523439  	-0,047955  
3,558000  	24,293907  	31,146519  	25,597254  	1256,670793  	80,185954  	72,520360  	0,009888  	0,008289  	0,003962  	0,004392  	0,004379  	0,000001  	-0,000000  	26,878368  	25,717752  	26,759488  	26,478864  	29,684651  	28,176239  	29,596059  	29,060161  	32,208540  	31,227067  	34,279108  	65,395386  	27,602635  	26,643168  	28,330818  	71,477575  	0,324192  	0,164270  	-4706,155684  	25511,950905  	-0,018518  	-0,049992  	0,326657  	0,165519  	-5,318203  	9225,489153  	127800,001752  	18,535823  	-0,047944  
4,555000  	24,299867  	31,167082  	25,597131  	1256,670793  	80,184204  	72,537192  	0,009878  	0,008301  	0,003963  	0,004402  	0,004346  	-0,000000  	-0,000000  	26,880046  	25,720576  	26,770280  	26,473811  	29,685988  	28,181024  	29,600618  	29,068944  	32,212824  	31,243097  	34,284296  	65,399592  	27,607193  	26,647841  	28,333534  	71,483942  	0,331983  	0,168218  	-4829,522705  	25518,160220  	-0,018523  	-0,050005  	0,300624  	0,152328  	-4,882518  	9250,346688  	127571,116412  	18,502626  	-0,047956  
5,558000  	24,292340  	31,183335  	25,596178  	1256,670793  	80,181392  	72,534044  	0,009880  	0,008307  	0,003963  	0,004384  	0,004345  	0,000001  	-0,000000  	26,886471  	25,729939  	26,774317  	26,478706  	29,688994  	28,187965  	29,606365  	29,065775  	32,213652  	31,236660  	34,288776  	65,404626  	27,606648  	26,651054  	28,330644  	71,496759  	0,317852  	0,161058  	-4639,975346  	25512,170723  	-0,018518  	-0,049992  	0,299792  	0,151907  	-4,869213  	9264,680254  	127628,127679  	18,510895  	-0,047944  
6,560000  	24,268071  	31,194848  	25,597592  	1256,670793  	80,182579  	72,537161  	0,009889  	0,008294  	0,003961  	0,004368  	0,004340  	-0,000000  	-0,000000  	26,879553  	25,735885  	26,771749  	26,483914  	29,689777  	28,181791  	29,608063  	29,066118  	32,220371  	31,229407  	34,288502  	65,406294  	27,613331  	26,664744  	28,338977  	71,504154  	0,304657  	0,154372  	-4470,445833  	25516,917674  	-0,018522  	-0,050002  	0,295182  	0,149571  	-4,793132  	9236,557148  	127819,398575  	18,538636  	-0,047953  
7,557000  	24,222450  	31,204452  	25,597039  	1256,670793  	80,178767  	72,537099  	0,009876  	0,008307  	0,003961  	0,004379  	0,004357  	0,000000  	-0,000000  	26,878225  	25,721878  	26,763188  	26,476972  	29,682067  	28,170512  	29,598296  	29,066491  	32,206621  	31,223029  	34,286748  	65,404853  	27,594134  	26,641670  	28,328862  	71,500047  	0,313826  	0,159018  	-4641,728462  	25514,095452  	-0,018520  	-0,049996  	0,308778  	0,156460  	-5,011453  	9264,100856  	127533,904450  	18,497229  	-0,047948  
8,559000  	24,180916  	31,204268  	25,597961  	57,696365  	80,171831  	72,526563  	0,009887  	0,008305  	0,003963  	0,004391  	0,004393  	0,000001  	-0,000000  	26,864231  	25,712516  	26,749098  	26,462160  	29,677275  	28,167242  	29,589243  	29,054582  	32,196453  	31,213016  	34,274070  	65,391731  	27,577564  	26,627020  	28,322790  	71,484308  	0,323035  	0,163684  	-4806,243454  	1736,750735  	-0,053785  	-0,049993  	0,337414  	0,170970  	-5,478783  	9260,258716  	127758,722600  	18,529836  	-0,047945  
9,558000  	24,202052  	31,187860  	25,597776  	1256,670793  	80,168363  	72,536475  	0,009879  	0,008297  	0,003963  	0,004394  	0,004331  	-0,000000  	-0,000000  	26,870069  	25,727590  	26,763610  	26,468743  	29,687071  	28,179890  	29,594222  	29,058621  	32,204448  	31,226035  	34,289891  	65,400888  	27,583591  	26,639483  	28,331057  	71,492587  	0,325907  	0,165139  	-4823,036060  	25516,616476  	-0,018521  	-0,050002  	0,288272  	0,146069  	-4,672640  	9241,745558  	127594,453325  	18,506011  	-0,047953  
10,558000  	24,251696  	31,165943  	25,598514  	657,183579  	80,173487  	72,516215  	0,009882  	0,008309  	0,003963  	0,004367  	0,004342  	0,000002  	-0,000000  	26,875426  	25,721520  	26,759997  	26,471688  	29,681630  	28,177366  	29,593392  	29,054133  	32,208697  	31,221923  	34,280838  	65,400334  	27,579120  	26,632502  	28,330488  	71,495901  	0,304330  	0,154206  	-4457,576275  	18418,234025  	-0,027540  	-0,049971  	0,297347  	0,150668  	-4,835767  	9268,075288  	127665,671512  	18,516340  	-0,047926  
11,559000  	24,287363  	31,150890  	25,598606  	657,183579  	80,182235  	72,508609  	0,009875  	0,008298  	0,003962  	0,004371  	0,004338  	0,000001  	-0,000000  	26,877710  	25,720625  	26,759259  	26,470176  	29,686185  	28,177743  	29,596441  	29,058939  	32,206753  	31,226004  	34,282364  	65,405164  	27,583362  	26,628761  	28,329954  	71,494253  	0,307123  	0,155621  	-4465,478703  	18423,623922  	-0,027548  	-0,049987  	0,293850  	0,148896  	-4,789082  	9243,978258  	127520,523678  	18,495288  	-0,047940  
12,558000  	24,270835  	31,152798  	25,598176  	1256,670793  	80,190484  	72,520454  	0,009883  	0,008312  	0,003963  	0,004410  	0,004364  	-0,000000  	-0,000000  	26,876571  	25,719263  	26,760707  	26,467424  	29,684599  	28,177893  	29,596132  	29,054870  	32,199159  	31,221907  	34,283163  	65,403222  	27,584644  	26,618676  	28,327483  	71,487873  	0,338752  	0,171648  	-4938,589780  	25517,033292  	-0,018522  	-0,050003  	0,314370  	0,159294  	-5,121135  	9273,645719  	127675,006278  	18,517694  	-0,047954  
13,556000  	24,257349  	31,173269  	25,599006  	956,927186  	80,188922  	72,523446  	0,009871  	0,008297  	0,003962  	0,004430  	0,004325  	-0,000001  	-0,000000  	26,870637  	25,718477  	26,758912  	26,468604  	29,678261  	28,175526  	29,597204  	29,054420  	32,194569  	31,221568  	34,279262  	65,392633  	27,581703  	26,603084  	28,327505  	71,487107  	0,355304  	0,180035  	-5205,460730  	22464,852293  	-0,022155  	-0,050007  	0,283267  	0,143533  	-4,611711  	9241,794372  	127417,509388  	18,480347  	-0,047957  
14,557000  	24,280082  	31,186629  	25,599375  	-242,047242  	80,187859  	72,528184  	0,009873  	0,008303  	0,003964  	0,004433  	0,004369  	0,000001  	-0,000000  	26,872740  	25,727552  	26,763374  	26,473841  	29,682160  	28,175971  	29,598860  	29,057769  	32,201317  	31,230414  	34,287961  	65,396533  	27,586151  	26,598692  	28,334819  	71,492507  	0,357660  	0,181229  	-5232,873067  	-27081,252745  	-0,102649  	-0,049987  	0,318747  	0,161511  	-5,185422  	9255,330646  	127469,952128  	18,487953  	-0,047940  
15,559000  	24,278884  	31,187645  	25,599651  	657,183579  	80,192265  	72,525067  	0,009872  	0,008297  	0,003962  	0,004369  	0,004375  	0,000001  	-0,000000  	26,880164  	25,733426  	26,769011  	26,477139  	29,686679  	28,178842  	29,596574  	29,058229  	32,207796  	31,230570  	34,291588  	65,406871  	27,592654  	26,598033  	28,343589  	71,499574  	0,305804  	0,154953  	-4475,608799  	18425,650973  	-0,027551  	-0,049993  	0,322899  	0,163615  	-5,258127  	9242,440978  	127443,515395  	18,484119  	-0,047946  
16,555000  	24,257441  	31,188383  	25,600081  	1256,670793  	80,190703  	72,525254  	0,009884  	0,008304  	0,003960  	0,004363  	0,004355  	0,000001  	-0,000000  	26,881761  	25,728184  	26,764949  	26,476467  	29,681342  	28,180916  	29,594878  	29,062135  	32,204946  	31,223920  	34,283194  	65,403288  	27,591145  	26,590812  	28,342376  	71,503837  	0,300596  	0,152314  	-4413,512455  	25511,980790  	-0,018518  	-0,049992  	0,307074  	0,155597  	-4,999285  	9256,208587  	127700,334419  	18,521368  	-0,047944  
17,556000  	24,240084  	31,194355  	25,601126  	1256,670793  	80,185422  	72,524444  	0,009865  	0,008276  	0,003962  	0,004366  	0,004382  	0,000000  	-0,000000  	26,878893  	25,721137  	26,759462  	26,473742  	29,674906  	28,177334  	29,594195  	29,060051  	32,200449  	31,222143  	34,280131  	65,396684  	27,586379  	26,582559  	28,331571  	71,497805  	0,302838  	0,153450  	-4461,406481  	25513,570680  	-0,018519  	-0,049995  	0,328735  	0,166573  	-5,348825  	9197,687227  	127288,849207  	18,461687  	-0,047947  
18,555000  	24,206660  	31,192262  	25,601618  	1256,670793  	80,184797  	72,536351  	0,009864  	0,008314  	0,003963  	0,004361  	0,004358  	-0,000001  	-0,000000  	26,868151  	25,721373  	26,758665  	26,471692  	29,678815  	28,172565  	29,596341  	29,060066  	32,198337  	31,227880  	34,280398  	65,401319  	27,589078  	26,581133  	28,324408  	71,491549  	0,299238  	0,151626  	-4428,245715  	25522,678654  	-0,018526  	-0,050015  	0,309733  	0,156944  	-5,031405  	9279,818894  	127264,862673  	18,458208  	-0,047965  
19,558000  	24,185463  	31,185705  	25,601710  	357,439972  	80,179486  	72,542180  	0,009884  	0,008294  	0,003962  	0,004307  	0,004325  	0,000000  	-0,000001  	26,860025  	25,722726  	26,752027  	26,467356  	29,676788  	28,171892  	29,595007  	29,059251  	32,200897  	31,220775  	34,277527  	65,404492  	27,588139  	26,577513  	28,320104  	71,489455  	0,255037  	0,129229  	-3782,047095  	12465,552015  	-0,036441  	-0,049999  	0,284018  	0,143914  	-4,606967  	9236,165223  	127704,041493  	18,521905  	-0,047951  
20,555000  	24,215200  	31,175054  	25,602263  	-242,047242  	80,174237  	72,534138  	0,009882  	0,008302  	0,003961  	0,004356  	0,004332  	-0,000000  	-0,000000  	26,870995  	25,732823  	26,765428  	26,470091  	29,680617  	28,179316  	29,599004  	29,065729  	32,207301  	31,232248  	34,286352  	65,405504  	27,591443  	26,573523  	28,336594  	71,499060  	0,295441  	0,149702  	-4355,930346  	-27089,272722  	-0,102678  	-0,050004  	0,289564  	0,146724  	-4,698639  	9253,516754  	127670,586033  	18,517053  	-0,047955  
21,561000  	24,261527  	31,159201  	25,603646  	1256,670793  	80,172237  	72,520454  	0,009867  	0,008309  	0,003961  	0,004348  	0,004365  	0,000001  	-0,000000  	26,873612  	25,732059  	26,762010  	26,479332  	29,687460  	28,179124  	29,599565  	29,066280  	32,198402  	31,229524  	34,285869  	65,402504  	27,581137  	26,567850  	28,341710  	71,495356  	0,288685  	0,146279  	-4218,284194  	25509,148539  	-0,018516  	-0,049986  	0,315225  	0,159727  	-5,122844  	9267,793725  	127342,174583  	18,469421  	-0,047939  
22,558000  	24,228533  	31,151444  	25,603462  	657,183579  	80,176174  	72,521077  	0,009868  	0,008284  	0,003960  	0,004339  	0,004386  	0,000001  	-0,000000  	26,878723  	25,724820  	26,769965  	26,477301  	29,682239  	28,182057  	29,606978  	29,066240  	32,206573  	31,232419  	34,291497  	65,406154  	27,593427  	26,562574  	28,335376  	71,494705  	0,280889  	0,142329  	-4119,396376  	18424,016877  	-0,027549  	-0,049989  	0,332331  	0,168395  	-5,403182  	9213,945047  	127351,890648  	18,470830  	-0,047942  
23,558000  	24,210101  	31,159663  	25,604753  	657,183579  	80,182142  	72,517898  	0,009863  	0,008326  	0,003962  	0,004413  	0,004345  	0,000001  	-0,000000  	26,864905  	25,723904  	26,765661  	26,471420  	29,683678  	28,178384  	29,602758  	29,061945  	32,208806  	31,228270  	34,292610  	65,404422  	27,587865  	26,552779  	28,343311  	71,499796  	0,340980  	0,172777  	-5019,922149  	18422,014812  	-0,027546  	-0,049983  	0,299686  	0,151853  	-4,878238  	9304,421749  	127253,466068  	18,456555  	-0,047937  
24,558000  	24,195293  	31,170806  	25,605429  	57,696365  	80,178767  	72,513970  	0,009885  	0,008290  	0,003961  	0,004385  	0,004326  	0,000000  	-0,000000  	26,878205  	25,731631  	26,771474  	26,482524  	29,693683  	28,186958  	29,604652  	29,071385  	32,210888  	31,238608  	34,292495  	65,407231  	27,603562  	26,555574  	28,345090  	71,504106  	0,318470  	0,161371  	-4706,043265  	1736,520473  	-0,053790  	-0,049999  	0,284664  	0,144241  	-4,634042  	9226,965593  	127715,402793  	18,523553  	-0,047951  
25,562000  	24,179165  	31,165881  	25,605767  	57,696365  	80,177455  	72,516402  	0,009893  	0,008293  	0,003963  	0,004369  	0,004395  	0,000001  	-0,000000  	26,870890  	25,713972  	26,750687  	26,475257  	29,676912  	28,183405  	29,603243  	29,059264  	32,198180  	31,225357  	34,277451  	65,394578  	27,599890  	26,565230  	28,330936  	71,488486  	0,305215  	0,154655  	-4517,418503  	1736,257897  	-0,053782  	-0,049991  	0,339253  	0,171902  	-5,520001  	9234,060571  	127893,843682  	18,549434  	-0,047944  
26,558000  	24,214801  	31,157077  	25,605521  	1256,670793  	80,177518  	72,521514  	0,009866  	0,008294  	0,003962  	0,004353  	0,004384  	-0,000000  	-0,000000  	26,876428  	25,725934  	26,768496  	26,476928  	29,688278  	28,182534  	29,597964  	29,060711  	32,204901  	31,224379  	34,286924  	65,409452  	27,600146  	26,590470  	28,343553  	71,505921  	0,292632  	0,148279  	-4303,629778  	25516,795369  	-0,018522  	-0,050003  	0,330522  	0,167478  	-5,374400  	9236,345622  	127314,763419  	18,465445  	-0,047954  
27,556000  	24,241343  	31,143225  	25,606259  	357,439972  	80,184891  	72,515342  	0,009879  	0,008290  	0,003962  	0,004388  	0,004383  	0,000000  	-0,000000  	26,869529  	25,719488  	26,754204  	26,480368  	29,690560  	28,179093  	29,588327  	29,067820  	32,203053  	31,231014  	34,280874  	65,404645  	27,605102  	26,597274  	28,334480  	71,497986  	0,321313  	0,162812  	-4697,922811  	12464,820239  	-0,036439  	-0,049997  	0,329912  	0,167169  	-5,373969  	9226,652902  	127602,248772  	18,507141  	-0,047949  
28,555000  	24,238271  	31,135652  	25,607980  	-242,047242  	80,188953  	72,515591  	0,009883  	0,008309  	0,003962  	0,004405  	0,004300  	0,000001  	-0,000000  	26,863952  	25,714569  	26,765180  	26,465697  	29,681885  	28,166016  	29,590701  	29,062228  	32,194839  	31,223453  	34,279801  	65,393269  	27,593861  	26,602384  	28,325674  	71,483615  	0,334684  	0,169587  	-4890,227043  	-27082,394810  	-0,102650  	-0,049989  	0,263803  	0,133671  	-4,299247  	9267,248991  	127671,574586  	18,517196  	-0,047942  
29,557000  	24,259776  	31,149628  	25,609731  	57,696365  	80,189453  	72,526220  	0,009869  	0,008301  	0,003962  	0,004435  	0,004375  	-0,000002  	-0,000000  	26,875017  	25,726946  	26,767591  	26,475728  	29,676500  	28,182890  	29,600801  	29,065001  	32,205503  	31,224872  	34,281051  	65,417767  	27,614383  	26,609410  	28,338879  	71,498284  	0,359381  	0,182101  	-5245,342390  	1736,945409  	-0,053810  	-0,050021  	0,323032  	0,163683  	-5,257577  	9251,217554  	127373,222211  	18,473924  	-0,047969  
30,555000  	24,299529  	31,160525  	25,610592  	1256,670793  	80,195514  	72,534636  	0,009871  	0,008310  	0,003962  	0,004348  	0,004351  	-0,000000  	-0,000000  	26,871629  	25,719608  	26,758785  	26,475378  	29,673781  	28,173767  	29,590035  	29,055093  	32,201563  	31,217901  	34,284662  	65,406411  	27,604542  	26,614944  	28,331436  	71,487872  	0,288601  	0,146236  	-4194,623920  	25518,105345  	-0,018523  	-0,050006  	0,304192  	0,154136  	-4,949419  	9269,987515  	127431,130237  	18,482323  	-0,047957  
31,558000  	24,338607  	31,165142  	25,611883  	1256,670793  	80,202200  	72,534231  	0,009868  	0,008300  	0,003963  	0,004389  	0,004334  	0,000002  	-0,000000  	26,864808  	25,717455  	26,755357  	26,467388  	29,674551  	28,169962  	29,589571  	29,058649  	32,197355  	31,218973  	34,271682  	65,401920  	27,607578  	26,603998  	28,328510  	71,493590  	0,321943  	0,163131  	-4655,723753  	25503,343657  	-0,018512  	-0,049974  	0,290588  	0,147243  	-4,732446  	9248,849732  	127361,952706  	18,472289  	-0,047929  
32,556000  	24,379344  	31,177886  	25,613727  	57,696365  	80,204388  	72,530054  	0,009868  	0,008299  	0,003960  	0,004351  	0,004345  	-0,000001  	-0,000000  	26,867011  	25,717705  	26,760433  	26,466053  	29,676196  	28,178233  	29,581589  	29,057905  	32,204531  	31,233457  	34,282521  	65,408812  	27,599856  	26,601834  	28,326386  	71,491809  	0,290710  	0,147305  	-4186,799300  	1736,279908  	-0,053796  	-0,050007  	0,299769  	0,151895  	-4,886020  	9247,059893  	127354,418519  	18,471197  	-0,047957  
33,557000  	24,371417  	31,203067  	25,615355  	57,696365  	80,199295  	72,536912  	0,009870  	0,008301  	0,003962  	0,004376  	0,004370  	0,000000  	-0,000000  	26,863985  	25,719369  	26,755736  	26,470348  	29,676959  	28,173225  	29,581787  	29,059110  	32,199061  	31,228495  	34,279100  	65,400791  	27,606106  	26,603603  	28,333109  	71,485579  	0,311143  	0,157659  	-4502,902645  	1735,924966  	-0,053788  	-0,049998  	0,318932  	0,161605  	-5,190280  	9250,042486  	127399,235278  	18,477697  	-0,047950  
34,560000  	24,318761  	31,229479  	25,616892  	1256,670793  	80,195983  	72,542148  	0,009888  	0,008298  	0,003962  	0,004390  	0,004321  	-0,000000  	-0,000000  	26,856315  	25,717389  	26,755302  	26,475165  	29,675424  	28,170808  	29,592767  	29,051673  	32,200169  	31,219533  	34,270324  	65,402462  	27,608540  	26,616707  	28,328202  	71,483166  	0,322889  	0,163610  	-4726,984785  	25515,246167  	-0,018521  	-0,050000  	0,280203  	0,141981  	-4,554912  	9243,660615  	127792,425198  	18,534724  	-0,047952  
35,556000  	24,276642  	31,251920  	25,617169  	1256,670793  	80,185516  	72,546730  	0,009869  	0,008310  	0,003962  	0,004378  	0,004345  	0,000001  	-0,000000  	26,861914  	25,711690  	26,760906  	26,472146  	29,673076  	28,167430  	29,594383  	29,049066  	32,194362  	31,219756  	34,271022  	65,403729  	27,611285  	26,627866  	28,325896  	71,485040  	0,312609  	0,158401  	-4619,248175  	25508,060429  	-0,018516  	-0,049984  	0,299334  	0,151675  	-4,856345  	9269,496548  	127382,472243  	18,475266  	-0,047938  
36,560000  	24,261035  	31,255491  	25,616923  	57,696365  	80,179767  	72,535073  	0,009879  	0,008312  	0,003962  	0,004379  	0,004395  	-0,000001  	-0,000000  	26,869910  	25,718662  	26,761960  	26,465387  	29,679932  	28,168720  	29,592290  	29,050632  	32,194531  	31,232326  	34,282880  	65,407533  	27,617254  	26,638557  	28,334289  	71,489270  	0,313971  	0,159092  	-4652,142836  	1736,127270  	-0,053797  	-0,050007  	0,339035  	0,171792  	-5,504696  	9274,399150  	127589,905981  	18,505351  	-0,047958  
37,558000  	24,262356  	31,231973  	25,618674  	1256,670793  	80,177549  	72,534512  	0,009885  	0,008287  	0,003961  	0,004385  	0,004339  	-0,000000  	-0,000000  	26,867640  	25,718519  	26,754674  	26,466143  	29,681429  	28,166397  	29,588096  	29,048022  	32,198251  	31,225979  	34,283903  	65,401922  	27,618090  	26,642517  	28,326074  	71,494863  	0,318558  	0,161416  	-4703,344750  	25516,223559  	-0,018521  	-0,050002  	0,294503  	0,149227  	-4,780611  	9219,949850  	127724,702252  	18,524902  	-0,047953  
38,558000  	24,308991  	31,216458  	25,619043  	1256,670793  	80,179361  	72,539748  	0,009868  	0,008309  	0,003963  	0,004401  	0,004362  	-0,000001  	-0,000000  	26,867452  	25,711416  	26,747277  	26,468345  	29,672675  	28,169245  	29,580835  	29,049833  	32,198444  	31,220264  	34,274093  	65,395930  	27,610372  	26,639195  	28,324137  	71,492154  	0,331306  	0,167875  	-4847,926380  	25519,597266  	-0,018524  	-0,050010  	0,312772  	0,158484  	-5,074899  	9266,993603  	127352,053053  	18,470854  	-0,047960  
39,559000  	24,331387  	31,207408  	25,620150  	1256,670793  	80,182142  	72,528683  	0,009872  	0,008308  	0,003962  	0,004353  	0,004331  	0,000000  	-0,000000  	26,871932  	25,710710  	26,754100  	26,474866  	29,674896  	28,170243  	29,591063  	29,060171  	32,206011  	31,221225  	34,278141  	65,398606  	27,607009  	26,639643  	28,331814  	71,495589  	0,292540  	0,148232  	-4261,173000  	25515,069649  	-0,018521  	-0,050000  	0,288480  	0,146175  	-4,689236  	9266,593896  	127448,394610  	18,484827  	-0,047951  
40,558000  	24,311111  	31,205437  	25,621625  	57,696365  	80,184204  	72,526127  	0,009886  	0,008315  	0,003963  	0,004394  	0,004329  	-0,000000  	-0,000000  	26,873722  	25,721907  	26,763021  	26,484231  	29,686548  	28,178654  	29,603543  	29,067749  	32,217415  	31,221853  	34,287706  	65,409591  	27,612989  	26,639770  	28,338894  	71,505380  	0,326156  	0,165266  	-4763,493417  	1735,677935  	-0,053791  	-0,050002  	0,287119  	0,145485  	-4,669912  	9280,911899  	127738,895050  	18,526960  	-0,047953  
41,559000  	24,274829  	31,221322  	25,622823  	1256,670793  	80,186141  	72,528309  	0,009858  	0,008308  	0,003962  	0,004333  	0,004347  	0,000001  	-0,000000  	26,870905  	25,724121  	26,763952  	26,479966  	29,685749  	28,182243  	29,599584  	29,065736  	32,211532  	31,224615  	34,286097  	65,411348  	27,616580  	26,636850  	28,338002  	71,497610  	0,276174  	0,139939  	-4064,033639  	25510,937846  	-0,018518  	-0,049991  	0,301294  	0,152668  	-4,900312  	9266,554279  	127141,540678  	18,440321  	-0,047944  
42,556000  	24,256888  	31,226986  	25,623254  	1256,670793  	80,189328  	72,530678  	0,009866  	0,008297  	0,003960  	0,004393  	0,004366  	0,000001  	-0,000000  	26,870718  	25,715654  	26,758764  	26,477835  	29,682431  	28,174255  	29,597321  	29,061570  	32,202779  	31,225282  	34,282201  	65,400882  	27,614537  	26,637440  	28,325881  	71,484470  	0,325368  	0,164866  	-4804,218156  	25506,475128  	-0,018514  	-0,049981  	0,315837  	0,160037  	-5,137404  	9241,357170  	127323,985207  	18,466783  	-0,047935  
43,558000  	24,302970  	31,223199  	25,623161  	357,439972  	80,185891  	72,535945  	0,009876  	0,008318  	0,003964  	0,004413  	0,004351  	0,000002  	-0,000000  	26,876964  	25,723704  	26,761125  	26,492276  	29,693081  	28,178948  	29,603909  	29,065250  	32,213705  	31,232559  	34,284896  	65,401802  	27,618712  	26,651458  	28,326632  	71,493069  	0,341227  	0,172902  	-5002,324911  	12459,323441  	-0,036425  	-0,049976  	0,303869  	0,153973  	-4,937116  	9287,790398  	127521,865286  	18,495483  	-0,047931  
44,555000  	24,338607  	31,213164  	25,623653  	956,927186  	80,185204  	72,534075  	0,009871  	0,008291  	0,003962  	0,004365  	0,004382  	-0,000001  	-0,000000  	26,878608  	25,731104  	26,777514  	26,489358  	29,698402  	28,178824  	29,607534  	29,072633  	32,221580  	31,244843  	34,292788  	65,405232  	27,625255  	26,673114  	28,336922  	71,501939  	0,302424  	0,153240  	-4404,213562  	22467,628177  	-0,022158  	-0,050016  	0,328938  	0,166675  	-5,345240  	9229,305118  	127425,749684  	18,481542  	-0,047965  
45,560000  	24,338115  	31,213934  	25,624176  	57,696365  	80,190859  	72,527561  	0,009884  	0,008292  	0,003961  	0,004411  	0,004347  	-0,000000  	-0,000000  	26,876023  	25,727390  	26,769860  	26,478366  	29,691512  	28,180915  	29,602870  	29,071153  	32,215540  	31,240119  	34,296937  	65,403312  	27,616729  	26,674898  	28,331089  	71,488491  	0,339769  	0,172163  	-4948,978417  	1735,520624  	-0,053790  	-0,050001  	0,301460  	0,152752  	-4,906510  	9231,123254  	127711,653352  	18,523009  	-0,047952  
46,556000  	24,338238  	31,229695  	25,623745  	657,183579  	80,194921  	72,538159  	0,009879  	0,008331  	0,003960  	0,004405  	0,004348  	-0,000000  	-0,000000  	26,873335  	25,731338  	26,766041  	26,490080  	29,686051  	28,183860  	29,601566  	29,066405  	32,207893  	31,239289  	34,296865  	65,410017  	27,609754  	26,686764  	28,331237  	71,484768  	0,334929  	0,169711  	-4889,577975  	18428,551712  	-0,027557  	-0,050005  	0,301836  	0,152943  	-4,908454  	9315,708345  	127606,697261  	18,507787  	-0,047956  
47,557000  	24,339436  	31,241516  	25,623930  	-242,047242  	80,193202  	72,547946  	0,009868  	0,008287  	0,003962  	0,004375  	0,004350  	0,000001  	-0,000000  	26,867329  	25,724202  	26,760377  	26,483088  	29,679263  	28,180346  	29,596835  	29,067913  	32,211486  	31,242298  	34,295806  	65,401979  	27,612213  	26,691445  	28,330640  	71,497875  	0,310083  	0,157121  	-4533,825932  	-27080,842317  	-0,102638  	-0,049985  	0,303575  	0,153823  	-4,929315  	9221,414263  	127360,109760  	18,472022  	-0,047939  
48,555000  	24,332124  	31,245825  	25,623622  	-242,047242  	80,197514  	72,559168  	0,009870  	0,008292  	0,003964  	0,004412  	0,004318  	-0,000000  	-0,000000  	26,883438  	25,726719  	26,762825  	26,481961  	29,690265  	28,185654  	29,609522  	29,075539  	32,211868  	31,237361  	34,293424  	65,406959  	27,610185  	26,686357  	28,328503  	71,486951  	0,340417  	0,172492  	-4985,740919  	-27089,593722  	-0,102671  	-0,050003  	0,278005  	0,140867  	-4,510053  	9230,942855  	127412,079407  	18,479560  	-0,047954  
49,559000  	24,336610  	31,247118  	25,623192  	57,696365  	80,194452  	72,552279  	0,009876  	0,008290  	0,003963  	0,004412  	0,004339  	-0,000000  	-0,000000  	26,885096  	25,724533  	26,770263  	26,494653  	29,691786  	28,187944  	29,613545  	29,074359  	32,211323  	31,235274  	34,292536  	65,398614  	27,617712  	26,681427  	28,332577  	71,499267  	0,340767  	0,172669  	-4988,551866  	1735,579854  	-0,053790  	-0,050001  	0,295063  	0,149510  	-4,789174  	9227,216029  	127534,066855  	18,497253  	-0,047953  
50,556000  	24,351602  	31,249088  	25,623868  	1256,670793  	80,191452  	72,547042  	0,009872  	0,008299  	0,003963  	0,004385  	0,004351  	-0,000001  	-0,000000  	26,892167  	25,730801  	26,764291  	26,487095  	29,701133  	28,189836  	29,612827  	29,074410  	32,224680  	31,244755  	34,298963  	65,406597  	27,622192  	26,676533  	28,330413  	71,492434  	0,318474  	0,161373  	-4653,410245  	25521,939074  	-0,018526  	-0,050015  	0,304558  	0,154322  	-4,944740  	9245,373342  	127453,782224  	18,485608  	-0,047965  
51,559000  	24,345611  	31,249088  	25,624606  	1256,670793  	80,191015  	72,544424  	0,009877  	0,008332  	0,003963  	0,004384  	0,004364  	0,000002  	-0,000000  	26,898615  	25,742059  	26,781429  	26,500000  	29,708185  	28,197785  	29,622795  	29,088442  	32,225016  	31,248953  	34,307466  	65,413450  	27,630960  	26,682076  	28,341971  	71,505546  	0,317458  	0,160858  	-4642,603714  	25504,955270  	-0,018513  	-0,049978  	0,314249  	0,159232  	-5,103525  	9318,126396  	127555,236013  	18,500323  	-0,047933  
52,556000  	24,316671  	31,255491  	25,625036  	1256,670793  	80,193140  	72,534948  	0,009873  	0,008299  	0,003960  	0,004387  	0,004341  	0,000000  	-0,000000  	26,890781  	25,737537  	26,777326  	26,495896  	29,701448  	28,200779  	29,613659  	29,081701  	32,224453  	31,244867  	34,310477  	65,405646  	27,628909  	26,673612  	28,341025  	71,494958  	0,319787  	0,162038  	-4700,605258  	25512,835530  	-0,018519  	-0,049995  	0,296547  	0,150262  	-4,823340  	9246,696266  	127469,125980  	18,487834  	-0,047947  
53,557000  	24,283615  	31,259770  	25,625651  	956,927186  	80,195639  	72,547603  	0,009875  	0,008295  	0,003961  	0,004364  	0,004317  	-0,000000  	-0,000000  	26,875325  	25,723677  	26,758953  	26,472911  	29,691851  	28,188331  	29,601457  	29,072329  	32,205487  	31,227488  	34,289185  	65,400466  	27,605183  	26,647561  	28,324903  	71,480832  	0,301628  	0,152837  	-4457,553693  	22463,098986  	-0,022154  	-0,050005  	0,277113  	0,140415  	-4,501281  	9237,374956  	127508,971730  	18,493613  	-0,047956  
54,556000  	24,235629  	31,252197  	25,627679  	357,439972  	80,197014  	72,548102  	0,009877  	0,008309  	0,003962  	0,004378  	0,004319  	-0,000001  	-0,000000  	26,889778  	25,737039  	26,780051  	26,497995  	29,702530  	28,194156  	29,621605  	29,089190  	32,231535  	31,242995  	34,305364  	65,410512  	27,634717  	26,666952  	28,338744  	71,492585  	0,313149  	0,158675  	-4654,630863  	12466,459561  	-0,036447  	-0,050009  	0,278589  	0,141163  	-4,525778  	9269,045197  	127547,023961  	18,499132  	-0,047959  
55,558000  	24,211299  	31,240931  	25,628048  	357,439972  	80,196077  	72,533732  	0,009873  	0,008303  	0,003963  	0,004369  	0,004301  	-0,000000  	-0,000000  	26,885941  	25,735697  	26,771714  	26,488762  	29,701812  	28,196947  	29,609777  	29,088306  	32,225559  	31,247542  	34,308620  	65,407895  	27,626691  	26,655741  	28,341918  	71,492926  	0,305855  	0,154979  	-4554,693159  	12464,887630  	-0,036442  	-0,050002  	0,264369  	0,133958  	-4,302293  	9255,665268  	127464,373864  	18,487144  	-0,047953  
56,556000  	24,209148  	31,223630  	25,629216  	956,927186  	80,194577  	72,537099  	0,009883  	0,008290  	0,003965  	0,004372  	0,004345  	-0,000001  	-0,000000  	26,891608  	25,741591  	26,778992  	26,500206  	29,711789  	28,197750  	29,614308  	29,088345  	32,226129  	31,249470  	34,308808  	65,412524  	27,635163  	26,661549  	28,338667  	71,491498  	0,308188  	0,156161  	-4579,543850  	22465,698444  	-0,022156  	-0,050012  	0,299869  	0,151946  	-4,876924  	9226,088360  	127672,294818  	18,517301  	-0,047961  
57,557000  	24,216552  	31,196910  	25,630291  	1256,670793  	80,197858  	72,540247  	0,009871  	0,008293  	0,003963  	0,004343  	0,004325  	-0,000001  	-0,000000  	26,890650  	25,741019  	26,766811  	26,493053  	29,701653  	28,199719  	29,607896  	29,090363  	32,223082  	31,249365  	34,315504  	65,399997  	27,636407  	26,658981  	28,340296  	71,488277  	0,284659  	0,144239  	-4209,326437  	25518,691028  	-0,018523  	-0,050009  	0,283741  	0,143774  	-4,614706  	9234,437639  	127421,710738  	18,480957  	-0,047959  
58,555000  	24,225154  	31,180965  	25,631828  	1256,670793  	80,200482  	72,551219  	0,009883  	0,008311  	0,003961  	0,004405  	0,004359  	-0,000000  	-0,000000  	26,894841  	25,739756  	26,779478  	26,491277  	29,709105  	28,202764  	29,616008  	29,081275  	32,223295  	31,254531  	34,321554  	65,405388  	27,627770  	26,660727  	28,338140  	71,494342  	0,334804  	0,169647  	-4933,419304  	25516,096445  	-0,018522  	-0,050003  	0,310868  	0,157519  	-5,050395  	9272,409811  	127672,520773  	18,517334  	-0,047954  
59,558000  	24,228379  	31,171176  	25,632658  	1256,670793  	80,198389  	72,544642  	0,009869  	0,008302  	0,003964  	0,004382  	0,004370  	-0,000000  	-0,000000  	26,892774  	25,741209  	26,786755  	26,494382  	29,708527  	28,198492  	29,616583  	29,089887  	32,221216  	31,254073  	34,310563  	65,407684  	27,616673  	26,661310  	28,341674  	71,490540  	0,316163  	0,160202  	-4650,032941  	25514,825193  	-0,018521  	-0,050000  	0,319354  	0,161819  	-5,191298  	9253,449547  	127390,804333  	18,476474  	-0,047952  
60,556000  	24,275628  	31,168282  	25,633272  	1256,670793  	80,194639  	72,528683  	0,009873  	0,008312  	0,003963  	0,004417  	0,004331  	0,000002  	-0,000000  	26,897611  	25,742788  	26,785800  	26,510231  	29,708676  	28,201116  	29,617881  	29,094283  	32,229832  	31,256258  	34,312796  	65,408420  	27,630075  	26,679532  	28,340829  	71,484454  	0,344536  	0,174579  	-5030,712445  	25504,271088  	-0,018513  	-0,049977  	0,288517  	0,146194  	-4,697493  	9275,417872  	127472,543549  	18,488329  	-0,047932  
61,557000  	24,321618  	31,165973  	25,633211  	1256,670793  	80,195608  	72,544330  	0,009878  	0,008276  	0,003960  	0,004355  	0,004368  	-0,000000  	-0,000000  	26,896317  	25,743069  	26,781249  	26,492836  	29,706453  	28,199023  	29,613485  	29,084025  	32,222409  	31,246572  	34,305269  	65,406744  	27,624239  	26,687463  	28,336607  	71,481750  	0,294154  	0,149050  	-4264,953799  	25514,900697  	-0,018521  	-0,050001  	0,317767  	0,161015  	-5,163824  	9196,174000  	127573,785505  	18,503013  	-0,047952  
62,556000  	24,297286  	31,176009  	25,632904  	657,183579  	80,190296  	72,539343  	0,009872  	0,008314  	0,003964  	0,004406  	0,004342  	0,000001  	-0,000000  	26,898034  	25,744641  	26,783855  	26,496327  	29,707067  	28,202872  	29,624163  	29,088684  	32,224488  	31,251294  	34,308604  	65,411948  	27,622589  	26,695612  	28,334369  	71,490242  	0,335545  	0,170023  	-4889,520713  	18421,923254  	-0,027547  	-0,049986  	0,296956  	0,150470  	-4,825433  	9279,317315  	127448,161594  	18,484793  	-0,047940  
63,555000  	24,265766  	31,200297  	25,632996  	-242,047242  	80,187922  	72,533888  	0,009871  	0,008288  	0,003964  	0,004375  	0,004339  	-0,000000  	-0,000000  	26,897827  	25,750490  	26,788201  	26,500232  	29,705725  	28,197007  	29,623488  	29,085245  	32,230873  	31,249596  	34,316801  	65,414173  	27,621423  	26,700110  	28,335383  	71,494748  	0,310299  	0,157231  	-4558,338626  	-27091,114741  	-0,102673  	-0,050006  	0,294945  	0,149451  	-4,794684  	9223,346299  	127434,328912  	18,482787  	-0,047957  
64,558000  	24,217965  	31,213472  	25,633610  	-242,047242  	80,187047  	72,543987  	0,009880  	0,008312  	0,003963  	0,004438  	0,004337  	0,000002  	-0,000000  	26,894815  	25,742497  	26,781470  	26,498474  	29,703238  	28,187726  	29,613190  	29,079852  	32,225607  	31,246214  	34,309389  	65,405189  	27,624768  	26,691667  	28,330486  	71,486096  	0,361233  	0,183040  	-5353,249963  	-27077,283543  	-0,102621  	-0,049978  	0,293336  	0,148635  	-4,761691  	9274,566814  	127627,929969  	18,510866  	-0,047932  
65,555000  	24,154927  	31,211040  	25,632719  	1256,670793  	80,186516  	72,542211  	0,009884  	0,008267  	0,003962  	0,004371  	0,004317  	0,000001  	-0,000000  	26,891775  	25,737001  	26,777626  	26,497651  	29,697916  	28,187799  	29,614099  	29,079941  	32,217925  	31,246294  	34,302529  	65,396621  	27,631072  	26,681682  	28,325988  	71,486167  	0,306951  	0,155534  	-4588,247678  	25507,484012  	-0,018515  	-0,049984  	0,277265  	0,140492  	-4,501552  	9176,383194  	127700,856940  	18,521443  	-0,047938  
66,556000  	24,133116  	31,195771  	25,632350  	1256,670793  	80,186828  	72,526314  	0,009871  	0,008317  	0,003964  	0,004390  	0,004340  	-0,000001  	-0,000000  	26,893370  	25,741142  	26,785982  	26,497607  	29,703163  	28,194028  	29,624288  	29,082764  	32,224038  	31,246689  	34,311020  	65,400855  	27,638954  	26,676858  	28,330332  	71,494800  	0,322622  	0,163475  	-4826,976748  	25519,780882  	-0,018524  	-0,050011  	0,295165  	0,149562  	-4,802314  	9285,405597  	127417,297555  	18,480317  	-0,047961  
67,555000  	24,145558  	31,166959  	25,632074  	1256,670793  	80,188953  	72,510666  	0,009864  	0,008303  	0,003962  	0,004413  	0,004347  	0,000001  	-0,000000  	26,894803  	25,741194  	26,789047  	26,498480  	29,711437  	28,195855  	29,625231  	29,085933  	32,227958  	31,246733  	34,317212  	65,407201  	27,640372  	26,666920  	28,335079  	71,501613  	0,341409  	0,172995  	-5078,219236  	25506,637959  	-0,018515  	-0,049982  	0,301421  	0,152732  	-4,915463  	9255,144588  	127277,643252  	18,460061  	-0,047936  
68,561000  	24,155388  	31,136915  	25,631766  	1256,670793  	80,196764  	72,524132  	0,009871  	0,008281  	0,003963  	0,004375  	0,004356  	0,000001  	-0,000000  	26,894783  	25,741911  	26,785062  	26,499303  	29,710034  	28,197325  	29,621278  	29,088041  	32,228483  	31,247754  	34,316569  	65,407986  	27,640608  	26,658331  	28,335334  	71,503114  	0,310493  	0,157329  	-4592,129602  	25509,575742  	-0,018517  	-0,049989  	0,308489  	0,156313  	-5,027025  	9207,918313  	127423,701967  	18,481245  	-0,047942  
69,556000  	24,209763  	31,123278  	25,632166  	956,927186  	80,203232  	72,529587  	0,009863  	0,008303  	0,003962  	0,004393  	0,004359  	0,000001  	-0,000000  	26,895375  	25,744661  	26,786516  	26,502223  	29,710052  	28,202359  	29,621318  	29,091340  	32,233367  	31,251487  	34,318006  	65,409771  	27,650365  	26,655606  	28,335537  	71,500734  	0,324946  	0,164653  	-4759,060068  	22456,787105  	-0,022148  	-0,049990  	0,310437  	0,157301  	-5,059448  	9255,038471  	127246,517952  	18,455547  	-0,047943  
70,560000  	24,289084  	31,116013  	25,630998  	357,439972  	80,204106  	72,524475  	0,009885  	0,008301  	0,003963  	0,004362  	0,004323  	0,000001  	-0,000000  	26,890984  	25,744913  	26,786858  	26,501165  	29,704661  	28,199299  	29,614587  	29,088005  	32,221318  	31,250727  	34,312985  	65,405639  	27,649878  	26,641336  	28,332622  	71,504986  	0,300147  	0,152087  	-4340,780930  	12461,318489  	-0,036432  	-0,049987  	0,282303  	0,143045  	-4,604519  	9250,490300  	127715,099166  	18,523509  	-0,047940  
71,559000  	24,333691  	31,122200  	25,630261  	1256,670793  	80,202513  	72,529898  	0,009867  	0,008301  	0,003963  	0,004343  	0,004371  	-0,000000  	-0,000000  	26,895572  	25,744352  	26,782362  	26,498491  	29,702713  	28,198527  	29,618189  	29,084612  	32,219081  	31,252835  	34,309553  	65,401478  	27,651338  	26,629136  	28,328480  	71,502951  	0,284916  	0,144369  	-4097,310694  	25515,011206  	-0,018521  	-0,050001  	0,319974  	0,162133  	-5,214188  	9250,464124  	127334,590969  	18,468321  	-0,047952  
72,557000  	24,336825  	31,148366  	25,628970  	57,696365  	80,203450  	72,539499  	0,009888  	0,008295  	0,003961  	0,004408  	0,004333  	0,000000  	-0,000000  	26,895353  	25,737715  	26,774639  	26,496073  	29,708238  	28,198198  	29,622711  	29,086005  	32,223164  	31,252959  	34,311470  	65,408358  	27,648243  	26,620676  	28,332892  	71,502196  	0,337215  	0,170869  	-4865,861480  	1735,053049  	-0,053784  	-0,049995  	0,290134  	0,147013  	-4,722584  	9238,297466  	127797,064337  	18,535397  	-0,047947  
73,556000  	24,337132  	31,188630  	25,628017  	1256,670793  	80,200326  	72,540091  	0,009876  	0,008291  	0,003962  	0,004398  	0,004312  	-0,000000  	-0,000000  	26,884307  	25,737325  	26,773353  	26,484274  	29,703547  	28,197947  	29,619465  	29,069924  	32,215781  	31,241323  	34,308358  	65,398148  	27,639570  	26,602525  	28,329191  	71,496330  	0,329237  	0,166827  	-4778,606095  	25515,352929  	-0,018521  	-0,050001  	0,273661  	0,138666  	-4,452287  	9229,363836  	127524,181325  	18,495819  	-0,047952  
74,559000  	24,338729  	31,214734  	25,626726  	657,183579  	80,194889  	72,538782  	0,009877  	0,008323  	0,003962  	0,004354  	0,004342  	0,000001  	-0,000000  	26,885056  	25,740324  	26,777964  	26,493014  	29,707191  	28,200681  	29,619587  	29,076326  	32,215127  	31,250647  	34,309418  	65,405280  	27,648073  	26,599097  	28,329852  	71,501557  	0,293713  	0,148827  	-4278,254560  	18421,890047  	-0,027547  	-0,049985  	0,297243  	0,150615  	-4,833355  	9297,739213  	127543,316887  	18,498594  	-0,047939  
75,557000  	24,318545  	31,225631  	25,626358  	657,183579  	80,202513  	72,537317  	0,009883  	0,008303  	0,003965  	0,004389  	0,004336  	0,000000  	-0,000000  	26,886462  	25,742700  	26,788019  	26,491159  	29,697267  	28,197836  	29,614817  	29,077785  	32,220292  	31,244288  	34,309865  	65,406068  	27,644437  	26,595015  	28,329171  	71,493643  	0,321645  	0,162980  	-4706,299234  	18425,473465  	-0,027552  	-0,049996  	0,292565  	0,148245  	-4,762935  	9255,608673  	127683,232451  	18,518887  	-0,047948  
76,558000  	24,290712  	31,231665  	25,624944  	57,696365  	80,205450  	72,538127  	0,009874  	0,008300  	0,003963  	0,004392  	0,004355  	0,000000  	-0,000000  	26,881795  	25,735428  	26,775312  	26,473934  	29,695912  	28,185116  	29,603951  	29,074848  	32,212195  	31,239669  	34,305638  	65,403826  	27,628807  	26,574266  	28,325748  	71,487715  	0,324468  	0,164411  	-4770,896952  	1735,326689  	-0,053786  	-0,049996  	0,307127  	0,155623  	-5,001384  	9247,564303  	127494,461183  	18,491508  	-0,047948  
77,582000  	24,259069  	31,237791  	25,624790  	956,927186  	80,201419  	72,559417  	0,009862  	0,008296  	0,003962  	0,004409  	0,004346  	-0,000000  	-0,000000  	26,882525  	25,722744  	26,771809  	26,476659  	29,698913  	28,190767  	29,614408  	29,076233  	32,214667  	31,231448  	34,302706  	65,394196  	27,628038  	26,568153  	28,330350  	71,488167  	0,337969  	0,171251  	-4996,457376  	22461,493992  	-0,022152  	-0,050001  	0,300240  	0,152134  	-4,873106  	9240,148852  	127229,437167  	18,453070  	-0,047952  
78,556000  	24,258824  	31,231080  	25,623930  	357,439972  	80,196295  	72,565589  	0,009880  	0,008296  	0,003963  	0,004384  	0,004339  	0,000001  	-0,000000  	26,886617  	25,730602  	26,780147  	26,481903  	29,695764  	28,191101  	29,613639  	29,079920  	32,224281  	31,247676  	34,297142  	65,409607  	27,629066  	26,562991  	28,333364  	71,513013  	0,317479  	0,160869  	-4689,187806  	12461,188264  	-0,036431  	-0,049985  	0,294509  	0,149230  	-4,773031  	9239,280108  	127625,366792  	18,510494  	-0,047938  
79,557000  	24,269054  	31,218151  	25,623100  	1256,670793  	80,197014  	72,555895  	0,009864  	0,008316  	0,003961  	0,004355  	0,004376  	0,000001  	-0,000000  	26,873360  	25,739228  	26,774401  	26,479379  	29,692559  	28,187979  	29,614196  	29,072348  	32,206193  	31,232552  	34,291858  	65,408462  	27,619147  	26,557898  	28,329660  	71,504037  	0,294619  	0,149285  	-4337,083377  	25507,238695  	-0,018515  	-0,049983  	0,324325  	0,164338  	-5,263406  	9283,252838  	127276,386377  	18,459879  	-0,047937  
80,559000  	24,304506  	31,205530  	25,622055  	1256,670793  	80,197701  	72,543426  	0,009871  	0,008291  	0,003960  	0,004417  	0,004327  	-0,000000  	-0,000000  	26,898240  	25,747096  	26,772596  	26,491947  	29,692964  	28,197595  	29,621374  	29,083782  	32,207477  	31,240881  	34,306695  	65,418484  	27,627009  	26,554050  	28,348995  	71,510610  	0,344681  	0,174652  	-5038,937207  	25516,231769  	-0,018522  	-0,050003  	0,285150  	0,144487  	-4,635598  	9229,687846  	127420,009015  	18,480710  	-0,047954  
81,556000  	24,298577  	31,201066  	25,622332  	956,927186  	80,199014  	72,533421  	0,009887  	0,008299  	0,003962  	0,004399  	0,004308  	0,000001  	-0,000000  	26,886503  	25,721701  	26,763665  	26,478315  	29,689854  	28,175717  	29,603650  	29,068235  	32,205676  	31,231355  	34,297882  	65,390697  	27,597524  	26,526802  	28,339682  	71,485182  	0,329852  	0,167138  	-4823,178583  	22457,347203  	-0,022148  	-0,049990  	0,270046  	0,136834  	-4,396541  	9247,218361  	127763,404105  	18,530515  	-0,047943  
82,559000  	24,264722  	31,208393  	25,622639  	357,439972  	80,201888  	72,537099  	0,009870  	0,008314  	0,003962  	0,004353  	0,004341  	0,000001  	-0,000000  	26,887982  	25,729359  	26,767746  	26,481734  	29,695430  	28,184056  	29,607697  	29,073501  	32,212759  	31,232098  	34,297306  	65,400707  	27,595785  	26,517193  	28,327716  	71,500122  	0,292789  	0,148358  	-4306,783198  	12463,033499  	-0,036436  	-0,049993  	0,296199  	0,150086  	-4,821827  	9278,048157  	127411,733414  	18,479510  	-0,047945  
83,557000  	24,206384  	31,217720  	25,622639  	1256,670793  	80,207668  	72,539437  	0,009875  	0,008299  	0,003963  	0,004351  	0,004358  	-0,000000  	-0,000000  	26,884939  	25,737570  	26,768063  	26,483378  	29,702057  	28,198099  	29,616264  	29,076189  	32,213982  	31,236596  	34,300336  	65,404591  	27,583068  	26,518836  	28,326707  	71,500886  	0,290758  	0,147329  	-4318,607656  	25516,281988  	-0,018522  	-0,050003  	0,309423  	0,156787  	-5,039371  	9245,964767  	127502,870945  	18,492728  	-0,047954  
84,556000  	24,187706  	31,214395  	25,622209  	1256,670793  	80,211605  	72,543489  	0,009858  	0,008293  	0,003962  	0,004397  	0,004334  	-0,000000  	-0,000000  	26,886745  	25,734326  	26,770984  	26,484346  	29,693653  	28,188239  	29,613400  	29,077486  	32,207101  	31,246989  	34,299605  	65,402655  	27,580602  	26,510286  	28,334323  	71,506472  	0,328496  	0,166451  	-4889,807849  	25516,806013  	-0,018522  	-0,050004  	0,290692  	0,147296  	-4,734249  	9234,499895  	127138,137231  	18,439828  	-0,047955  
85,555000  	24,211821  	31,194232  	25,622086  	1256,670793  	80,217635  	72,544019  	0,009882  	0,008307  	0,003962  	0,004416  	0,004376  	0,000000  	-0,000000  	26,872485  	25,724605  	26,771767  	26,484052  	29,690438  	28,182900  	29,605156  	29,071825  	32,209759  	31,240881  	34,300290  	65,397269  	27,566399  	26,502040  	28,330929  	71,494816  	0,343906  	0,174260  	-5086,928641  	25512,198649  	-0,018519  	-0,049994  	0,324331  	0,164341  	-5,285883  	9263,239894  	127656,760413  	18,515048  	-0,047946  
86,556000  	24,207889  	31,171145  	25,621164  	1256,670793  	80,213698  	72,540964  	0,009871  	0,008295  	0,003963  	0,004421  	0,004354  	-0,000002  	-0,000000  	26,882317  	25,730464  	26,778281  	26,489573  	29,702115  	28,187588  	29,611435  	29,076946  	32,215800  	31,245662  	34,305291  	65,404535  	27,566131  	26,504867  	28,339931  	71,501860  	0,348113  	0,176392  	-5135,040334  	25523,773703  	-0,018527  	-0,050019  	0,306587  	0,155350  	-4,996125  	9237,626099  	127418,730957  	18,480524  	-0,047968  
87,557000  	24,191300  	31,164219  	25,620887  	1256,670793  	80,213292  	72,549505  	0,009876  	0,008297  	0,003961  	0,004349  	0,004331  	-0,000001  	-0,000000  	26,883340  	25,734338  	26,775198  	26,486949  	29,704129  	28,196171  	29,612640  	29,081406  	32,209378  	31,244380  	34,299475  	65,400010  	27,564778  	26,505742  	28,334524  	71,503302  	0,289068  	0,146473  	-4269,973147  	25519,948590  	-0,018524  	-0,050011  	0,288410  	0,146139  	-4,694433  	9242,246430  	127539,270881  	18,498007  	-0,047961  
88,559000  	24,201745  	31,162864  	25,620641  	57,696365  	80,212167  	72,555926  	0,009882  	0,008307  	0,003963  	0,004343  	0,004381  	0,000001  	-0,000000  	26,882512  	25,735206  	26,771531  	26,492642  	29,700546  	28,192327  	29,612843  	29,079145  	32,218267  	31,243004  	34,301831  	65,399236  	27,561553  	26,509221  	28,332626  	71,496011  	0,284899  	0,144360  	-4201,274277  	1735,235488  	-0,053775  	-0,049986  	0,328109  	0,166255  	-5,335365  	9262,926495  	127657,819577  	18,515201  	-0,047939  
89,557000  	24,226874  	31,154122  	25,620119  	57,696365  	80,202982  	72,545328  	0,009875  	0,008298  	0,003962  	0,004344  	0,004359  	-0,000001  	-0,000000  	26,888972  	25,739875  	26,773149  	26,493790  	29,706238  	28,192901  	29,618790  	29,082082  	32,225154  	31,246486  	34,313156  	65,411946  	27,558896  	26,511454  	28,336868  	71,505458  	0,285690  	0,144761  	-4192,431946  	1735,985050  	-0,053798  	-0,050009  	0,310602  	0,157384  	-5,051600  	9243,180966  	127506,373247  	18,493236  	-0,047959  
90,557000  	24,268900  	31,147104  	25,618582  	1256,670793  	80,196420  	72,547323  	0,009874  	0,008309  	0,003961  	0,004440  	0,004347  	-0,000001  	-0,000000  	26,894621  	25,737766  	26,776375  	26,495782  	29,702124  	28,197071  	29,615917  	29,085797  	32,224533  	31,249698  	34,311993  	65,416219  	27,557596  	26,505712  	28,345852  	71,517031  	0,363244  	0,184058  	-5292,758029  	25518,029612  	-0,018523  	-0,050006  	0,301167  	0,152604  	-4,892682  	9267,850321  	127486,404475  	18,490340  	-0,047957  
91,556000  	24,270098  	31,149966  	25,617752  	1256,670793  	80,192546  	72,547385  	0,009876  	0,008312  	0,003961  	0,004331  	0,004307  	-0,000000  	-0,000000  	26,894302  	25,730273  	26,774844  	26,492584  	29,698642  	28,191702  	29,609729  	29,085630  	32,219986  	31,247669  	34,304602  	65,410025  	27,546384  	26,517080  	28,343405  	71,510316  	0,274713  	0,139199  	-4003,763824  	25517,034442  	-0,018522  	-0,050004  	0,269146  	0,136378  	-4,370222  	9273,430656  	127524,329608  	18,495840  	-0,047955  
92,556000  	24,247426  	31,162464  	25,616892  	57,696365  	80,188859  	72,534854  	0,009869  	0,008305  	0,003960  	0,004417  	0,004407  	-0,000001  	-0,000000  	26,886324  	25,726160  	26,771710  	26,486574  	29,695626  	28,185942  	29,605851  	29,079414  	32,217747  	31,241136  	34,305832  	65,405639  	27,536798  	26,537224  	28,331839  	71,497985  	0,344578  	0,174600  	-5047,676860  	1736,473888  	-0,053808  	-0,050019  	0,348771  	0,176725  	-5,669659  	9259,003707  	127385,515574  	18,475707  	-0,047967  
93,557000  	24,267640  	31,179302  	25,617445  	1256,670793  	80,189390  	72,539530  	0,009877  	0,008302  	0,003964  	0,004378  	0,004360  	0,000000  	-0,000000  	26,883154  	25,733137  	26,778163  	26,490974  	29,690396  	28,191634  	29,610148  	29,074678  	32,218266  	31,240133  	34,305943  	65,405343  	27,540195  	26,555218  	28,332014  	71,500537  	0,312489  	0,158340  	-4575,367242  	25514,957321  	-0,018521  	-0,050000  	0,311600  	0,157890  	-5,062664  	9252,790207  	127549,770727  	18,499530  	-0,047951  
94,556000  	24,272126  	31,184289  	25,616154  	1256,670793  	80,191952  	72,535353  	0,009872  	0,008302  	0,003962  	0,004373  	0,004317  	0,000000  	-0,000000  	26,884018  	25,739479  	26,778636  	26,489789  	29,688516  	28,195220  	29,609577  	29,075885  	32,215401  	31,245391  	34,301464  	65,405418  	27,543585  	26,574439  	28,336469  	71,502832  	0,309005  	0,156575  	-4524,685114  	25514,188214  	-0,018520  	-0,049998  	0,277650  	0,140688  	-4,515052  	9253,052670  	127453,986996  	18,485638  	-0,047949  
95,557000  	24,275167  	31,185859  	25,615048  	1256,670793  	80,194983  	72,539094  	0,009880  	0,008290  	0,003962  	0,004338  	0,004371  	0,000000  	-0,000000  	26,879968  	25,733875  	26,769037  	26,481957  	29,685254  	28,191671  	29,601899  	29,072401  	32,213385  	31,246840  	34,300440  	65,408689  	27,548795  	26,600934  	28,330169  	71,498902  	0,280434  	0,142098  	-4105,447934  	25513,663507  	-0,018520  	-0,049997  	0,319762  	0,162026  	-5,199378  	9227,788353  	127613,179345  	18,508727  	-0,047948  
96,556000  	24,281311  	31,188445  	25,614864  	57,696365  	80,201294  	72,537909  	0,009868  	0,008298  	0,003964  	0,004334  	0,004374  	0,000000  	-0,000000  	26,884124  	25,734864  	26,775794  	26,486504  	29,692360  	28,193026  	29,614055  	29,068187  	32,216441  	31,247552  	34,302374  	65,415459  	27,561197  	26,649091  	28,324241  	71,505951  	0,277177  	0,140447  	-4055,676537  	1735,874427  	-0,053786  	-0,049996  	0,322744  	0,163537  	-5,252999  	9244,915624  	127360,815870  	18,472125  	-0,047948  
97,557000  	24,278147  	31,192601  	25,613081  	1256,670793  	80,205981  	72,534356  	0,009886  	0,008300  	0,003962  	0,004368  	0,004336  	0,000000  	-0,000000  	26,884364  	25,737714  	26,779028  	26,487426  	29,697715  	28,190810  	29,609867  	29,071763  	32,220061  	31,248533  	34,309756  	65,411956  	27,566298  	26,676331  	28,330303  	71,499990  	0,304952  	0,154521  	-4466,813193  	25513,960770  	-0,018520  	-0,049997  	0,292003  	0,147960  	-4,757761  	9247,577037  	127756,731372  	18,529547  	-0,047949  
98,556000  	24,284537  	31,195371  	25,612098  	1256,670793  	80,206481  	72,536787  	0,009873  	0,008320  	0,003961  	0,004383  	0,004350  	0,000001  	-0,000000  	26,879746  	25,738401  	26,776785  	26,486399  	29,693496  	28,193813  	29,602559  	29,075040  	32,213267  	31,242008  	34,305821  	65,407187  	27,562945  	26,684251  	28,337824  	71,500489  	0,317253  	0,160754  	-4644,557476  	25511,298277  	-0,018518  	-0,049991  	0,303613  	0,153843  	-4,945689  	9292,093085  	127464,098482  	18,487104  	-0,047944  
99,558000  	24,299191  	31,198511  	25,612098  	1256,670793  	80,202107  	72,548975  	0,009878  	0,008304  	0,003961  	0,004365  	0,004360  	0,000001  	-0,000000  	26,884940  	25,737912  	26,768841  	26,482617  	29,689265  	28,189610  	29,606271  	29,069741  	32,218165  	31,239260  	34,298837  	65,403336  	27,563307  	26,683859  	28,336770  	71,501245  	0,302727  	0,153394  	-4424,522529  	25510,085635  	-0,018517  	-0,049988  	0,311300  	0,157738  	-5,059960  	9256,226273  	127573,580733  	18,502984  	-0,047942  
100,558000  	24,298761  	31,202513  	25,611729  	1256,670793  	80,194983  	72,549848  	0,009862  	0,008281  	0,003962  	0,004382  	0,004338  	0,000001  	-0,000000  	26,892787  	25,736363  	26,764576  	26,483989  	29,695520  	28,188911  	29,617221  	29,080926  	32,212492  	31,244589  	34,299395  	65,414566  	27,574951  	26,677936  	28,339760  	71,503403  	0,316308  	0,160276  	-4625,984753  	25510,452589  	-0,018517  	-0,049989  	0,294092  	0,149019  	-4,775275  	9207,466255  	127233,574968  	18,453670  	-0,047942  
101,558000  	24,311234  	31,210055  	25,611114  	57,696365  	80,187516  	72,548757  	0,009880  	0,008315  	0,003961  	0,004373  	0,004371  	0,000000  	-0,000000  	26,876298  	25,723757  	26,770004  	26,479938  	29,689773  	28,180583  	29,609456  	29,071922  	32,209920  	31,235989  	34,292078  	65,404573  	27,587551  	26,656997  	28,333477  	71,495945  	0,308544  	0,156341  	-4509,200334  	1736,039846  	-0,053784  	-0,049994  	0,320078  	0,162186  	-5,192868  	9280,892798  	127607,177415  	18,507856  	-0,047946  
102,557000  	24,325366  	31,215965  	25,611237  	657,183579  	80,191890  	72,549941  	0,009873  	0,008292  	0,003963  	0,004371  	0,004310  	-0,000001  	-0,000000  	26,885852  	25,733395  	26,766569  	26,481607  	29,689011  	28,182324  	29,604727  	29,069542  	32,217188  	31,234770  	34,287687  	65,402475  	27,578990  	26,637319  	28,328344  	71,495783  	0,306951  	0,155534  	-4480,569765  	18429,436588  	-0,027557  	-0,050006  	0,271506  	0,137574  	-4,406702  	9230,372654  	127475,120848  	18,488703  	-0,047957  
103,559000  	24,329052  	31,221229  	25,611053  	-242,047242  	80,196826  	72,545328  	0,009878  	0,008332  	0,003962  	0,004354  	0,004369  	-0,000001  	-0,000000  	26,877548  	25,723856  	26,756670  	26,481011  	29,690346  	28,179835  	29,595526  	29,066668  	32,206863  	31,229241  	34,288464  	65,396533  	27,576550  	26,610179  	28,327957  	71,489319  	0,293388  	0,148662  	-4283,579445  	-27091,769500  	-0,102684  	-0,050008  	0,318196  	0,161232  	-5,170943  	9316,572136  	127571,377672  	18,502664  	-0,047959  
104,556000  	24,316272  	31,226955  	25,610561  	-242,047242  	80,196014  	72,541525  	0,009884  	0,008282  	0,003961  	0,004339  	0,004348  	0,000001  	-0,000000  	26,880223  	25,732729  	26,773359  	26,487091  	29,686928  	28,184714  	29,606572  	29,073836  	32,212030  	31,243439  	34,300438  	65,400738  	27,592576  	26,582663  	28,342426  	71,490726  	0,281407  	0,142591  	-4119,675546  	-27083,118682  	-0,102652  	-0,049991  	0,301594  	0,152820  	-4,903068  	9208,675281  	127707,748567  	18,522443  	-0,047943  
105,560000  	24,318730  	31,234281  	25,609086  	57,696365  	80,194046  	72,545203  	0,009872  	0,008301  	0,003960  	0,004362  	0,004317  	-0,000001  	-0,000000  	26,866879  	25,720524  	26,760257  	26,470760  	29,684655  	28,180816  	29,593263  	29,064209  	32,207929  	31,231309  	34,276327  	65,401533  	27,577516  	26,564825  	28,323698  	71,488835  	0,300229  	0,152128  	-4398,320978  	1736,796654  	-0,053805  	-0,050015  	0,277388  	0,140555  	-4,506227  	9251,216139  	127437,365182  	18,483227  	-0,047964  
106,556000  	24,324198  	31,235697  	25,609393  	1256,670793  	80,196170  	72,545265  	0,009872  	0,008302  	0,003962  	0,004379  	0,004339  	0,000000  	-0,000000  	26,868128  	25,719119  	26,756681  	26,466741  	29,681089  	28,180076  	29,602446  	29,066376  	32,199754  	31,234132  	34,293287  	65,388255  	27,576912  	26,531496  	28,322212  	71,492115  	0,313548  	0,158877  	-4590,749351  	25514,138140  	-0,018520  	-0,049997  	0,294711  	0,149332  	-4,788925  	9253,352627  	127446,043266  	18,484486  	-0,047949  
107,558000  	24,322723  	31,231449  	25,608103  	357,439972  	80,198764  	72,547821  	0,009878  	0,008291  	0,003960  	0,004410  	0,004363  	-0,000000  	-0,000000  	26,881809  	25,736733  	26,773373  	26,488929  	29,697101  	28,197889  	29,620859  	29,090881  	32,220805  	31,243637  	34,312993  	65,417655  	27,602146  	26,567893  	28,339353  	71,505495  	0,338983  	0,171765  	-4961,166774  	12465,495923  	-0,036442  	-0,050000  	0,313893  	0,159052  	-5,100649  	9229,509570  	127573,686650  	18,502999  	-0,047952  
108,558000  	24,331878  	31,233358  	25,607549  	-242,047242  	80,196639  	72,553806  	0,009878  	0,008322  	0,003964  	0,004388  	0,004367  	-0,000001  	-0,000000  	26,878306  	25,722826  	26,769341  	26,482739  	29,691812  	28,189294  	29,614518  	29,073769  	32,210341  	31,243620  	34,299521  	65,396963  	27,597830  	26,603979  	28,334340  	71,491056  	0,321361  	0,162836  	-4698,315469  	-27092,540027  	-0,102689  	-0,050010  	0,316684  	0,160466  	-5,140562  	9296,221033  	127575,917955  	18,503323  	-0,047960  
109,557000  	24,336579  	31,238068  	25,606228  	956,927186  	80,193640  	72,552466  	0,009872  	0,008282  	0,003961  	0,004399  	0,004360  	0,000001  	-0,000000  	26,885801  	25,728282  	26,771201  	26,484048  	29,691381  	28,190433  	29,612485  	29,077418  	32,206639  	31,247839  	34,304167  	65,409016  	27,599247  	26,646161  	28,343675  	71,500195  	0,330300  	0,167366  	-4829,021288  	22454,804996  	-0,022145  	-0,049982  	0,311099  	0,157636  	-5,048794  	9210,541524  	127452,532411  	18,485427  	-0,047936  
110,557000  	24,303093  	31,242378  	25,606412  	357,439972  	80,188078  	72,544798  	0,009869  	0,008302  	0,003962  	0,004372  	0,004350  	0,000000  	-0,000000  	26,885978  	25,732037  	26,775300  	26,492165  	29,698371  	28,194878  	29,612221  	29,082758  	32,215336  	31,242528  	34,311308  	65,407446  	27,609452  	26,694807  	28,333308  	71,500919  	0,308177  	0,156155  	-4530,256839  	12464,942195  	-0,036440  	-0,049997  	0,303275  	0,153672  	-4,923181  	9253,854206  	127382,797053  	18,475313  	-0,047949  
111,560000  	24,242081  	31,245610  	25,605582  	1256,670793  	80,182923  	72,542367  	0,009879  	0,008299  	0,003961  	0,004390  	0,004325  	0,000000  	-0,000000  	26,886906  	25,733888  	26,782001  	26,488328  	29,703262  	28,197838  	29,610327  	29,086963  	32,221288  	31,247468  	34,306748  	65,416088  	27,602157  	26,718005  	28,329936  	71,493304  	0,322569  	0,163448  	-4785,739630  	25513,841158  	-0,018520  	-0,049996  	0,283747  	0,143777  	-4,604531  	9246,440878  	127591,826598  	18,505630  	-0,047948  
112,556000  	24,178612  	31,243086  	25,604722  	1256,670793  	80,180986  	72,540808  	0,009872  	0,008288  	0,003963  	0,004376  	0,004344  	0,000001  	-0,000000  	26,880474  	25,730768  	26,769300  	26,486568  	29,700351  	28,189317  	29,610029  	29,082726  	32,217723  	31,244946  	34,299328  	65,409570  	27,593696  	26,720978  	28,336877  	71,499952  	0,311522  	0,157851  	-4662,084717  	25510,541238  	-0,018517  	-0,049989  	0,298483  	0,151244  	-4,843418  	9223,636352  	127449,623240  	18,485005  	-0,047942  
113,559000  	24,170318  	31,226832  	25,604107  	57,696365  	80,181486  	72,536569  	0,009869  	0,008287  	0,003963  	0,004392  	0,004333  	-0,000001  	-0,000000  	26,893263  	25,743921  	26,769943  	26,509332  	29,705419  	28,192743  	29,619928  	29,088689  	32,225263  	31,254428  	34,315052  	65,409331  	27,592843  	26,739026  	28,350391  	71,515898  	0,323892  	0,164119  	-4841,748648  	1736,943778  	-0,053801  	-0,050010  	0,289895  	0,146892  	-4,706977  	9221,187881  	127373,052744  	18,473899  	-0,047960  
114,556000  	24,189487  	31,195987  	25,603800  	1256,670793  	80,187547  	72,537504  	0,009871  	0,008310  	0,003964  	0,004315  	0,004296  	-0,000001  	-0,000000  	26,891705  	25,731740  	26,777425  	26,502444  	29,702593  	28,198988  	29,620284  	29,081229  	32,218632  	31,252780  	34,306455  	65,408937  	27,588829  	26,746505  	28,339979  	71,512568  	0,261810  	0,132661  	-3885,959121  	25518,620584  	-0,018523  	-0,050007  	0,260947  	0,132224  	-4,239801  	9270,509611  	127432,493028  	18,482521  	-0,047957  
115,557000  	24,225246  	31,164773  	25,602694  	1256,670793  	80,190890  	72,528059  	0,009878  	0,008289  	0,003962  	0,004377  	0,004374  	0,000000  	-0,000000  	26,885150  	25,729963  	26,774125  	26,493892  	29,696877  	28,197547  	29,611763  	29,075841  	32,215816  	31,241267  	34,299317  	65,401836  	27,587445  	26,755593  	28,327780  	71,507757  	0,312051  	0,158119  	-4587,392131  	25512,920128  	-0,018519  	-0,049994  	0,322671  	0,163500  	-5,251423  	9224,734308  	127580,408811  	18,503974  	-0,047946  
116,558000  	24,291111  	31,150059  	25,602632  	1256,670793  	80,189578  	72,534792  	0,009858  	0,008310  	0,003963  	0,004364  	0,004340  	-0,000000  	-0,000000  	26,881954  	25,734287  	26,767835  	26,495873  	29,694830  	28,192184  	29,613388  	29,079086  	32,216339  	31,235094  	34,296775  	65,398430  	27,586893  	26,765909  	28,325903  	71,501670  	0,301625  	0,152836  	-4382,621044  	25517,686795  	-0,018522  	-0,050004  	0,295458  	0,149711  	-4,803496  	9271,197248  	127137,515855  	18,439738  	-0,047955  
117,557000  	24,319098  	31,151044  	25,600266  	956,927186  	80,188234  	72,527966  	0,009883  	0,008301  	0,003962  	0,004415  	0,004319  	0,000002  	-0,000000  	26,890638  	25,735955  	26,770163  	26,498902  	29,701772  	28,191576  	29,614958  	29,083680  	32,219398  	31,245815  	34,300763  	65,403772  	27,589066  	26,766149  	28,329610  	71,502172  	0,342988  	0,173794  	-4963,988865  	22454,428424  	-0,022145  	-0,049981  	0,278586  	0,141161  	-4,532424  	9251,771485  	127677,265828  	18,518022  	-0,047935  
118,558000  	24,312831  	31,169514  	25,600450  	-242,047242  	80,189234  	72,520485  	0,009874  	0,008294  	0,003961  	0,004360  	0,004301  	-0,000001  	-0,000000  	26,892915  	25,741553  	26,770193  	26,494067  	29,703345  	28,195394  	29,613481  	29,082496  	32,220747  	31,246394  	34,305943  	65,404439  	27,585995  	26,781424  	28,327094  	71,503590  	0,298288  	0,151145  	-4332,687251  	-27094,305287  	-0,102698  	-0,050014  	0,264938  	0,134246  	-4,315145  	9236,372505  	127494,270533  	18,491481  	-0,047964  
119,557000  	24,282602  	31,197403  	25,600450  	-242,047242  	80,194483  	72,528402  	0,009864  	0,008279  	0,003964  	0,004417  	0,004333  	-0,000000  	-0,000000  	26,886159  	25,738313  	26,772182  	26,486945  	29,700056  	28,196264  	29,617757  	29,083020  	32,222103  	31,240368  	34,308416  	65,406861  	27,583071  	26,807503  	28,321211  	71,499251  	0,344479  	0,174550  	-5046,045886  	-27089,078493  	-0,102678  	-0,050003  	0,289782  	0,146835  	-4,718166  	9202,625201  	127273,745528  	18,459496  	-0,047954  
120,558000  	24,243156  	31,212795  	25,599651  	956,927186  	80,197733  	72,529711  	0,009872  	0,008301  	0,003961  	0,004352  	0,004374  	-0,000001  	-0,000000  	26,889719  	25,732325  	26,776563  	26,490572  	29,702845  	28,194981  	29,618754  	29,084340  	32,222869  	31,248234  	34,308835  	65,411520  	27,584598  	26,817818  	28,324613  	71,502526  	0,292140  	0,148029  	-4313,308408  	22467,978551  	-0,022158  	-0,050015  	0,322563  	0,163445  	-5,253230  	9251,770070  	127452,998443  	18,485495  	-0,047964  
121,561000  	24,249331  	31,213749  	25,598760  	1256,670793  	80,200420  	72,539966  	0,009874  	0,008304  	0,003961  	0,004382  	0,004362  	-0,000000  	-0,000000  	26,887639  	25,736715  	26,773158  	26,494435  	29,703252  	28,196077  	29,614254  	29,078516  	32,217145  	31,249769  	34,302740  	65,407349  	27,582578  	26,819002  	28,330982  	71,510122  	0,316140  	0,160190  	-4664,159674  	25516,349188  	-0,018521  	-0,050001  	0,312936  	0,158567  	-5,091410  	9256,301262  	127487,131768  	18,490445  	-0,047952  
122,556000  	24,279192  	31,203529  	25,598514  	657,183579  	80,205606  	72,541463  	0,009878  	0,008294  	0,003961  	0,004374  	0,004320  	0,000001  	-0,000000  	26,875051  	25,735545  	26,772184  	26,488818  	29,702281  	28,192776  	29,610297  	29,073721  	32,216176  	31,247259  	34,301498  	65,407494  	27,585305  	26,813330  	28,330911  	71,506615  	0,309282  	0,156715  	-4536,716738  	18425,684423  	-0,027551  	-0,049993  	0,279655  	0,141703  	-4,552130  	9236,478621  	127573,820811  	18,503018  	-0,047946  
123,561000  	24,309605  	31,192632  	25,598237  	-242,047242  	80,206825  	72,535914  	0,009866  	0,008303  	0,003963  	0,004397  	0,004379  	0,000001  	-0,000000  	26,870449  	25,727942  	26,764994  	26,482022  	29,696783  	28,183994  	29,605486  	29,067732  	32,210388  	31,245905  	34,298735  	65,402636  	27,582054  	26,811837  	28,325989  	71,494431  	0,328611  	0,166509  	-4791,472639  	-27083,865423  	-0,102659  	-0,049993  	0,326485  	0,165432  	-5,319108  	9255,461524  	127323,709824  	18,466743  	-0,047945  
124,559000  	24,333691  	31,192632  	25,597315  	956,927186  	80,201576  	72,539904  	0,009862  	0,008291  	0,003960  	0,004383  	0,004307  	-0,000000  	-0,000000  	26,879438  	25,728864  	26,770879  	26,489069  	29,695762  	28,189109  	29,612964  	29,083862  	32,218168  	31,248958  	34,307162  	65,405463  	27,586946  	26,831211  	28,330601  	71,500746  	0,316604  	0,160425  	-4600,241141  	22463,983362  	-0,022154  	-0,050005  	0,269029  	0,136319  	-4,377753  	9229,821553  	127232,649965  	18,453536  	-0,047955  
125,565000  	24,352677  	31,206176  	25,596117  	1256,670793  	80,200545  	72,542335  	0,009868  	0,008302  	0,003963  	0,004356  	0,004324  	-0,000000  	-0,000000  	26,887759  	25,737416  	26,774332  	26,500271  	29,701079  	28,199233  	29,618499  	29,084871  	32,229630  	31,252020  	34,302823  	65,412530  	27,595759  	26,850263  	28,333789  	71,501923  	0,294932  	0,149444  	-4281,945159  	25516,289055  	-0,018521  	-0,050001  	0,282679  	0,143236  	-4,597801  	9253,227409  	127369,705786  	18,473414  	-0,047952  
126,556000  	24,341064  	31,223476  	25,596178  	1256,670793  	80,195983  	72,540465  	0,009874  	0,008296  	0,003962  	0,004347  	0,004358  	0,000001  	-0,000000  	26,884547  	25,743087  	26,770527  	26,497498  	29,700592  	28,189732  	29,619998  	29,079898  	32,224489  	31,251314  	34,312779  	65,414183  	27,600219  	26,861910  	28,334456  	71,510057  	0,288073  	0,145969  	-4200,014188  	25510,507744  	-0,018517  	-0,049988  	0,309953  	0,157056  	-5,039637  	9239,928836  	127496,134662  	18,491751  	-0,047941  
127,559000  	24,325488  	31,240007  	25,596271  	1256,670793  	80,189672  	72,548694  	0,009876  	0,008291  	0,003963  	0,004371  	0,004382  	0,000000  	-0,000000  	26,890610  	25,738785  	26,783864  	26,496106  	29,696228  	28,207434  	29,620148  	29,083693  	32,223187  	31,255019  	34,304034  	65,418493  	27,607130  	26,872335  	28,334712  	71,516617  	0,307050  	0,155585  	-4497,578374  	25513,524280  	-0,018519  	-0,049995  	0,328688  	0,166548  	-5,334105  	9228,222725  	127526,822173  	18,496202  	-0,047947  
128,558000  	24,322539  	31,252074  	25,596516  	57,696365  	80,184797  	72,557235  	0,009872  	0,008291  	0,003960  	0,004383  	0,004311  	-0,000001  	-0,000000  	26,901754  	25,744188  	26,791031  	26,498834  	29,709016  	28,205244  	29,625641  	29,095054  	32,233084  	31,258395  	34,314391  	65,426365  	27,606085  	26,874402  	28,345753  	71,511895  	0,316826  	0,160538  	-4650,851947  	1737,301302  	-0,053799  	-0,050008  	0,272800  	0,138230  	-4,419363  	9228,758969  	127439,928359  	18,483599  	-0,047958  
129,557000  	24,316149  	31,248473  	25,595717  	57,696365  	80,188172  	72,542554  	0,009866  	0,008292  	0,003962  	0,004404  	0,004378  	0,000000  	-0,000000  	26,899551  	25,750326  	26,778877  	26,503297  	29,705832  	28,192603  	29,616959  	29,087513  	32,231796  	31,262893  	34,320729  	65,415763  	27,606904  	26,858496  	28,345900  	71,499899  	0,333645  	0,169060  	-4899,723389  	1736,984489  	-0,053788  	-0,049996  	0,325958  	0,165165  	-5,293013  	9231,228664  	127306,064152  	18,464184  	-0,047948  
130,557000  	24,282049  	31,244286  	25,596578  	657,183579  	80,190671  	72,539998  	0,009878  	0,008313  	0,003963  	0,004344  	0,004364  	0,000000  	-0,000000  	26,889971  	25,737417  	26,773387  	26,500017  	29,696830  	28,201580  	29,608947  	29,090637  	32,222596  	31,245759  	34,304289  	65,406752  	27,604275  	26,825582  	28,342391  	71,506581  	0,285467  	0,144648  	-4210,306579  	18426,460280  	-0,027552  	-0,049995  	0,314798  	0,159511  	-5,115178  	9276,210919  	127579,321402  	18,503816  	-0,047948  
131,556000  	24,245829  	31,240869  	25,596578  	-242,047242  	80,187297  	72,529774  	0,009865  	0,008307  	0,003961  	0,004364  	0,004338  	-0,000001  	-0,000000  	26,882242  	25,741666  	26,779564  	26,494218  	29,702760  	28,193400  	29,621907  	29,083244  	32,215454  	31,258560  	34,306561  	65,411666  	27,616916  	26,815435  	28,327890  	71,501643  	0,301413  	0,152728  	-4466,449929  	-27092,072931  	-0,102691  	-0,050010  	0,294022  	0,148983  	-4,781845  	9263,554708  	127285,417515  	18,461189  	-0,047960  
132,556000  	24,208718  	31,233419  	25,596701  	956,927186  	80,189609  	72,532143  	0,009865  	0,008288  	0,003960  	0,004401  	0,004322  	0,000002  	-0,000000  	26,896952  	25,748647  	26,780925  	26,502434  	29,708306  	28,213611  	29,609682  	29,086146  	32,225825  	31,250010  	34,307437  	65,408008  	27,610287  	26,798633  	28,340691  	71,512598  	0,331139  	0,167791  	-4927,756378  	22454,532978  	-0,022145  	-0,049981  	0,281261  	0,142517  	-4,574281  	9223,426948  	127302,074634  	18,463605  	-0,047935  
133,556000  	24,196430  	31,214580  	25,595963  	1256,670793  	80,191546  	72,542211  	0,009867  	0,008296  	0,003962  	0,004396  	0,004380  	0,000001  	-0,000000  	26,896493  	25,742987  	26,779532  	26,501538  	29,711950  	28,206612  	29,629231  	29,087780  	32,229662  	31,252851  	34,312276  	65,402669  	27,618231  	26,787941  	28,343305  	71,508903  	0,327440  	0,165916  	-4868,169460  	25511,295751  	-0,018518  	-0,049990  	0,327416  	0,165904  	-5,319269  	9240,643357  	127340,063316  	18,469115  	-0,047943  
134,560000  	24,216030  	31,194817  	25,595840  	1256,670793  	80,185547  	72,544143  	0,009873  	0,008293  	0,003962  	0,004363  	0,004335  	0,000001  	-0,000000  	26,886503  	25,750006  	26,796741  	26,501137  	29,716400  	28,212437  	29,627975  	29,096111  	32,234101  	31,259293  	34,312120  	65,411119  	27,624645  	26,767446  	28,332993  	71,506404  	0,300567  	0,152299  	-4443,566131  	25509,933846  	-0,018517  	-0,049987  	0,291389  	0,147649  	-4,729059  	9233,459949  	127463,314700  	18,486991  	-0,047940  
135,556000  	24,243402  	31,177548  	25,596025  	1256,670793  	80,179361  	72,535790  	0,009877  	0,008311  	0,003960  	0,004402  	0,004326  	0,000001  	-0,000000  	26,882821  	25,733210  	26,777204  	26,486541  	29,699176  	28,196508  	29,607492  	29,080393  	32,220959  	31,239480  	34,303152  	65,401552  	27,604880  	26,740342  	28,329963  	71,487825  	0,332667  	0,168565  	-4886,659154  	25510,880818  	-0,018517  	-0,049989  	0,284197  	0,144005  	-4,613651  	9272,636901  	127549,806032  	18,499535  	-0,047942  
136,557000  	24,299683  	31,167205  	25,596025  	1256,670793  	80,177799  	72,523384  	0,009867  	0,008288  	0,003962  	0,004381  	0,004354  	-0,000000  	-0,000000  	26,890141  	25,739062  	26,787480  	26,492877  	29,696234  	28,196828  	29,617659  	29,081125  	32,224475  	31,248466  	34,312312  	65,403321  	27,603789  	26,729302  	28,332662  	71,500155  	0,315058  	0,159642  	-4583,518711  	25518,377305  	-0,018523  	-0,050006  	0,306296  	0,155202  	-4,979444  	9222,428034  	127329,485799  	18,467581  	-0,047956  
137,632000  	24,319897  	31,169667  	25,598207  	1256,670793  	80,179611  	72,518241  	0,009887  	0,008301  	0,003964  	0,004366  	0,004327  	0,000000  	-0,000000  	26,894063  	25,743882  	26,790177  	26,500191  	29,704683  	28,202483  	29,629939  	29,086436  	32,229971  	31,254619  	34,321397  	65,415629  	27,617727  	26,715396  	28,344888  	71,508475  	0,303359  	0,153714  	-4401,900706  	25515,479564  	-0,018521  	-0,049999  	0,285533  	0,144682  	-4,646120  	9251,025129  	127762,599140  	18,530398  	-0,047951  
138,559000  	24,291695  	31,185059  	25,598145  	1256,670793  	80,180798  	72,524911  	0,009871  	0,008293  	0,003962  	0,004350  	0,004367  	-0,000000  	-0,000000  	26,890028  	25,743661  	26,778281  	26,497965  	29,710125  	28,198509  	29,621781  	29,087469  	32,227593  	31,256861  	34,306989  	65,410061  	27,604056  	26,696297  	28,333324  	71,505222  	0,290154  	0,147023  	-4237,095309  	25517,286537  	-0,018522  	-0,050003  	0,317171  	0,160713  	-5,157230  	9234,499895  	127428,044539  	18,481875  	-0,047954  
139,556000  	24,285336  	31,205745  	25,597131  	1256,670793  	80,188641  	72,526501  	0,009864  	0,008300  	0,003961  	0,004366  	0,004366  	-0,000001  	-0,000000  	26,887501  	25,743334  	26,774767  	26,497482  	29,708779  	28,201918  	29,621346  	29,082869  	32,227643  	31,257590  	34,303505  	65,401117  	27,606293  	26,677487  	28,331117  	71,504739  	0,302848  	0,153455  	-4439,822861  	25518,707694  	-0,018523  	-0,050006  	0,316322  	0,160283  	-5,147633  	9248,176243  	127282,303573  	18,460737  	-0,047957  
140,557000  	24,262479  	31,215596  	25,596639  	1256,670793  	80,200201  	72,533421  	0,009869  	0,008312  	0,003963  	0,004372  	0,004357  	0,000000  	-0,000000  	26,890396  	25,741734  	26,782956  	26,503462  	29,704453  	28,203927  	29,622544  	29,085673  	32,233078  	31,262736  	34,306649  	65,408356  	27,604745  	26,664663  	28,337884  	71,516553  	0,307826  	0,155978  	-4534,135914  	25514,340087  	-0,018520  	-0,049997  	0,308656  	0,156398  	-5,025931  	9273,681092  	127383,015947  	18,475344  	-0,047949  
141,557000  	24,256519  	31,213687  	25,595594  	1256,670793  	80,204138  	72,527592  	0,009880  	0,008298  	0,003960  	0,004366  	0,004316  	0,000001  	-0,000000  	26,894263  	25,739685  	26,787903  	26,500947  	29,701891  	28,199151  	29,621908  	29,088900  	32,228378  	31,253931  	34,303229  	65,410866  	27,597548  	26,643421  	28,335439  	71,510467  	0,303043  	0,153554  	-4466,279148  	25507,837857  	-0,018515  	-0,049982  	0,276187  	0,139946  	-4,502953  	9243,688205  	127611,075139  	18,508422  	-0,047936  
142,558000  	24,251666  	31,207161  	25,596578  	1256,670793  	80,201888  	72,537192  	0,009865  	0,008289  	0,003962  	0,004357  	0,004394  	-0,000000  	-0,000000  	26,892146  	25,738930  	26,779192  	26,500857  	29,709003  	28,200826  	29,619392  	29,089766  	32,229919  	31,252503  	34,302855  	65,410141  	27,601921  	26,628839  	28,332322  	71,503602  	0,295492  	0,149728  	-4353,944727  	25517,602637  	-0,018522  	-0,050004  	0,338173  	0,171355  	-5,505057  	9223,871224  	127302,046390  	18,463601  	-0,047955  
143,555000  	24,258486  	31,199034  	25,596117  	1256,670793  	80,195296  	72,538969  	0,009867  	0,008302  	0,003961  	0,004406  	0,004351  	0,000001  	-0,000000  	26,882964  	25,738829  	26,776336  	26,503962  	29,711170  	28,201977  	29,621055  	29,088286  	32,228673  	31,256758  	34,303627  	65,411893  	27,606858  	26,625738  	28,331259  	71,511385  	0,335767  	0,170135  	-4936,744937  	25511,580394  	-0,018518  	-0,049991  	0,303970  	0,154024  	-4,942875  	9252,579388  	127338,629914  	18,468907  	-0,047943  
144,557000  	24,254000  	31,194479  	25,595810  	57,696365  	80,191359  	72,537473  	0,009883  	0,008306  	0,003963  	0,004366  	0,004328  	0,000000  	-0,000000  	26,882220  	25,735650  	26,782801  	26,496277  	29,706705  	28,199026  	29,619321  	29,086355  	32,224109  	31,253070  	34,304516  	65,411151  	27,612613  	26,620664  	28,329835  	71,508495  	0,303401  	0,153736  	-4460,831144  	1736,989052  	-0,053788  	-0,049997  	0,286331  	0,145086  	-4,654562  	9261,926874  	127683,853828  	18,518977  	-0,047949  
145,557000  	24,226137  	31,192970  	25,595594  	1256,670793  	80,193546  	72,540933  	0,009870  	0,008304  	0,003962  	0,004430  	0,004379  	-0,000000  	-0,000000  	26,886530  	25,738278  	26,783940  	26,493758  	29,703027  	28,203064  	29,618898  	29,085533  	32,221411  	31,251975  	34,307957  	65,407935  	27,618901  	26,610192  	28,331005  	71,502141  	0,354996  	0,179879  	-5239,247285  	25515,967776  	-0,018521  	-0,050000  	0,326428  	0,165403  	-5,305487  	9256,558773  	127394,567896  	18,477020  	-0,047952  
146,559000  	24,260667  	31,192539  	25,596209  	1256,670793  	80,196983  	72,533701  	0,009874  	0,008305  	0,003962  	0,004384  	0,004351  	-0,000000  	-0,000000  	26,883374  	25,741646  	26,780996  	26,498184  	29,704097  	28,205707  	29,620877  	29,087430  	32,220132  	31,253153  	34,308139  	65,409942  	27,616065  	26,599449  	28,330948  	71,505202  	0,317595  	0,160928  	-4663,731944  	25517,373545  	-0,018522  	-0,050003  	0,304500  	0,154292  	-4,955990  	9259,278196  	127484,836913  	18,490112  	-0,047954  
147,557000  	24,268593  	31,184043  	25,596301  	1256,670793  	80,192858  	72,526064  	0,009878  	0,008299  	0,003962  	0,004390  	0,004351  	0,000001  	-0,000000  	26,885405  	25,737373  	26,776386  	26,495176  	29,706885  	28,196642  	29,614828  	29,089090  	32,222418  	31,251067  	34,306869  	65,410687  	27,609320  	26,597368  	28,328872  	71,501623  	0,322749  	0,163539  	-4728,184079  	25507,796284  	-0,018515  	-0,049982  	0,303869  	0,153973  	-4,947982  	9246,623399  	127583,388592  	18,504406  	-0,047936  
148,671000  	24,254461  	31,180780  	25,595625  	1256,670793  	80,185547  	72,538159  	0,009864  	0,008319  	0,003961  	0,004349  	0,004352  	0,000001  	-0,000000  	26,889481  	25,739535  	26,773171  	26,497342  	29,701768  	28,191367  	29,614337  	29,087426  	32,219953  	31,254836  	34,311870  	65,402611  	27,607284  	26,613460  	28,332576  	71,501505  	0,289740  	0,146814  	-4251,291305  	25510,525658  	-0,018517  	-0,049988  	0,304932  	0,154511  	-4,952731  	9288,684609  	127281,152615  	18,460570  	-0,047941  
149,558000  	24,225553  	31,189092  	25,595256  	956,927186  	80,181111  	72,546138  	0,009871  	0,008277  	0,003963  	0,004397  	0,004352  	0,000000  	-0,000000  	26,884830  	25,737148  	26,779604  	26,496553  	29,706999  	28,197953  	29,613354  	29,091097  	32,227737  	31,260453  	34,315214  	65,408926  	27,615776  	26,636893  	28,336896  	71,507087  	0,328424  	0,166415  	-4844,788462  	22461,698552  	-0,022152  	-0,049999  	0,305143  	0,154618  	-4,948116  	9199,946810  	127423,377156  	18,481198  	-0,047950  
150,562000  	24,221498  	31,191800  	25,594765  	-242,047242  	80,177049  	72,532735  	0,009869  	0,008309  	0,003963  	0,004437  	0,004356  	-0,000000  	-0,000000  	26,888190  	25,738022  	26,780860  	26,496925  	29,705881  	28,199488  	29,614335  	29,083858  	32,222168  	31,253559  	34,304217  	65,411323  	27,611115  	26,632780  	28,330251  	71,502983  	0,360941  	0,182891  	-5329,638384  	-27087,431478  	-0,102674  	-0,050000  	0,308464  	0,156301  	-5,008082  	9267,244747  	127388,798982  	18,476183  	-0,047952  
151,558000  	24,256704  	31,187737  	25,595410  	657,183579  	80,171925  	72,530085  	0,009872  	0,008292  	0,003963  	0,004397  	0,004354  	0,000000  	-0,000000  	26,879384  	25,734010  	26,775472  	26,486900  	29,693949  	28,184060  	29,607572  	29,078931  	32,210741  	31,243754  	34,304721  	65,396287  	27,598037  	26,615490  	28,325074  	71,493353  	0,328222  	0,166313  	-4819,207633  	18427,426174  	-0,027554  	-0,049998  	0,306707  	0,155411  	-4,977947  	9231,350344  	127441,079317  	18,483766  	-0,047950  
152,557000  	24,273662  	31,174931  	25,595226  	57,696365  	80,175424  	72,523477  	0,009861  	0,008295  	0,003959  	0,004379  	0,004397  	-0,000001  	-0,000000  	26,887323  	25,734693  	26,778013  	26,496702  	29,703097  	28,193572  	29,619791  	29,086650  	32,219354  	31,250173  	34,307590  	65,403902  	27,600151  	26,619375  	28,341314  	71,504432  	0,313502  	0,158854  	-4583,303965  	1737,334227  	-0,053798  	-0,050007  	0,340457  	0,172512  	-5,533017  	9236,868424  	127201,164550  	18,448969  	-0,047957  
153,558000  	24,307916  	31,174500  	25,595379  	1256,670793  	80,185391  	72,527529  	0,009875  	0,008284  	0,003964  	0,004382  	0,004366  	0,000000  	-0,000000  	26,881588  	25,734759  	26,770728  	26,487618  	29,699800  	28,194218  	29,613932  	29,081945  	32,214113  	31,244240  	34,307953  	65,407349  	27,589610  	26,601555  	28,339637  	71,495119  	0,316120  	0,160180  	-4598,337461  	25514,532249  	-0,018520  	-0,049997  	0,316509  	0,160378  	-5,147802  	9213,960611  	127501,155099  	18,492479  	-0,047949  
154,556000  	24,339313  	31,184782  	25,596240  	1256,670793  	80,191140  	72,535696  	0,009884  	0,008299  	0,003961  	0,004405  	0,004352  	0,000001  	-0,000000  	26,872961  	25,735030  	26,775994  	26,484171  	29,704887  	28,198756  	29,614974  	29,083524  	32,217777  	31,257409  	34,315522  	65,404657  	27,582685  	26,607429  	28,341896  	71,492824  	0,334990  	0,169742  	-4857,826944  	25509,582707  	-0,018516  	-0,049986  	0,304674  	0,154380  	-4,953748  	9246,776208  	127698,484413  	18,521099  	-0,047940  
155,559000  	24,338023  	31,196787  	25,595779  	1256,670793  	80,191109  	72,535073  	0,009874  	0,008301  	0,003959  	0,004419  	0,004374  	0,000000  	-0,000000  	26,890155  	25,740441  	26,787586  	26,497626  	29,704992  	28,204164  	29,624471  	29,095909  	32,220456  	31,264108  	34,319269  	65,412138  	27,589420  	26,608229  	28,342666  	71,502946  	0,345998  	0,175320  	-5027,209478  	25514,988306  	-0,018520  	-0,049998  	0,322240  	0,163281  	-5,239765  	9251,733283  	127481,843009  	18,489678  	-0,047950  
156,559000  	24,288807  	31,214949  	25,595594  	1256,670793  	80,189234  	72,532080  	0,009886  	0,008316  	0,003962  	0,004396  	0,004358  	0,000000  	-0,000000  	26,884528  	25,736578  	26,789216  	26,487980  	29,700445  	28,195453  	29,617756  	29,071507  	32,222079  	31,245700  	34,309732  	65,400212  	27,584903  	26,618742  	28,342347  	71,500272  	0,327394  	0,165893  	-4803,647274  	25514,472962  	-0,018520  	-0,049997  	0,309533  	0,156842  	-5,033868  	9282,113850  	127748,942986  	18,528418  	-0,047949  
157,556000  	24,256642  	31,235297  	25,596455  	1256,670793  	80,182204  	72,523758  	0,009873  	0,008304  	0,003961  	0,004388  	0,004340  	0,000001  	-0,000000  	26,888452  	25,753414  	26,779953  	26,497371  	29,699474  	28,200523  	29,613403  	29,091674  	32,225233  	31,250693  	34,311129  	65,415695  	27,576875  	26,646173  	28,343751  	71,507010  	0,321045  	0,162676  	-4746,205182  	25512,582181  	-0,018519  	-0,049993  	0,295651  	0,149809  	-4,808920  	9256,326023  	127464,642186  	18,487183  	-0,047945  
158,559000  	24,246074  	31,233758  	25,597008  	1256,670793  	80,177018  	72,530241  	0,009882  	0,008302  	0,003962  	0,004389  	0,004344  	0,000003  	-0,000000  	26,883588  	25,732612  	26,776671  	26,490551  	29,698406  	28,198313  	29,613401  	29,081341  	32,219330  	31,247425  	34,300751  	65,407676  	27,565988  	26,637930  	28,340157  	71,500074  	0,321580  	0,162947  	-4760,269244  	25501,330760  	-0,018510  	-0,049968  	0,298760  	0,151384  	-4,852094  	9251,986548  	127651,146843  	18,514234  	-0,047924  
159,557000  	24,239347  	31,215473  	25,597746  	1256,670793  	80,181111  	72,525067  	0,009879  	0,008317  	0,003963  	0,004350  	0,004313  	-0,000000  	-0,000000  	26,882265  	25,728504  	26,770943  	26,491878  	29,695532  	28,190544  	29,612918  	29,075965  	32,215628  	31,243197  	34,300619  	65,412171  	27,556523  	26,649755  	28,332060  	71,500080  	0,289850  	0,146869  	-4283,479931  	25517,290136  	-0,018522  	-0,050003  	0,274459  	0,139070  	-4,462824  	9284,421539  	127586,820283  	18,504904  	-0,047954  
160,561000  	24,241006  	31,200389  	25,598053  	57,696365  	80,184735  	72,523010  	0,009868  	0,008304  	0,003962  	0,004392  	0,004376  	-0,000001  	-0,000000  	26,873636  	25,730432  	26,769081  	26,481724  	29,698158  	28,190057  	29,608812  	29,073960  	32,205089  	31,237839  	34,303272  	65,404519  	27,549271  	26,657715  	28,335629  	71,504055  	0,324068  	0,164207  	-4777,668777  	1737,308353  	-0,053802  	-0,050011  	0,324388  	0,164370  	-5,278605  	9256,388986  	127356,925207  	18,471560  	-0,047961  
161,557000  	24,283492  	31,188383  	25,598022  	956,927186  	80,183360  	72,521482  	0,009887  	0,008298  	0,003962  	0,004365  	0,004345  	0,000002  	-0,000000  	26,883667  	25,736905  	26,775113  	26,495442  	29,704173  	28,197012  	29,609971  	29,077443  	32,223159  	31,247589  	34,310777  	65,413056  	27,543984  	26,656956  	28,329104  	71,505009  	0,302047  	0,153050  	-4418,150606  	22453,666953  	-0,022144  	-0,049979  	0,299620  	0,151820  	-4,875665  	9245,229023  	127770,295732  	18,531515  	-0,047933  
162,558000  	24,288654  	31,179456  	25,598207  	-242,047242  	80,182610  	72,525722  	0,009870  	0,008311  	0,003962  	0,004353  	0,004387  	0,000001  	-0,000000  	26,879188  	25,734045  	26,782061  	26,491741  	29,704929  	28,197801  	29,617115  	29,081692  	32,223253  	31,249995  	34,312137  	65,404494  	27,542038  	26,661236  	28,327381  	71,502580  	0,292275  	0,148098  	-4266,489497  	-27081,702663  	-0,102651  	-0,049988  	0,332411  	0,168435  	-5,405752  	9272,248513  	127398,522108  	18,477593  	-0,047941  
163,557000  	24,253908  	31,183150  	25,598760  	657,183579  	80,186735  	72,524319  	0,009877  	0,008306  	0,003960  	0,004385  	0,004344  	0,000000  	-0,000000  	26,871400  	25,725492  	26,770763  	26,482955  	29,699303  	28,196433  	29,611478  	29,085409  	32,212636  	31,252227  	34,302173  	65,400986  	27,527712  	26,658652  	28,327404  	71,504107  	0,318339  	0,161305  	-4672,891632  	18425,960067  	-0,027552  	-0,049994  	0,298349  	0,151176  	-4,855322  	9261,675023  	127551,719588  	18,499813  	-0,047946  
164,559000  	24,273385  	31,194786  	25,599190  	1256,670793  	80,190046  	72,530989  	0,009875  	0,008299  	0,003963  	0,004392  	0,004382  	0,000001  	-0,000000  	26,875392  	25,733029  	26,774688  	26,484670  	29,700020  	28,195674  	29,608791  	29,085962  	32,213187  	31,254870  	34,299034  	65,399254  	27,528750  	26,666600  	28,330594  	71,505600  	0,324197  	0,164273  	-4753,477742  	25510,367235  	-0,018517  	-0,049988  	0,328801  	0,166606  	-5,348562  	9245,495023  	127499,792308  	18,492281  	-0,047941  
165,557000  	24,291449  	31,194971  	25,600266  	-242,047242  	80,191328  	72,547385  	0,009878  	0,008286  	0,003963  	0,004360  	0,004335  	0,000001  	-0,000000  	26,883473  	25,739689  	26,773290  	26,496603  	29,699002  	28,193010  	29,607067  	29,084006  	32,218385  	31,250698  	34,299141  	65,404889  	27,522065  	26,665557  	28,333801  	71,500996  	0,298435  	0,151219  	-4364,446689  	-27078,938467  	-0,102640  	-0,049982  	0,291249  	0,147578  	-4,728360  	9218,977819  	127575,925016  	18,503324  	-0,047936  
166,558000  	24,263002  	31,192632  	25,599836  	357,439972  	80,195139  	72,545265  	0,009876  	0,008289  	0,003963  	0,004366  	0,004349  	-0,000000  	-0,000000  	26,889414  	25,748366  	26,777620  	26,508526  	29,701556  	28,202256  	29,613067  	29,080753  	32,226578  	31,257284  	34,306968  	65,410264  	27,520444  	26,663713  	28,340643  	71,504718  	0,303223  	0,153646  	-4451,251091  	12466,997522  	-0,036445  	-0,050005  	0,302944  	0,153504  	-4,922048  	9225,027191  	127541,968219  	18,498399  	-0,047956  
167,556000  	24,260882  	31,202790  	25,600850  	357,439972  	80,197608  	72,543333  	0,009873  	0,008298  	0,003962  	0,004384  	0,004309  	0,000000  	-0,000000  	26,888786  	25,745358  	26,786139  	26,503421  	29,712257  	28,204719  	29,623381  	29,078224  	32,232579  	31,252725  	34,307852  	65,410512  	27,518213  	26,661481  	28,341145  	71,508054  	0,317689  	0,160975  	-4671,863087  	12464,712216  	-0,036439  	-0,049995  	0,270673  	0,137152  	-4,400250  	9244,228694  	127474,414739  	18,488601  	-0,047947  
168,559000  	24,288899  	31,203406  	25,601096  	956,927186  	80,196108  	72,539904  	0,009869  	0,008286  	0,003962  	0,004365  	0,004302  	0,000002  	-0,000000  	26,881355  	25,738528  	26,789122  	26,495164  	29,702629  	28,198457  	29,621426  	29,077414  	32,225302  	31,248248  	34,299826  	65,409943  	27,511461  	26,652328  	28,336496  	71,497424  	0,302657  	0,153359  	-4433,232770  	22451,473358  	-0,022142  	-0,049974  	0,265660  	0,134612  	-4,319854  	9218,982771  	127385,353169  	18,475683  	-0,047929  
169,556000  	24,289514  	31,194017  	25,601557  	1256,670793  	80,195545  	72,523976  	0,009878  	0,008324  	0,003963  	0,004372  	0,004354  	0,000000  	-0,000000  	26,882509  	25,731478  	26,780678  	26,494181  	29,695063  	28,198515  	29,613933  	29,081976  	32,219440  	31,250378  	34,299133  	65,407856  	27,506492  	26,649133  	28,332625  	71,491643  	0,308423  	0,156280  	-4511,151748  	25513,050381  	-0,018519  	-0,049994  	0,306947  	0,155532  	-5,001215  	9300,345444  	127575,218907  	18,503221  	-0,047946  
170,557000  	24,290435  	31,197649  	25,602048  	1256,670793  	80,190234  	72,526781  	0,009874  	0,008286  	0,003963  	0,004413  	0,004326  	-0,000001  	-0,000000  	26,883632  	25,727512  	26,773873  	26,492460  	29,699850  	28,195000  	29,612627  	29,078163  	32,220477  	31,247234  	34,298357  	65,404622  	27,500298  	26,649235  	28,329196  	71,494105  	0,341425  	0,173002  	-4995,812319  	25520,017047  	-0,018524  	-0,050010  	0,284361  	0,144088  	-4,628304  	9219,400872  	127497,215009  	18,491908  	-0,047960  
171,556000  	24,290528  	31,206330  	25,602786  	1256,670793  	80,188609  	72,525348  	0,009868  	0,008295  	0,003964  	0,004382  	0,004330  	-0,000001  	-0,000000  	26,885956  	25,734356  	26,778354  	26,493367  	29,703474  	28,194203  	29,615405  	29,080557  	32,224101  	31,248018  	34,299617  	65,408429  	27,497443  	26,646258  	28,331373  	71,499403  	0,315874  	0,160056  	-4627,697669  	25521,276812  	-0,018525  	-0,050012  	0,287678  	0,145769  	-4,682180  	9237,150695  	127352,321374  	18,470893  	-0,047962  
172,557000  	24,296795  	31,209224  	25,603278  	1256,670793  	80,192109  	72,528776  	0,009882  	0,008306  	0,003963  	0,004423  	0,004361  	0,000001  	-0,000000  	26,892166  	25,735465  	26,778828  	26,499333  	29,704369  	28,201288  	29,616601  	29,091104  	32,225306  	31,255810  	34,308203  	65,410856  	27,497671  	26,642949  	28,333404  	71,498193  	0,349131  	0,176907  	-5112,423604  	25510,375006  	-0,018517  	-0,049988  	0,312290  	0,158240  	-5,082813  	9262,008938  	127665,636207  	18,516335  	-0,047942  
173,558000  	24,321157  	31,213133  	25,604660  	57,696365  	80,191765  	72,534387  	0,009885  	0,008304  	0,003961  	0,004371  	0,004359  	-0,000000  	-0,000000  	26,887422  	25,729333  	26,774948  	26,494512  	29,701629  	28,198206  	29,614626  	29,084668  	32,223205  	31,254422  	34,312445  	65,406140  	27,494954  	26,637549  	28,331462  	71,487037  	0,307343  	0,155733  	-4487,199101  	1736,601327  	-0,053791  	-0,050000  	0,310969  	0,157570  	-5,057383  	9256,969799  	127720,027809  	18,524224  	-0,047952  
174,559000  	24,312555  	31,213626  	25,605767  	1256,670793  	80,188453  	72,541369  	0,009888  	0,008299  	0,003962  	0,004394  	0,004371  	0,000000  	-0,000000  	26,884645  	25,736732  	26,778782  	26,486333  	29,702147  	28,197861  	29,613840  	29,085920  	32,226507  	31,247161  	34,316549  	65,409517  	27,497612  	26,639104  	28,336914  	71,494420  	0,325900  	0,165136  	-4764,404894  	25514,476079  	-0,018520  	-0,049998  	0,319882  	0,162087  	-5,195349  	9246,659479  	127785,625366  	18,533738  	-0,047949  
175,557000  	24,301587  	31,217412  	25,605859  	357,439972  	80,188484  	72,546824  	0,009886  	0,008290  	0,003960  	0,004334  	0,004334  	-0,000001  	-0,000001  	26,881629  	25,740314  	26,779353  	26,492644  	29,699730  	28,201655  	29,612393  	29,091002  	32,220797  	31,248793  	34,313897  	65,410620  	27,498174  	26,642144  	28,334017  	71,504017  	0,277624  	0,140674  	-4067,329510  	12468,675952  	-0,036451  	-0,050014  	0,291167  	0,147536  	-4,725615  	9227,066758  	127744,332092  	18,527749  	-0,047964  
176,560000  	24,304721  	31,222522  	25,606166  	956,927186  	80,193983  	72,540528  	0,009881  	0,008316  	0,003962  	0,004390  	0,004356  	0,000000  	-0,000000  	26,880317  	25,736678  	26,779143  	26,488896  	29,706024  	28,194881  	29,608329  	29,084782  	32,219928  	31,255243  	34,306353  	65,406454  	27,500744  	26,628023  	28,328031  	71,494216  	0,322589  	0,163458  	-4727,433737  	22460,783068  	-0,022151  	-0,049997  	0,308010  	0,156071  	-5,006701  	9283,839311  	127635,887821  	18,512020  	-0,047949  
177,556000  	24,299652  	31,223199  	25,607642  	1256,670793  	80,201607  	72,534886  	0,009864  	0,008295  	0,003961  	0,004332  	0,004344  	0,000001  	-0,000000  	26,886492  	25,730247  	26,772640  	26,501481  	29,704261  	28,196449  	29,613515  	29,081942  	32,230192  	31,255977  	34,297059  	65,400922  	27,511676  	26,618044  	28,335074  	71,496595  	0,275991  	0,139847  	-4047,915190  	25508,843526  	-0,018516  	-0,049985  	0,298469  	0,151236  	-4,860003  	9236,903797  	127283,299187  	18,460882  	-0,047939  
178,556000  	24,285397  	31,223199  	25,609301  	657,183579  	80,207981  	72,541868  	0,009872  	0,008284  	0,003961  	0,004405  	0,004342  	0,000001  	-0,000000  	26,895366  	25,739020  	26,789475  	26,504169  	29,706756  	28,205165  	29,616450  	29,096130  	32,233671  	31,257882  	34,304696  	65,398870  	27,518884  	26,608417  	28,339296  	71,498770  	0,334898  	0,169695  	-4922,015124  	18424,045540  	-0,027549  	-0,049990  	0,297229  	0,150608  	-4,839445  	9213,540388  	127438,360796  	18,483372  	-0,047943  
179,559000  	24,284752  	31,222368  	25,609946  	657,183579  	80,204887  	72,551749  	0,009874  	0,008302  	0,003963  	0,004375  	0,004333  	0,000000  	-0,000000  	26,899491  	25,743868  	26,785249  	26,496017  	29,698106  	28,197916  	29,614612  	29,087033  	32,226113  	31,257994  	34,305143  	65,403986  	27,537034  	26,591622  	28,337069  	71,509654  	0,310105  	0,157132  	-4557,507870  	18425,976155  	-0,027552  	-0,049996  	0,290314  	0,147104  	-4,718864  	9252,199490  	127479,385749  	18,489322  	-0,047948  
180,557000  	24,300911  	31,219598  	25,610930  	1256,670793  	80,204013  	72,547447  	0,009886  	0,008286  	0,003961  	0,004337  	0,004365  	0,000000  	-0,000000  	26,885948  	25,739530  	26,784014  	26,499701  	29,705049  	28,206613  	29,608985  	29,092877  	32,230621  	31,253443  	34,303910  	65,411005  	27,550170  	26,576985  	28,336675  	71,512673  	0,279786  	0,141770  	-4100,697419  	25514,977767  	-0,018520  	-0,049999  	0,315604  	0,159919  	-5,132217  	9217,466006  	127750,023333  	18,528574  	-0,047951  
181,562000  	24,308622  	31,215904  	25,611729  	1256,670793  	80,209262  	72,543208  	0,009873  	0,008302  	0,003962  	0,004366  	0,004340  	-0,000001  	-0,000000  	26,894491  	25,744920  	26,791478  	26,503390  	29,709232  	28,223847  	29,624745  	29,088920  	32,229964  	31,264545  	34,308775  	65,416578  	27,563921  	26,576321  	28,348456  	71,508886  	0,302778  	0,153420  	-4430,368048  	25519,273678  	-0,018524  	-0,050009  	0,295770  	0,149869  	-4,815644  	9253,415590  	127460,687973  	18,486610  	-0,047959  
182,557000  	24,312002  	31,217381  	25,611852  	1256,670793  	80,209699  	72,553681  	0,009879  	0,008298  	0,003962  	0,004339  	0,004307  	-0,000000  	-0,000000  	26,882369  	25,743406  	26,786183  	26,504064  	29,711887  	28,207324  	29,619047  	29,088930  	32,227995  	31,261253  	34,315346  	65,402800  	27,559489  	26,566357  	28,342703  	71,502857  	0,281297  	0,142535  	-4114,917746  	25515,497237  	-0,018521  	-0,050000  	0,269249  	0,136431  	-4,378118  	9243,565109  	127590,894534  	18,505495  	-0,047952  
183,558000  	24,300758  	31,221352  	25,611760  	1256,670793  	80,206668  	72,539811  	0,009881  	0,008297  	0,003960  	0,004367  	0,004363  	-0,000000  	-0,000000  	26,894570  	25,744095  	26,780925  	26,506405  	29,713992  	28,206402  	29,627772  	29,088049  	32,229178  	31,251890  	34,305829  	65,405124  	27,557044  	26,552855  	28,347388  	71,503612  	0,304150  	0,154115  	-4459,026984  	25516,341039  	-0,018521  	-0,050002  	0,313942  	0,159077  	-5,112053  	9242,601568  	127634,058998  	18,511755  	-0,047953  
184,557000  	24,297624  	31,229294  	25,612436  	1256,670793  	80,204356  	72,538314  	0,009873  	0,008304  	0,003960  	0,004393  	0,004356  	0,000000  	-0,000000  	26,884489  	25,720727  	26,772607  	26,495211  	29,700848  	28,200970  	29,611765  	29,074235  	32,223323  	31,245589  	34,293378  	65,395075  	27,557105  	26,511568  	28,333763  	71,482832  	0,325068  	0,164714  	-4773,311869  	25514,508584  	-0,018520  	-0,049998  	0,308365  	0,156251  	-5,020706  	9256,265183  	127472,720076  	18,488355  	-0,047950  
185,559000  	24,311418  	31,230033  	25,613143  	57,696365  	80,205231  	72,542491  	0,009879  	0,008292  	0,003962  	0,004370  	0,004360  	0,000000  	-0,000000  	26,898800  	25,736409  	26,798905  	26,508046  	29,716730  	28,207629  	29,627270  	29,089254  	32,229775  	31,262365  	34,311241  	65,415141  	27,588096  	26,522220  	28,341104  	71,506134  	0,306086  	0,155096  	-4486,119690  	1736,035253  	-0,053788  	-0,049998  	0,311303  	0,157739  	-5,066358  	9230,618845  	127587,484026  	18,505000  	-0,047949  
186,557000  	24,311787  	31,226709  	25,612958  	1256,670793  	80,207418  	72,550907  	0,009877  	0,008302  	0,003961  	0,004356  	0,004369  	-0,000000  	-0,000000  	26,893911  	25,733709  	26,780382  	26,503559  	29,713139  	28,206720  	29,612821  	29,092259  	32,222123  	31,247130  	34,309003  	65,404292  	27,570326  	26,502811  	28,332269  	71,490696  	0,294696  	0,149325  	-4316,871596  	25516,436746  	-0,018522  	-0,050002  	0,318524  	0,161398  	-5,179674  	9252,356543  	127560,312939  	18,501059  	-0,047954  
187,559000  	24,277778  	31,227632  	25,612589  	357,439972  	80,209293  	72,549068  	0,009880  	0,008284  	0,003962  	0,004369  	0,004390  	0,000002  	-0,000000  	26,888696  	25,745416  	26,779024  	26,501371  	29,714705  	28,208520  	29,617486  	29,094157  	32,227095  	31,262893  	34,312320  	65,405014  	27,569467  	26,496533  	28,346420  	71,505785  	0,305668  	0,154884  	-4500,231313  	12460,411242  	-0,036427  	-0,049979  	0,335117  	0,169806  	-5,452136  	9213,994568  	127627,711075  	18,510834  	-0,047933  
188,557000  	24,239254  	31,228740  	25,612774  	956,927186  	80,214604  	72,549442  	0,009881  	0,008302  	0,003960  	0,004413  	0,004359  	0,000000  	-0,000000  	26,884924  	25,743521  	26,785578  	26,508480  	29,708896  	28,201920  	29,626143  	29,084374  	32,226248  	31,257533  	34,308183  	65,409313  	27,576717  	26,480277  	28,340052  	71,498800  	0,341447  	0,173014  	-5055,671252  	22461,502674  	-0,022152  	-0,050000  	0,310402  	0,157283  	-5,053300  	9252,956457  	127630,613184  	18,511255  	-0,047951  
189,558000  	24,233448  	31,228556  	25,612958  	-242,047242  	80,218822  	72,549723  	0,009880  	0,008314  	0,003962  	0,004422  	0,004339  	0,000000  	-0,000000  	26,885365  	25,737683  	26,780864  	26,497039  	29,702468  	28,200999  	29,621300  	29,076802  	32,223152  	31,249252  	34,302389  	65,401700  	27,571907  	26,465642  	28,333996  	71,491061  	0,348179  	0,176425  	-5159,489664  	-27086,576139  	-0,102664  	-0,049998  	0,295014  	0,149486  	-4,805255  	9279,446070  	127609,295743  	18,508164  	-0,047949  
190,555000  	24,239961  	31,213287  	25,612221  	-242,047242  	80,226259  	72,555084  	0,009887  	0,008275  	0,003961  	0,004363  	0,004341  	0,000002  	-0,000000  	26,884260  	25,736024  	26,781449  	26,492593  	29,700185  	28,200448  	29,618050  	29,084886  	32,222085  	31,248568  	34,301617  	65,400137  	27,574996  	26,449330  	28,337965  	71,492185  	0,300795  	0,152415  	-4443,453770  	-27075,730307  	-0,102623  	-0,049975  	0,296497  	0,150237  	-4,830716  	9195,345580  	127770,274549  	18,531512  	-0,047930  
191,556000  	24,213603  	31,195187  	25,612774  	657,183579  	80,229945  	72,556705  	0,009877  	0,008309  	0,003961  	0,004393  	0,004349  	-0,000000  	-0,000000  	26,891532  	25,743350  	26,788501  	26,505913  	29,708899  	28,202026  	29,627930  	29,090159  	32,226765  	31,257105  	34,310198  	65,401116  	27,588501  	26,450336  	28,339264  	71,501094  	0,324684  	0,164520  	-4802,029386  	18427,931481  	-0,027555  	-0,050002  	0,302407  	0,153232  	-4,928341  	9267,771087  	127556,740026  	18,500541  	-0,047953  
192,559000  	24,167645  	31,185336  	25,613020  	1256,670793  	80,227633  	72,561069  	0,009877  	0,008295  	0,003962  	0,004418  	0,004381  	-0,000001  	-0,000000  	26,888724  	25,737368  	26,776890  	26,501595  	29,707828  	28,198486  	29,625276  	29,093646  	32,222397  	31,250165  	34,302689  	65,396626  	27,579324  	26,441076  	28,336422  	71,489448  	0,345121  	0,174876  	-5130,714003  	25519,762511  	-0,018524  	-0,050010  	0,328069  	0,166235  	-5,341911  	9238,654726  	127558,582971  	18,500808  	-0,047960  
193,557000  	24,189242  	31,177025  	25,613481  	1256,670793  	80,218947  	72,554461  	0,009887  	0,008308  	0,003962  	0,004399  	0,004374  	-0,000001  	-0,000000  	26,889902  	25,742281  	26,786540  	26,505803  	29,712932  	28,208548  	29,629041  	29,099580  	32,232657  	31,262801  	34,308998  	65,405093  	27,587523  	26,440328  	28,342988  	71,487379  	0,329547  	0,166984  	-4878,286851  	25518,174321  	-0,018523  	-0,050006  	0,322803  	0,163567  	-5,254735  	9266,388737  	127760,749134  	18,530130  	-0,047957  
194,560000  	24,248348  	31,159355  	25,615079  	657,183579  	80,213886  	72,551967  	0,009868  	0,008293  	0,003962  	0,004381  	0,004361  	0,000001  	-0,000000  	26,889255  	25,743035  	26,793824  	26,517309  	29,716724  	28,211507  	29,634753  	29,100249  	32,236147  	31,268642  	34,310871  	65,412556  	27,591285  	26,439635  	28,341137  	71,497680  	0,315621  	0,159928  	-4620,801493  	18423,470921  	-0,027549  	-0,049989  	0,312276  	0,158232  	-5,081657  	9233,894321  	127358,160899  	18,471740  	-0,047942  
195,556000  	24,258670  	31,146426  	25,615540  	657,183579  	80,213292  	72,552216  	0,009862  	0,008316  	0,003961  	0,004411  	0,004348  	0,000001  	-0,000000  	26,884558  	25,735649  	26,785881  	26,508277  	29,708261  	28,204525  	29,627192  	29,093068  	32,225212  	31,259715  	34,304371  	65,406071  	27,579554  	26,428379  	28,334913  	71,498158  	0,339288  	0,171920  	-4950,581369  	18424,107159  	-0,027550  	-0,049991  	0,301620  	0,152833  	-4,907710  	9283,347636  	127221,098016  	18,451860  	-0,047944  
196,557000  	24,248348  	31,152398  	25,617445  	1256,670793  	80,211418  	72,542367  	0,009881  	0,008304  	0,003961  	0,004375  	0,004347  	-0,000001  	-0,000000  	26,884483  	25,735131  	26,784824  	26,496384  	29,705994  	28,203788  	29,623700  	29,093557  	32,221191  	31,257231  	34,301737  	65,402845  	27,575467  	26,414005  	28,335355  	71,495687  	0,310148  	0,157154  	-4536,096866  	25518,946495  	-0,018523  	-0,050008  	0,300918  	0,152477  	-4,901383  	9257,201134  	127648,837866  	18,513899  	-0,047959  
197,558000  	24,246566  	31,174008  	25,618367  	1256,670793  	80,206575  	72,548757  	0,009886  	0,008310  	0,003964  	0,004346  	0,004386  	0,000001  	-0,000000  	26,886305  	25,740883  	26,784768  	26,499765  	29,704561  	28,199086  	29,623883  	29,092812  	32,224480  	31,253920  	34,302587  	65,403883  	27,578034  	26,409609  	28,332971  	71,492848  	0,287220  	0,145537  	-4215,001838  	25512,154659  	-0,018519  	-0,049993  	0,332052  	0,168253  	-5,400584  	9270,563377  	127750,023333  	18,528574  	-0,047946  
198,556000  	24,243310  	31,179610  	25,618490  	1256,670793  	80,202950  	72,552746  	0,009873  	0,008294  	0,003963  	0,004382  	0,004305  	0,000002  	-0,000000  	26,882637  	25,739572  	26,777844  	26,498533  	29,698428  	28,194577  	29,618902  	29,085205  	32,225472  	31,251299  	34,306365  	65,402065  	27,576590  	26,421874  	28,331418  	71,487666  	0,316003  	0,160121  	-4643,316436  	25506,552762  	-0,018514  	-0,049981  	0,267745  	0,135668  	-4,350351  	9234,936389  	127471,632668  	18,488197  	-0,047935  
199,557000  	24,249392  	31,178687  	25,619965  	357,439972  	80,206075  	72,555209  	0,009881  	0,008317  	0,003961  	0,004367  	0,004354  	0,000001  	-0,000000  	26,882619  	25,732860  	26,775686  	26,492947  	29,702365  	28,197815  	29,618938  	29,088483  	32,225415  	31,257927  	34,309086  	65,407716  	27,571542  	26,446673  	28,337825  	71,493740  	0,304304  	0,154193  	-4466,900129  	12461,993049  	-0,036433  	-0,049987  	0,306645  	0,155379  	-4,982825  	9285,018624  	127649,551036  	18,514002  	-0,047941  
200,557000  	24,264323  	31,176039  	25,620334  	-242,047242  	80,204887  	72,553775  	0,009881  	0,008305  	0,003962  	0,004401  	0,004343  	0,000000  	-0,000000  	26,895294  	25,736918  	26,780462  	26,500009  	29,704409  	28,197154  	29,621659  	29,092513  	32,230679  	31,259381  	34,308304  	65,415839  	27,565968  	26,476253  	28,338730  	71,499992  	0,331421  	0,167933  	-4852,602600  	-27085,590148  	-0,102657  	-0,049995  	0,298207  	0,151104  	-4,845881  	9259,585227  	127646,458277  	18,513554  	-0,047947  
201,559000  	24,259008  	31,174962  	25,620949  	1256,670793  	80,198420  	72,547073  	0,009879  	0,008307  	0,003963  	0,004371  	0,004360  	0,000001  	-0,000000  	26,894522  	25,734246  	26,779676  	26,502060  	29,701311  	28,198995  	29,623654  	29,090737  	32,230676  	31,252573  	34,296514  	65,412531  	27,552897  	26,487640  	28,333486  	71,490834  	0,307302  	0,155712  	-4502,223547  	25507,906261  	-0,018515  	-0,049984  	0,311421  	0,157800  	-5,060758  	9264,333606  	127602,015756  	18,507108  	-0,047938  
202,558000  	24,250959  	31,180626  	25,621133  	657,183579  	80,193296  	72,548320  	0,009868  	0,008291  	0,003963  	0,004344  	0,004347  	0,000001  	-0,000000  	26,881919  	25,730204  	26,774246  	26,497680  	29,697715  	28,185691  	29,614832  	29,083003  	32,213123  	31,250413  	34,288943  	65,405865  	27,543014  	26,489908  	28,337351  	71,486324  	0,285561  	0,144696  	-4191,998490  	18421,894112  	-0,027546  	-0,049985  	0,300909  	0,152473  	-4,885858  	9228,749065  	127357,454789  	18,471637  	-0,047938  
203,558000  	24,282571  	31,185428  	25,620211  	657,183579  	80,183392  	72,547354  	0,009884  	0,008311  	0,003964  	0,004418  	0,004359  	0,000000  	-0,000000  	26,884620  	25,737223  	26,784601  	26,496125  	29,705396  	28,198857  	29,617159  	29,083446  	32,220420  	31,253579  	34,300478  	65,410097  	27,556721  	26,512455  	28,341869  	71,485440  	0,345368  	0,175000  	-5050,329129  	18426,112346  	-0,027553  	-0,049997  	0,310811  	0,157490  	-5,040733  	9271,750471  	127710,099911  	18,522784  	-0,047949  
204,556000  	24,307271  	31,180749  	25,620395  	1256,670793  	80,179330  	72,553027  	0,009886  	0,008310  	0,003960  	0,004354  	0,004348  	0,000000  	-0,000000  	26,883995  	25,731877  	26,784074  	26,489995  	29,701489  	28,197129  	29,621313  	29,081596  	32,220151  	31,247037  	34,311096  	65,406486  	27,555111  	26,542278  	28,341069  	71,491214  	0,293261  	0,148598  	-4270,110545  	25514,736573  	-0,018520  	-0,049999  	0,301779  	0,152913  	-4,888010  	9270,032085  	127754,528311  	18,529228  	-0,047951  
205,560000  	24,272556  	31,187768  	25,619074  	956,927186  	80,184204  	72,536288  	0,009876  	0,008293  	0,003964  	0,004402  	0,004354  	0,000000  	-0,000000  	26,878900  	25,728768  	26,777906  	26,479486  	29,691646  	28,193061  	29,611270  	29,078970  	32,216956  	31,245930  	34,294397  	65,406200  	27,564012  	26,557518  	28,338955  	71,490929  	0,332540  	0,168500  	-4871,451003  	22459,501473  	-0,022150  	-0,049995  	0,306579  	0,155346  	-4,979829  	9232,718545  	127540,082907  	18,498125  	-0,047947  
206,556000  	24,257380  	31,202297  	25,619074  	-242,047242  	80,190640  	72,535291  	0,009885  	0,008307  	0,003962  	0,004389  	0,004333  	0,000001  	-0,000000  	26,886649  	25,735161  	26,773130  	26,494334  	29,704189  	28,196036  	29,612311  	29,079775  	32,216787  	31,242000  	34,303248  	65,403366  	27,561709  	26,562195  	28,344232  	71,492108  	0,322151  	0,163237  	-4739,543902  	-27079,795678  	-0,102636  	-0,049983  	0,289925  	0,146907  	-4,713893  	9264,283377  	127721,616555  	18,524454  	-0,047937  
207,558000  	24,273047  	31,204237  	25,618890  	-242,047242  	80,197983  	72,535322  	0,009889  	0,008297  	0,003962  	0,004360  	0,004341  	0,000000  	-0,000000  	26,871526  	25,731787  	26,778753  	26,488064  	29,699527  	28,202714  	29,613120  	29,079513  	32,221584  	31,254231  	34,306726  	65,410529  	27,566958  	26,571512  	28,338303  	71,498099  	0,297933  	0,150965  	-4374,566371  	-27087,335612  	-0,102665  	-0,049999  	0,296272  	0,150123  	-4,821687  	9241,788005  	127803,546420  	18,536337  	-0,047951  
208,556000  	24,281096  	31,195310  	25,617783  	-242,047242  	80,207356  	72,532454  	0,009881  	0,008307  	0,003961  	0,004341  	0,004339  	0,000000  	-0,000000  	26,870985  	25,718410  	26,777597  	26,491330  	29,695288  	28,196875  	29,608611  	29,074389  	32,216476  	31,240092  	34,300776  	65,405774  	27,567376  	26,588071  	28,324372  	71,500009  	0,283113  	0,143456  	-4146,787149  	-27086,596630  	-0,102662  	-0,049997  	0,294904  	0,149430  	-4,807086  	9264,176553  	127649,155615  	18,513945  	-0,047949  
209,559000  	24,311817  	31,193247  	25,618091  	1256,670793  	80,215011  	72,533015  	0,009873  	0,008299  	0,003961  	0,004349  	0,004358  	-0,000001  	-0,000000  	26,882533  	25,728127  	26,778246  	26,493130  	29,703513  	28,199670  	29,608877  	29,072968  	32,221474  	31,252203  	34,299731  	65,413264  	27,576449  	26,593467  	28,334128  	71,507267  	0,289590  	0,146737  	-4221,528705  	25523,396822  	-0,018527  	-0,050018  	0,309721  	0,156938  	-5,053268  	9247,140542  	127471,590302  	18,488191  	-0,047967  
210,556000  	24,314767  	31,197557  	25,617660  	657,183579  	80,219572  	72,547728  	0,009883  	0,008317  	0,003963  	0,004358  	0,004327  	-0,000000  	-0,000000  	26,880469  	25,731150  	26,781463  	26,484628  	29,703855  	28,193634  	29,617621  	29,079266  	32,226213  	31,249683  	34,293048  	65,410371  	27,582976  	26,625648  	28,341534  	71,502229  	0,296963  	0,150473  	-4329,862043  	18428,881713  	-0,027557  	-0,050006  	0,285579  	0,144705  	-4,653242  	9284,333108  	127673,516387  	18,517478  	-0,047956  
211,556000  	24,282786  	31,202544  	25,617752  	657,183579  	80,217104  	72,551936  	0,009874  	0,008286  	0,003960  	0,004350  	0,004389  	-0,000001  	-0,000000  	26,879438  	25,726937  	26,773886  	26,492031  	29,695335  	28,200691  	29,619578  	29,080925  	32,216843  	31,247807  	34,287848  	65,410375  	27,592056  	26,633262  	28,345144  	71,491026  	0,290333  	0,147114  	-4255,938037  	18429,474234  	-0,027558  	-0,050007  	0,334410  	0,169448  	-5,444147  	9218,077947  	127483,375266  	18,489900  	-0,047958  
212,557000  	24,258885  	31,212641  	25,616646  	57,696365  	80,217041  	72,544330  	0,009878  	0,008313  	0,003963  	0,004352  	0,004384  	0,000001  	-0,000000  	26,875889  	25,727552  	26,772112  	26,481872  	29,693087  	28,191793  	29,618078  	29,072058  	32,209268  	31,243728  	34,295847  	65,413912  	27,580446  	26,639052  	28,335290  	71,494970  	0,291930  	0,147923  	-4300,379212  	1735,680248  	-0,053783  	-0,049993  	0,330101  	0,167265  	-5,379294  	9277,453195  	127566,350174  	18,501935  	-0,047945  
213,557000  	24,232527  	31,216889  	25,615632  	1256,670793  	80,219510  	72,542367  	0,009877  	0,008301  	0,003960  	0,004400  	0,004318  	0,000001  	-0,000000  	26,878477  	25,725524  	26,774806  	26,488657  	29,698227  	28,199538  	29,616856  	29,072706  	32,217914  	31,236202  	34,302308  	65,404542  	27,590483  	26,664270  	28,336738  	71,494258  	0,331033  	0,167737  	-4897,871804  	25508,782836  	-0,018516  	-0,049986  	0,278044  	0,140887  	-4,533592  	9250,966411  	127546,247241  	18,499019  	-0,047939  
214,556000  	24,214770  	31,206669  	25,615263  	1256,670793  	80,215635  	72,551032  	0,009870  	0,008310  	0,003959  	0,004411  	0,004347  	-0,000000  	-0,000000  	26,864456  	25,710676  	26,759832  	26,482267  	29,691856  	28,185203  	29,599895  	29,071000  	32,212547  	31,229327  	34,290149  	65,396750  	27,579093  	26,690675  	28,319249  	71,486475  	0,339244  	0,171897  	-5024,789488  	25516,474193  	-0,018522  	-0,050003  	0,301247  	0,152644  	-4,903909  	9269,310489  	127401,191201  	18,477981  	-0,047954  
215,558000  	24,197260  	31,194756  	25,614526  	1256,670793  	80,216510  	72,551032  	0,009888  	0,008319  	0,003963  	0,004385  	0,004348  	-0,000001  	-0,000000  	26,880160  	25,719436  	26,771528  	26,496204  	29,694545  	28,194402  	29,610818  	29,073103  	32,215450  	31,240139  	34,296604  	65,408569  	27,576229  	26,732181  	28,336778  	71,492265  	0,318625  	0,161450  	-4723,165771  	25520,511563  	-0,018525  	-0,050012  	0,302208  	0,153131  	-4,920108  	9290,012486  	127800,001752  	18,535823  	-0,047961  
216,556000  	24,203219  	31,186444  	25,613665  	1256,670793  	80,220322  	72,551780  	0,009873  	0,008308  	0,003963  	0,004415  	0,004317  	0,000000  	-0,000000  	26,883185  	25,730872  	26,784476  	26,499813  	29,699024  	28,203605  	29,619292  	29,083100  	32,225252  	31,245878  	34,308616  	65,412973  	27,587379  	26,769315  	28,345437  	71,504237  	0,342556  	0,173576  	-5067,558175  	25515,251659  	-0,018521  	-0,050000  	0,277072  	0,140395  	-4,512688  	9265,582248  	127470,919498  	18,488094  	-0,047951  
217,557000  	24,208503  	31,173669  	25,612559  	1256,670793  	80,229102  	72,560913  	0,009883  	0,008305  	0,003961  	0,004410  	0,004355  	0,000000  	-0,000000  	26,876277  	25,737492  	26,782641  	26,491013  	29,704010  	28,197515  	29,620036  	29,083907  	32,222465  	31,247600  	34,301706  	65,408209  	27,582136  	26,783587  	28,342534  	71,506461  	0,338693  	0,171618  	-4997,445561  	25514,951169  	-0,018520  	-0,049999  	0,307483  	0,155804  	-5,007771  	9259,399876  	127672,577262  	18,517342  	-0,047951  
218,558000  	24,222819  	31,160679  	25,612251  	657,183579  	80,232726  	72,567334  	0,009869  	0,008293  	0,003962  	0,004372  	0,004341  	0,000001  	-0,000000  	26,875556  	25,735737  	26,774109  	26,488891  	29,703438  	28,187596  	29,613584  	29,076863  	32,218595  	31,243507  	34,294162  	65,405763  	27,577047  	26,778936  	28,338184  	71,505593  	0,308169  	0,156151  	-4529,226943  	18424,988991  	-0,027551  	-0,049993  	0,296121  	0,150047  	-4,820969  	9233,182630  	127390,761966  	18,476468  	-0,047945  
219,556000  	24,230376  	31,155138  	25,610684  	657,183579  	80,233289  	72,559168  	0,009878  	0,008287  	0,003962  	0,004372  	0,004339  	0,000001  	-0,000000  	26,874311  	25,730453  	26,769570  	26,483438  	29,695963  	28,185111  	29,609449  	29,074512  	32,215178  	31,242509  	34,298429  	65,404595  	27,565106  	26,759856  	28,331853  	71,494624  	0,307722  	0,155925  	-4514,122619  	18421,784544  	-0,027546  	-0,049983  	0,294837  	0,149396  	-4,805517  	9220,144398  	127577,330174  	18,503527  	-0,047937  
220,558000  	24,229332  	31,154584  	25,609946  	1256,670793  	80,229227  	72,552684  	0,009888  	0,008304  	0,003961  	0,004353  	0,004359  	0,000001  	-0,000000  	26,882429  	25,737418  	26,780229  	26,488443  	29,703194  	28,194912  	29,615047  	29,084377  	32,224207  	31,250757  	34,307594  	65,414112  	27,572138  	26,753446  	28,340812  	71,498975  	0,292673  	0,148300  	-4293,664956  	25512,419903  	-0,018519  	-0,049993  	0,310428  	0,157296  	-5,061233  	9257,126852  	127779,990613  	18,532921  	-0,047946  
221,556000  	24,252987  	31,163388  	25,608103  	1256,670793  	80,225946  	72,555427  	0,009868  	0,008306  	0,003961  	0,004381  	0,004361  	0,000000  	-0,000000  	26,877320  	25,734894  	26,774512  	26,487571  	29,697731  	28,192513  	29,613212  	29,080280  	32,222744  	31,246366  	34,301082  	65,411209  	27,567592  	26,734775  	28,340821  	71,502628  	0,315034  	0,159630  	-4611,799580  	25513,563346  	-0,018519  	-0,049996  	0,311912  	0,158048  	-5,081431  	9261,670071  	127353,860693  	18,471116  	-0,047948  
222,557000  	24,273139  	31,166281  	25,608041  	1256,670793  	80,226758  	72,550315  	0,009893  	0,008286  	0,003961  	0,004375  	0,004353  	0,000001  	-0,000000  	26,865670  	25,724117  	26,765705  	26,481636  	29,685201  	28,184741  	29,603797  	29,069066  	32,213212  	31,245741  	34,290778  	65,402296  	27,561419  	26,708038  	28,334653  	71,495120  	0,310449  	0,157307  	-4533,318562  	25511,345573  	-0,018518  	-0,049991  	0,305522  	0,154810  	-4,981179  	9219,078276  	127904,272916  	18,550946  	-0,047944  
223,558000  	24,292586  	31,167759  	25,606935  	1256,670793  	80,224290  	72,562690  	0,009885  	0,008309  	0,003963  	0,004400  	0,004348  	0,000001  	-0,000000  	26,866613  	25,722821  	26,767108  	26,479686  	29,689071  	28,187973  	29,603865  	29,073711  	32,213078  	31,247597  	34,293832  	65,403683  	27,573208  	26,711785  	28,333281  	71,492550  	0,330312  	0,167372  	-4810,790494  	25507,545392  	-0,018515  	-0,049983  	0,301485  	0,152765  	-4,905868  	9268,741703  	127732,356478  	18,526012  	-0,047936  
224,556000  	24,305796  	31,175824  	25,607119  	1256,670793  	80,221478  	72,558513  	0,009874  	0,008307  	0,003961  	0,004350  	0,004333  	-0,000001  	-0,000000  	26,865061  	25,724328  	26,766088  	26,482259  	29,694649  	28,189624  	29,612348  	29,079862  	32,214281  	31,241243  	34,301267  	65,410825  	27,578868  	26,737107  	28,336362  	71,498610  	0,290103  	0,146997  	-4222,009561  	25519,146481  	-0,018523  	-0,050008  	0,289796  	0,146842  	-4,716486  	9263,662947  	127488,063832  	18,490580  	-0,047958  
225,557000  	24,290251  	31,187552  	25,605306  	1256,670793  	80,219510  	72,565838  	0,009889  	0,008314  	0,003963  	0,004386  	0,004358  	0,000000  	-0,000000  	26,866818  	25,727497  	26,771183  	26,492248  	29,696534  	28,186246  	29,615396  	29,075350  	32,216600  	31,245959  	34,305289  	65,417321  	27,573970  	26,760143  	28,347775  	71,505421  	0,319727  	0,162008  	-4671,616709  	25513,098982  	-0,018519  	-0,049995  	0,309877  	0,157017  	-5,037209  	9278,870917  	127802,430768  	18,536175  	-0,047947  
226,565000  	24,278208  	31,199866  	25,604876  	1256,670793  	80,217385  	72,561973  	0,009880  	0,008297  	0,003961  	0,004373  	0,004339  	0,000000  	-0,000000  	26,876677  	25,730507  	26,775771  	26,487329  	29,695598  	28,183803  	29,608988  	29,067723  	32,216693  	31,246125  	34,303333  	65,407661  	27,555655  	26,770920  	28,339626  	71,500713  	0,308609  	0,156375  	-4525,097358  	25513,809865  	-0,018520  	-0,049996  	0,294871  	0,149414  	-4,794369  	9242,822291  	127618,404554  	18,509485  	-0,047948  
227,562000  	24,229547  	31,206607  	25,604322  	1256,670793  	80,211699  	72,556861  	0,009882  	0,008312  	0,003961  	0,004364  	0,004331  	0,000001  	-0,000000  	26,875801  	25,729631  	26,783983  	26,484377  	29,695851  	28,188227  	29,608749  	29,066828  	32,218192  	31,246910  	34,302264  	65,405691  	27,553042  	26,770452  	28,330789  	71,503820  	0,301317  	0,152680  	-4453,552121  	25508,106445  	-0,018515  	-0,049984  	0,288702  	0,146288  	-4,693707  	9273,660576  	127659,711950  	18,515476  	-0,047937  
228,559000  	24,185924  	31,205930  	25,603523  	1256,670793  	80,209324  	72,568269  	0,009880  	0,008308  	0,003960  	0,004414  	0,004357  	0,000001  	-0,000000  	26,875251  	25,729688  	26,775126  	26,492820  	29,697270  	28,192369  	29,616523  	29,073982  	32,227305  	31,248051  	34,308164  	65,414321  	27,557930  	26,768601  	28,341523  	71,513999  	0,342146  	0,173368  	-5088,154362  	25510,081163  	-0,018517  	-0,049988  	0,308970  	0,156557  	-5,014182  	9265,018414  	127628,170046  	18,510901  	-0,047941  
229,562000  	24,219470  	31,194325  	25,603708  	956,927186  	80,213542  	72,556612  	0,009882  	0,008310  	0,003964  	0,004405  	0,004385  	0,000001  	-0,000000  	26,873265  	25,722722  	26,769265  	26,484285  	29,698322  	28,185538  	29,610748  	29,074897  	32,218220  	31,246149  	34,310159  	65,412504  	27,552428  	26,759926  	28,343420  	71,502928  	0,335065  	0,169780  	-4950,786178  	22457,991525  	-0,022148  	-0,049990  	0,331173  	0,167808  	-5,385662  	9269,142117  	127665,876284  	18,516370  	-0,047943  
230,559000  	24,236920  	31,173515  	25,602356  	357,439972  	80,214354  	72,544206  	0,009881  	0,008305  	0,003960  	0,004400  	0,004311  	-0,000000  	-0,000000  	26,861773  	25,718962  	26,755410  	26,473375  	29,684139  	28,182303  	29,595134  	29,066698  	32,206819  	31,227253  	34,293760  	65,403282  	27,551093  	26,740057  	28,327296  	71,498406  	0,331031  	0,167736  	-4864,350231  	12466,419888  	-0,036444  	-0,050003  	0,272655  	0,138156  	-4,441663  	9259,223722  	127641,896811  	18,512892  	-0,047954  
231,561000  	24,264384  	31,157539  	25,601526  	357,439972  	80,216448  	72,549442  	0,009891  	0,008283  	0,003961  	0,004444  	0,004330  	-0,000000  	-0,000000  	26,860900  	25,716704  	26,763505  	26,480145  	29,688932  	28,186784  	29,591203  	29,068847  	32,205718  	31,239331  	34,293329  	65,397805  	27,554938  	26,726082  	28,321122  	71,491753  	0,366069  	0,185490  	-5345,519712  	12466,446692  	-0,036444  	-0,050003  	0,287966  	0,145915  	-4,689180  	9211,962075  	127853,673122  	18,543608  	-0,047954  
232,557000  	24,271634  	31,160802  	25,601464  	956,927186  	80,217948  	72,547447  	0,009879  	0,008302  	0,003962  	0,004370  	0,004323  	0,000000  	-0,000000  	26,872923  	25,731858  	26,769905  	26,490638  	29,698750  	28,196530  	29,613687  	29,076355  	32,221450  	31,245081  	34,301615  	65,415997  	27,577120  	26,734667  	28,338432  	71,494350  	0,306395  	0,155253  	-4471,545329  	22460,133292  	-0,022150  	-0,049995  	0,281768  	0,142774  	-4,590343  	9252,040314  	127604,691911  	18,507496  	-0,047947  
233,558000  	24,220914  	31,172192  	25,601741  	1256,670793  	80,215760  	72,545889  	0,009880  	0,008298  	0,003961  	0,004346  	0,004327  	0,000002  	-0,000000  	26,872763  	25,721426  	26,773531  	26,489962  	29,693043  	28,190924  	29,617707  	29,072574  	32,212073  	31,243730  	34,294836  	65,411576  	27,563956  	26,713193  	28,348437  	71,505689  	0,286608  	0,145227  	-4220,497069  	25505,725483  	-0,018514  	-0,049978  	0,285069  	0,144447  	-4,643734  	9243,793615  	127624,385300  	18,510352  	-0,047933  
234,558000  	24,236397  	31,180749  	25,600819  	657,183579  	80,213636  	72,554866  	0,009879  	0,008302  	0,003962  	0,004384  	0,004361  	0,000000  	-0,000000  	26,867286  	25,728998  	26,759197  	26,474076  	29,678086  	28,176623  	29,606070  	29,073491  	32,194733  	31,226814  	34,294754  	65,405475  	27,559014  	26,687024  	28,340850  	71,502172  	0,317642  	0,160951  	-4672,818748  	18426,315239  	-0,027552  	-0,049996  	0,312514  	0,158353  	-5,083442  	9251,973814  	127592,815152  	18,505773  	-0,047948  
235,556000  	24,258516  	31,176224  	25,600266  	657,183579  	80,214230  	72,553650  	0,009882  	0,008310  	0,003964  	0,004353  	0,004299  	-0,000000  	-0,000000  	26,861912  	25,715090  	26,750765  	26,480384  	29,685294  	28,178154  	29,601399  	29,053589  	32,206047  	31,235845  	34,279296  	65,399962  	27,556344  	26,677902  	28,322085  	71,498008  	0,292935  	0,148433  	-4292,826745  	18428,414203  	-0,027555  	-0,050002  	0,263251  	0,133391  	-4,283125  	9269,867250  	127654,839795  	18,514769  	-0,047953  
236,559000  	24,283093  	31,169944  	25,598606  	1256,670793  	80,214729  	72,552778  	0,009873  	0,008309  	0,003963  	0,004396  	0,004335  	0,000001  	-0,000000  	26,866481  	25,729400  	26,762076  	26,483074  	29,694589  	28,192431  	29,604854  	29,066861  	32,199045  	31,233680  	34,296114  	65,414290  	27,567967  	26,676934  	28,337011  	71,500074  	0,327290  	0,165840  	-4774,883107  	25510,957908  	-0,018517  	-0,049989  	0,291304  	0,147606  	-4,740400  	9268,223145  	127469,789723  	18,487930  	-0,047942  
237,557000  	24,283062  	31,174593  	25,599497  	956,927186  	80,219416  	72,549598  	0,009882  	0,008305  	0,003962  	0,004363  	0,004336  	0,000001  	-0,000000  	26,868364  	25,717907  	26,768372  	26,485198  	29,694659  	28,185196  	29,607531  	29,077242  	32,204127  	31,240445  	34,302473  	65,407652  	27,563984  	26,665643  	28,336554  	71,505698  	0,300599  	0,152316  	-4388,459271  	22459,443932  	-0,022150  	-0,049993  	0,292508  	0,148216  	-4,764877  	9259,827174  	127650,977377  	18,514209  	-0,047946  
238,560000  	24,250683  	31,185120  	25,599313  	357,439972  	80,219166  	72,555957  	0,009886  	0,008280  	0,003962  	0,004347  	0,004319  	0,000002  	-0,000000  	26,865267  	25,715028  	26,765624  	26,471374  	29,690172  	28,180061  	29,605931  	29,075051  	32,210428  	31,243651  	34,296024  	65,405742  	27,549119  	26,655850  	28,334539  	71,503326  	0,288080  	0,145972  	-4231,883128  	12460,250104  	-0,036425  	-0,049975  	0,278709  	0,141224  	-4,536196  	9205,991937  	127742,969301  	18,527551  	-0,047930  
239,556000  	24,237135  	31,198604  	25,599774  	357,439972  	80,216604  	72,555801  	0,009879  	0,008324  	0,003964  	0,004393  	0,004346  	0,000002  	-0,000000  	26,857291  	25,714207  	26,766993  	26,475536  	29,676712  	28,177917  	29,597396  	29,061197  	32,209564  	31,230597  	34,285926  	65,406763  	27,529236  	26,648525  	28,333765  	71,492851  	0,324927  	0,164643  	-4791,780198  	12461,598237  	-0,036429  	-0,049981  	0,300507  	0,152269  	-4,889432  	9300,922013  	127586,636695  	18,504877  	-0,047935  
240,556000  	24,234063  	31,196818  	25,599774  	956,927186  	80,215354  	72,552622  	0,009876  	0,008313  	0,003963  	0,004401  	0,004345  	-0,000001  	-0,000000  	26,864060  	25,720283  	26,762148  	26,477950  	29,681030  	28,187291  	29,602348  	29,068900  	32,212515  	31,235165  	34,288807  	65,411342  	27,530847  	26,659201  	28,345676  	71,500827  	0,331564  	0,168006  	-4890,564689  	22465,827456  	-0,022156  	-0,050009  	0,299434  	0,151725  	-4,873193  	9276,735844  	127523,574071  	18,495731  	-0,047959  
241,557000  	24,261005  	31,183920  	25,599129  	1256,670793  	80,212855  	72,549816  	0,009885  	0,008307  	0,003963  	0,004374  	0,004353  	-0,000001  	-0,000000  	26,855185  	25,716847  	26,766578  	26,474365  	29,681277  	28,180717  	29,600936  	29,063035  	32,205623  	31,233238  	34,283196  	65,412099  	27,522144  	26,677224  	28,339776  	71,492936  	0,309361  	0,156756  	-4536,950986  	25523,047058  	-0,018526  	-0,050016  	0,305940  	0,155022  	-4,979274  	9263,845468  	127717,005661  	18,523786  	-0,047965  
242,559000  	24,282264  	31,177394  	25,598514  	1256,670793  	80,210480  	72,550564  	0,009892  	0,008314  	0,003961  	0,004393  	0,004364  	-0,000001  	-0,000000  	26,859836  	25,718738  	26,771958  	26,479359  	29,691988  	28,185970  	29,608552  	29,073201  	32,211525  	31,239751  	34,292603  	65,426210  	27,528629  	26,689297  	28,340462  	71,503701  	0,325082  	0,164721  	-4748,359530  	25521,768358  	-0,018525  	-0,050013  	0,314605  	0,159412  	-5,118213  	9278,097678  	127871,742460  	18,546228  	-0,047963  
243,560000  	24,283277  	31,177117  	25,598330  	1256,670793  	80,202482  	72,551749  	0,009879  	0,008280  	0,003963  	0,004375  	0,004339  	-0,000000  	-0,000000  	26,864778  	25,717176  	26,767481  	26,483745  	29,692356  	28,192782  	29,603992  	29,077024  	32,210801  	31,241732  	34,294823  	65,420830  	27,527274  	26,703480  	28,335474  	71,508765  	0,310271  	0,157217  	-4531,182880  	25515,942710  	-0,018521  	-0,050000  	0,294494  	0,149222  	-4,785302  	9205,435177  	127598,442843  	18,506589  	-0,047952  
244,557000  	24,283216  	31,184813  	25,597961  	1256,670793  	80,201357  	72,552684  	0,009876  	0,008304  	0,003964  	0,004422  	0,004315  	0,000000  	-0,000000  	26,860323  	25,715076  	26,756371  	26,473074  	29,679806  	28,179943  	29,598960  	29,068732  	32,208398  	31,240574  	34,291651  	65,408904  	27,514655  	26,695495  	28,333461  	71,500933  	0,348134  	0,176402  	-5089,849947  	25514,175832  	-0,018520  	-0,049996  	0,275909  	0,139805  	-4,482092  	9257,854814  	127534,547010  	18,497322  	-0,047948  
245,557000  	24,318085  	31,192909  	25,597223  	57,696365  	80,204606  	72,558887  	0,009884  	0,008304  	0,003962  	0,004447  	0,004283  	0,000001  	-0,000000  	26,861818  	25,716932  	26,760462  	26,474789  	29,681736  	28,182706  	29,602821  	29,071077  	32,210104  	31,238346  	34,291137  	65,408831  	27,523113  	26,692408  	28,337856  	71,504406  	0,368524  	0,186734  	-5367,043183  	1736,542504  	-0,053777  	-0,049985  	0,250430  	0,126895  	-4,066626  	9257,018613  	127706,583487  	18,522274  	-0,047938  
246,560000  	24,329267  	31,198080  	25,596977  	1256,670793  	80,201669  	72,557017  	0,009888  	0,008303  	0,003964  	0,004354  	0,004363  	0,000001  	-0,000000  	26,861870  	25,721189  	26,766011  	26,471844  	29,689676  	28,189657  	29,604251  	29,064684  	32,215367  	31,235268  	34,295405  	65,415074  	27,526765  	26,693520  	28,339628  	71,502675  	0,293248  	0,148591  	-4267,009382  	25507,544564  	-0,018515  	-0,049982  	0,314021  	0,159117  	-5,098543  	9254,386913  	127781,014472  	18,533069  	-0,047936  
247,556000  	24,303000  	31,206576  	25,596609  	1256,670793  	80,199451  	72,561942  	0,009874  	0,008300  	0,003963  	0,004373  	0,004341  	-0,000000  	-0,000000  	26,863224  	25,718616  	26,762992  	26,473339  	29,691020  	28,183825  	29,603029  	29,061028  	32,213427  	31,235464  	34,290502  	65,413648  	27,525962  	26,693104  	28,336436  	71,493928  	0,308703  	0,156422  	-4514,645470  	25515,964822  	-0,018521  	-0,050000  	0,296197  	0,150085  	-4,804667  	9249,078945  	127487,873183  	18,490553  	-0,047952  
248,557000  	24,298761  	31,221845  	25,596486  	1256,670793  	80,198639  	72,556206  	0,009887  	0,008294  	0,003961  	0,004391  	0,004346  	0,000001  	-0,000000  	26,864082  	25,714828  	26,760879  	26,474321  	29,687369  	28,177948  	29,599365  	29,061456  	32,205167  	31,235781  	34,289047  	65,406523  	27,529910  	26,693407  	28,335855  	71,498090  	0,323703  	0,164023  	-4747,386934  	25510,471632  	-0,018517  	-0,049988  	0,300504  	0,152268  	-4,877669  	9235,024112  	127765,635410  	18,530839  	-0,047941  
249,556000  	24,320696  	31,224092  	25,597869  	956,927186  	80,198889  	72,537722  	0,009884  	0,008309  	0,003962  	0,004383  	0,004330  	0,000001  	-0,000000  	26,864871  	25,720090  	26,763632  	26,474496  	29,690556  	28,183584  	29,598839  	29,065776  	32,206321  	31,239156  	34,294203  	65,410894  	27,543006  	26,702276  	28,340765  	71,507621  	0,317216  	0,160736  	-4639,016436  	22459,511965  	-0,022150  	-0,049993  	0,287360  	0,145607  	-4,675727  	9267,006337  	127696,380207  	18,520794  	-0,047946  
250,556000  	24,330465  	31,220891  	25,598237  	357,439972  	80,200513  	72,541151  	0,009872  	0,008300  	0,003962  	0,004357  	0,004373  	0,000001  	-0,000000  	26,866527  	25,729529  	26,769987  	26,488463  	29,697390  	28,191732  	29,608850  	29,075848  	32,218343  	31,245997  	34,295896  	65,421784  	27,555700  	26,719493  	28,343976  	71,515419  	0,296160  	0,150066  	-4322,945727  	12464,374260  	-0,036437  	-0,049993  	0,321587  	0,162951  	-5,231427  	9247,887605  	127441,728938  	18,483860  	-0,047946  
251,557000  	24,318760  	31,220983  	25,599252  	357,439972  	80,204731  	72,549692  	0,009864  	0,008303  	0,003960  	0,004368  	0,004365  	-0,000001  	-0,000000  	26,863935  	25,727267  	26,769989  	26,487497  	29,690888  	28,190054  	29,613430  	29,069012  	32,221176  	31,243962  	34,299850  	65,419581  	27,551450  	26,726570  	28,343702  	71,516281  	0,305022  	0,154557  	-4459,934341  	12467,311480  	-0,036446  	-0,050007  	0,315536  	0,159885  	-5,130103  	9255,426151  	127266,818595  	18,458491  	-0,047957  
252,558000  	24,304260  	31,229048  	25,599928  	956,927186  	80,207356  	72,557671  	0,009879  	0,008300  	0,003961  	0,004350  	0,004375  	0,000001  	-0,000000  	26,869030  	25,716877  	26,763711  	26,475026  	29,683598  	28,186533  	29,606312  	29,063042  	32,213978  	31,237418  	34,294848  	65,414752  	27,553780  	26,721459  	28,344779  	71,506874  	0,290156  	0,147024  	-4256,430928  	22459,367273  	-0,022149  	-0,049993  	0,323167  	0,163751  	-5,250490  	9248,579488  	127585,874097  	18,504767  	-0,047946  
253,556000  	24,294767  	31,233881  	25,602202  	1256,670793  	80,206856  	72,556954  	0,009893  	0,008306  	0,003963  	0,004398  	0,004337  	-0,000001  	-0,000000  	26,873776  	25,726027  	26,771919  	26,481882  	29,690250  	28,187364  	29,605939  	29,073328  	32,219056  	31,238621  	34,286742  	65,419866  	27,559382  	26,713303  	28,345190  	71,513164  	0,328753  	0,166582  	-4832,618557  	25522,020708  	-0,018525  	-0,050014  	0,293211  	0,148572  	-4,763942  	9260,785056  	127888,872672  	18,548713  	-0,047963  
254,559000  	24,273201  	31,234189  	25,603493  	657,183579  	80,205544  	72,559448  	0,009873  	0,008287  	0,003962  	0,004417  	0,004361  	0,000000  	-0,000000  	26,871443  	25,728836  	26,774583  	26,485818  	29,698693  	28,189284  	29,605762  	29,078632  	32,214668  	31,242924  	34,285224  	65,416873  	27,564978  	26,711940  	28,341622  	71,504696  	0,344860  	0,174743  	-5085,371323  	18427,328471  	-0,027554  	-0,049999  	0,311917  	0,158050  	-5,065335  	9221,088838  	127458,131858  	18,486239  	-0,047951  
255,556000  	24,292924  	31,229294  	25,603861  	657,183579  	80,202888  	72,549972  	0,009887  	0,008303  	0,003962  	0,004382  	0,004331  	0,000000  	-0,000000  	26,863499  	25,717463  	26,766922  	26,477657  	29,685147  	28,179831  	29,601880  	29,070400  	32,208100  	31,238359  	34,287895  	65,402069  	27,560395  	26,700841  	28,330365  	71,499397  	0,316038  	0,160139  	-4643,876639  	18425,856752  	-0,027552  	-0,049995  	0,288675  	0,146274  	-4,692085  	9254,225615  	127772,336388  	18,531811  	-0,047947  
256,558000  	24,319774  	31,217474  	25,605275  	1256,670793  	80,202888  	72,553463  	0,009885  	0,008319  	0,003964  	0,004398  	0,004335  	0,000001  	-0,000000  	26,866915  	25,723427  	26,766951  	26,485794  	29,689990  	28,193325  	29,610174  	29,070172  	32,223707  	31,244955  	34,300446  	65,414762  	27,581825  	26,699297  	28,341074  	71,509282  	0,329390  	0,166905  	-4813,078292  	25511,337987  	-0,018518  	-0,049991  	0,291524  	0,147717  	-4,736233  	9289,390641  	127717,697648  	18,523886  	-0,047943  
257,556000  	24,328100  	31,214241  	25,606812  	1256,670793  	80,205606  	72,557391  	0,009889  	0,008284  	0,003963  	0,004367  	0,004328  	0,000001  	-0,000000  	26,876102  	25,730190  	26,778589  	26,492239  	29,698316  	28,195961  	29,615452  	29,072162  	32,222227  	31,248895  	34,310835  	65,414780  	27,573560  	26,691992  	28,343934  	71,508924  	0,303642  	0,153858  	-4429,411232  	25510,682832  	-0,018517  	-0,049989  	0,286344  	0,145093  	-4,651339  	9214,729605  	127816,658871  	18,538239  	-0,047942  
258,558000  	24,301925  	31,220829  	25,608164  	1256,670793  	80,204856  	72,552778  	0,009868  	0,008301  	0,003963  	0,004352  	0,004315  	0,000000  	-0,000000  	26,865657  	25,725025  	26,769349  	26,486903  	29,699077  	28,188913  	29,608358  	29,073475  	32,216334  	31,241363  	34,300967  	65,411580  	27,584504  	26,673762  	28,331950  	71,502023  	0,291531  	0,147721  	-4272,977942  	25513,856576  	-0,018520  	-0,049996  	0,275980  	0,139841  	-4,485253  	9251,443230  	127355,491805  	18,471352  	-0,047948  
259,557000  	24,270958  	31,229048  	25,609824  	357,439972  	80,203263  	72,552871  	0,009878  	0,008301  	0,003963  	0,004394  	0,004342  	-0,000000  	-0,000000  	26,864335  	25,728036  	26,773366  	26,484637  	29,703909  	28,191613  	29,614839  	29,082758  	32,223372  	31,243877  	34,296779  	65,402907  	27,589604  	26,686005  	28,340973  	71,513670  	0,326176  	0,165276  	-4807,854469  	12465,615427  	-0,036442  	-0,050001  	0,297134  	0,150560  	-4,827988  	9249,730503  	127564,867344  	18,501720  	-0,047953  
260,558000  	24,245399  	31,229910  	25,611176  	956,927186  	80,201513  	72,542398  	0,009886  	0,008306  	0,003962  	0,004342  	0,004346  	-0,000001  	-0,000000  	26,866568  	25,717215  	26,766156  	26,479194  	29,696279  	28,193843  	29,611554  	29,085490  	32,213340  	31,241540  	34,301098  	65,416171  	27,588869  	26,688807  	28,338032  	71,515318  	0,283471  	0,143637  	-4194,244313  	22466,336381  	-0,022157  	-0,050012  	0,299928  	0,151976  	-4,878930  	9261,716763  	127756,187668  	18,529468  	-0,047961  
261,557000  	24,229577  	31,217935  	25,611145  	1256,670793  	80,198857  	72,546980  	0,009887  	0,008301  	0,003962  	0,004345  	0,004362  	0,000001  	-0,000000  	26,868549  	25,735795  	26,772897  	26,499066  	29,704379  	28,187083  	29,617665  	29,081877  	32,220276  	31,247106  	34,302663  	65,417928  	27,591594  	26,694068  	28,350412  	71,513717  	0,286084  	0,144961  	-4235,248428  	25510,918065  	-0,018518  	-0,049990  	0,312929  	0,158564  	-5,085615  	9250,585805  	127767,061751  	18,531046  	-0,047943  
262,558000  	24,217535  	31,205499  	25,612128  	1256,670793  	80,202482  	72,535260  	0,009879  	0,008313  	0,003963  	0,004356  	0,004300  	-0,000000  	-0,000000  	26,868831  	25,720366  	26,767699  	26,495194  	29,702061  	28,194650  	29,615962  	29,079117  	32,220383  	31,251616  	34,297382  	65,406947  	27,594895  	26,699803  	28,327885  	71,507260  	0,295112  	0,149536  	-4368,661578  	25517,941590  	-0,018523  	-0,050006  	0,263963  	0,133752  	-4,298430  	9277,630764  	127590,449685  	18,505430  	-0,047956  
263,556000  	24,235414  	31,193586  	25,612128  	357,439972  	80,203606  	72,543395  	0,009873  	0,008300  	0,003962  	0,004329  	0,004359  	-0,000000  	-0,000000  	26,878478  	25,728309  	26,784948  	26,495338  	29,698889  	28,208185  	29,620008  	29,086282  	32,232494  	31,248310  	34,307602  	65,415276  	27,596012  	26,689582  	28,343156  	71,515767  	0,272799  	0,138229  	-4021,125019  	12465,489450  	-0,036442  	-0,050001  	0,310519  	0,157342  	-5,051937  	9249,242365  	127462,304964  	18,486844  	-0,047952  
264,557000  	24,253478  	31,180349  	25,613972  	956,927186  	80,205294  	72,545265  	0,009887  	0,008288  	0,003960  	0,004373  	0,004338  	0,000000  	-0,000000  	26,869971  	25,720512  	26,778100  	26,497334  	29,689874  	28,200811  	29,617108  	29,073917  	32,225022  	31,238667  	34,297993  	65,412241  	27,602320  	26,690239  	28,331966  	71,504661  	0,308844  	0,156494  	-4531,962773  	22459,294037  	-0,022150  	-0,049994  	0,293780  	0,148861  	-4,779499  	9222,640975  	127765,338844  	18,530796  	-0,047947  
265,557000  	24,250191  	31,170345  	25,614864  	1256,670793  	80,201888  	72,558232  	0,009891  	0,008304  	0,003962  	0,004405  	0,004387  	0,000001  	-0,000000  	26,880697  	25,736781  	26,783449  	26,498676  	29,702483  	28,205646  	29,611078  	29,076111  	32,231278  	31,256376  	34,300529  	65,414861  	27,602526  	26,690003  	28,340422  	71,514449  	0,334429  	0,169458  	-4902,638104  	25510,877983  	-0,018518  	-0,049990  	0,332890  	0,168678  	-5,404200  	9256,973336  	127863,346820  	18,545011  	-0,047943  
266,557000  	24,231574  	31,173977  	25,616031  	1256,670793  	80,193640  	72,553744  	0,009877  	0,008312  	0,003963  	0,004381  	0,004395  	0,000001  	-0,000000  	26,877335  	25,728363  	26,765936  	26,490998  	29,704969  	28,205195  	29,609709  	29,084443  	32,221368  	31,250309  	34,297708  	65,413208  	27,603220  	26,679313  	28,328092  	71,511508  	0,315034  	0,159630  	-4633,166314  	25510,673869  	-0,018517  	-0,049990  	0,339013  	0,171780  	-5,500894  	9275,236058  	127561,082598  	18,501171  	-0,047943  
267,561000  	24,223372  	31,178964  	25,617230  	1256,670793  	80,194796  	72,547167  	0,009883  	0,008304  	0,003962  	0,004388  	0,004315  	0,000002  	-0,000000  	26,885750  	25,734565  	26,775986  	26,491164  	29,711427  	28,198008  	29,622052  	29,092661  	32,218575  	31,255942  	34,303565  	65,417898  	27,607246  	26,680661  	28,340227  	71,517518  	0,321366  	0,162838  	-4735,262204  	25503,321878  	-0,018512  	-0,049974  	0,275582  	0,139640  	-4,476178  	9257,105629  	127676,065442  	18,517848  	-0,047929  
268,558000  	24,225215  	31,178164  	25,617230  	1256,670793  	80,201669  	72,545110  	0,009879  	0,008278  	0,003963  	0,004407  	0,004345  	0,000000  	-0,000000  	26,876335  	25,726744  	26,778446  	26,489811  	29,699221  	28,197103  	29,615803  	29,076422  	32,217394  	31,241772  	34,295135  	65,409692  	27,604120  	26,662664  	28,336551  	71,503681  	0,336373  	0,170443  	-4954,504325  	25513,951581  	-0,018520  	-0,049997  	0,299685  	0,151853  	-4,873355  	9201,805979  	127587,964180  	18,505070  	-0,047949  
269,558000  	24,214340  	31,169698  	25,618982  	1256,670793  	80,207262  	72,538501  	0,009881  	0,008300  	0,003963  	0,004362  	0,004353  	0,000001  	-0,000000  	26,869753  	25,727134  	26,769563  	26,485846  	29,698317  	28,192277  	29,615760  	29,074285  	32,215795  	31,240374  	34,297991  	65,405519  	27,604905  	26,652948  	28,330971  	71,504069  	0,300134  	0,152080  	-4422,275584  	25511,159415  	-0,018518  	-0,049991  	0,305858  	0,154981  	-4,981655  	9249,629338  	127633,529416  	18,511678  	-0,047944  
270,557000  	24,229147  	31,165820  	25,618367  	657,183579  	80,214511  	72,530709  	0,009889  	0,008306  	0,003962  	0,004341  	0,004348  	0,000001  	-0,000000  	26,875733  	25,730908  	26,770384  	26,490426  	29,698915  	28,191995  	29,621284  	29,077678  	32,214706  	31,247355  	34,304275  	65,405439  	27,612038  	26,661710  	28,328535  	71,504705  	0,282925  	0,143360  	-4157,497603  	18423,918268  	-0,027549  	-0,049991  	0,301732  	0,152890  	-4,924083  	9261,717470  	127803,235732  	18,536292  	-0,047943  
271,560000  	24,235783  	31,161756  	25,619289  	657,183579  	80,211980  	72,525348  	0,009886  	0,008298  	0,003961  	0,004348  	0,004398  	0,000001  	-0,000000  	26,880707  	25,733537  	26,780255  	26,490901  	29,696193  	28,198260  	29,621478  	29,082647  	32,224938  	31,247691  	34,306762  	65,414731  	27,615784  	26,664988  	28,339727  	71,511060  	0,288295  	0,146081  	-4229,882393  	18421,745711  	-0,027546  	-0,049984  	0,341182  	0,172879  	-5,569930  	9244,386454  	127750,581159  	18,528655  	-0,047938  
272,558000  	24,234493  	31,158986  	25,620273  	57,696365  	80,202107  	72,540559  	0,009885  	0,008307  	0,003961  	0,004368  	0,004406  	0,000000  	-0,000000  	26,875067  	25,729034  	26,777916  	26,484324  	29,694228  	28,196362  	29,615761  	29,076968  	32,225709  	31,245583  	34,302001  	65,416088  	27,611618  	26,664744  	28,342775  	71,513436  	0,304919  	0,154505  	-4472,834724  	1735,607980  	-0,053786  	-0,049997  	0,347878  	0,176273  	-5,660733  	9262,925081  	127730,118111  	18,525687  	-0,047949  
273,558000  	24,221897  	31,160155  	25,620580  	956,927186  	80,193452  	72,538938  	0,009873  	0,008313  	0,003961  	0,004374  	0,004336  	0,000000  	-0,000000  	26,877672  	25,732010  	26,776175  	26,488443  	29,699335  	28,195210  	29,621068  	29,075314  	32,223134  	31,247445  	34,304620  	65,415689  	27,616399  	26,674226  	28,335909  	71,511703  	0,309366  	0,156758  	-4547,094666  	22460,696250  	-0,022151  	-0,049998  	0,292570  	0,148248  	-4,756379  	9276,198185  	127462,792179  	18,486915  	-0,047950  
274,559000  	24,208749  	31,160340  	25,620887  	357,439972  	80,191203  	72,544174  	0,009889  	0,008287  	0,003961  	0,004422  	0,004312  	0,000002  	-0,000000  	26,878302  	25,735629  	26,774031  	26,491051  	29,703810  	28,194074  	29,621807  	29,078247  	32,220671  	31,246300  	34,306146  	65,414925  	27,618596  	26,684827  	28,331704  	71,510189  	0,348497  	0,176586  	-5132,083440  	12459,098232  	-0,036424  	-0,049974  	0,273459  	0,138564  	-4,441344  	9220,813642  	127808,157314  	18,537006  	-0,047930  
275,559000  	24,186630  	31,162649  	25,621533  	1256,670793  	80,191078  	72,536600  	0,009879  	0,008320  	0,003962  	0,004375  	0,004353  	0,000001  	-0,000000  	26,864098  	25,730768  	26,769826  	26,484515  	29,698726  	28,189417  	29,609597  	29,069557  	32,210321  	31,239086  	34,300402  	65,405874  	27,610782  	26,698331  	28,332752  	71,506590  	0,310090  	0,157125  	-4582,546074  	25508,148937  	-0,018516  	-0,049985  	0,305749  	0,154926  	-4,970610  	9291,977771  	127590,746251  	18,505473  	-0,047938  
276,558000  	24,167707  	31,165604  	25,621778  	1256,670793  	80,190140  	72,535166  	0,009876  	0,008302  	0,003961  	0,004407  	0,004356  	-0,000000  	-0,000001  	26,861728  	25,728045  	26,773374  	26,482683  	29,693097  	28,190619  	29,610816  	29,067693  	32,210074  	31,238455  	34,300260  	65,405717  	27,610621  	26,708229  	28,335166  	71,506666  	0,336557  	0,170536  	-4989,284191  	25517,105824  	-0,018522  	-0,050005  	0,308432  	0,156285  	-5,014552  	9252,474686  	127535,860373  	18,497513  	-0,047955  
277,561000  	24,165065  	31,155046  	25,621010  	1256,670793  	80,187484  	72,546356  	0,009886  	0,008301  	0,003962  	0,004365  	0,004329  	-0,000000  	-0,000000  	26,871838  	25,730393  	26,774615  	26,484311  	29,696181  	28,195529  	29,620651  	29,077947  	32,221838  	31,246624  	34,299456  	65,417833  	27,615776  	26,706424  	28,340207  	71,512485  	0,302394  	0,153225  	-4477,753398  	25515,549997  	-0,018521  	-0,050001  	0,287153  	0,145503  	-4,660156  	9251,608772  	127747,431912  	18,528199  	-0,047952  
278,557000  	24,179503  	31,138792  	25,621317  	1256,670793  	80,187360  	72,538875  	0,009887  	0,008294  	0,003963  	0,004382  	0,004351  	0,000001  	-0,000000  	26,872700  	25,733542  	26,774453  	26,485771  	29,697416  	28,197420  	29,616881  	29,079551  	32,221824  	31,246463  	34,296941  	65,422538  	27,616853  	26,710523  	28,346801  	71,518187  	0,316320  	0,160281  	-4663,395641  	25511,294910  	-0,018518  	-0,049992  	0,304377  	0,154230  	-4,944420  	9236,428393  	127763,997237  	18,530601  	-0,047944  
279,561000  	24,204110  	31,126233  	25,620672  	357,439972  	80,196327  	72,529026  	0,009876  	0,008307  	0,003960  	0,004360  	0,004333  	-0,000001  	-0,000000  	26,869881  	25,724728  	26,772384  	26,480283  	29,684256  	28,189591  	29,604507  	29,077477  	32,212361  	31,233819  	34,296741  	65,416786  	27,607439  	26,698236  	28,330652  	71,514044  	0,298371  	0,151187  	-4375,289979  	12467,959390  	-0,036450  	-0,050014  	0,289792  	0,146840  	-4,719078  	9264,098734  	127542,229479  	18,498436  	-0,047964  
280,559000  	24,256581  	31,122170  	25,619197  	956,927186  	80,205825  	72,525659  	0,009883  	0,008319  	0,003961  	0,004421  	0,004351  	0,000000  	-0,000000  	26,858119  	25,724736  	26,767515  	26,474418  	29,682818  	28,182976  	29,597019  	29,065946  	32,210431  	31,225833  	34,293352  	65,411154  	27,598230  	26,681890  	28,322112  	71,504604  	0,347672  	0,176168  	-5056,582823  	22461,164823  	-0,022152  	-0,050000  	0,303883  	0,153980  	-4,956844  	9290,216938  	127682,611075  	18,518797  	-0,047951  
281,561000  	24,311848  	31,126941  	25,619965  	1256,670793  	80,209074  	72,534512  	0,009891  	0,008283  	0,003963  	0,004386  	0,004345  	-0,000001  	-0,000000  	26,863620  	25,729477  	26,769280  	26,485314  	29,700588  	28,187817  	29,608982  	29,069674  	32,219335  	31,233323  	34,295738  	65,422390  	27,612513  	26,691929  	28,343311  	71,516562  	0,319716  	0,162002  	-4615,769108  	25519,586082  	-0,018524  	-0,050010  	0,299866  	0,151944  	-4,887748  	9211,028247  	127852,232659  	18,543399  	-0,047960  
282,559000  	24,312155  	31,143071  	25,618490  	657,183579  	80,204825  	72,539811  	0,009885  	0,008289  	0,003962  	0,004377  	0,004327  	0,000001  	-0,000000  	26,862726  	25,714532  	26,757733  	26,482646  	29,696495  	28,180375  	29,608679  	29,068851  	32,211916  	31,234483  	34,297668  	65,408007  	27,613461  	26,675929  	28,343743  	71,505131  	0,311920  	0,158052  	-4513,671992  	18423,548708  	-0,027549  	-0,049989  	0,285419  	0,144624  	-4,646484  	9224,084165  	127717,549365  	18,523864  	-0,047942  
283,559000  	24,273447  	31,172068  	25,616277  	657,183579  	80,203232  	72,545951  	0,009891  	0,008309  	0,003960  	0,004391  	0,004356  	-0,000000  	-0,000000  	26,863627  	25,722459  	26,763387  	26,485261  	29,686619  	28,182323  	29,605416  	29,073500  	32,215479  	31,239508  	34,297897  	65,413125  	27,614271  	26,664801  	28,349299  	71,504550  	0,323087  	0,163711  	-4721,615541  	18427,545169  	-0,027555  	-0,050001  	0,308290  	0,156213  	-5,013748  	9267,453443  	127852,656324  	18,543460  	-0,047953  
284,559000  	24,235906  	31,191770  	25,615909  	1256,670793  	80,204231  	72,553245  	0,009884  	0,008304  	0,003962  	0,004356  	0,004389  	-0,000001  	-0,000000  	26,866657  	25,715959  	26,770104  	26,482361  	29,689019  	28,183418  	29,611598  	29,071066  	32,212283  	31,234309  	34,292725  	65,421230  	27,622652  	26,664493  	28,348402  	71,522977  	0,294760  	0,149357  	-4343,393759  	25518,837454  	-0,018523  	-0,050008  	0,334386  	0,169436  	-5,433691  	9257,768506  	127701,217056  	18,521496  	-0,047958  
285,562000  	24,221989  	31,196726  	25,614648  	57,696365  	80,204762  	72,555676  	0,009887  	0,008304  	0,003961  	0,004391  	0,004353  	-0,000001  	-0,000000  	26,861720  	25,727022  	26,773566  	26,484432  	29,682937  	28,181550  	29,603734  	29,069475  	32,211082  	31,233464  	34,297402  	65,418616  	27,621099  	26,671571  	28,344432  	71,516490  	0,323821  	0,164083  	-4784,575078  	1736,425529  	-0,053802  	-0,050013  	0,305506  	0,154802  	-4,963170  	9256,459730  	127765,755449  	18,530856  	-0,047962  
286,557000  	24,225307  	31,186875  	25,613481  	657,183579  	80,209012  	72,543271  	0,009880  	0,008296  	0,003962  	0,004426  	0,004306  	0,000002  	-0,000000  	26,860762  	25,718319  	26,766859  	26,469763  	29,685728  	28,172867  	29,608291  	29,063444  	32,204189  	31,230087  	34,291475  	65,413239  	27,627505  	26,656316  	28,338472  	71,502096  	0,351655  	0,178186  	-5186,013974  	18420,725248  	-0,027544  	-0,049980  	0,268455  	0,136028  	-4,370743  	9239,428672  	127621,334907  	18,509910  	-0,047934  
287,559000  	24,241896  	31,172653  	25,612190  	657,183579  	80,214011  	72,536351  	0,009890  	0,008318  	0,003960  	0,004379  	0,004374  	-0,000001  	-0,000000  	26,856345  	25,709057  	26,750890  	26,466689  	29,674166  	28,163166  	29,597684  	29,059228  	32,192425  	31,218542  	34,277962  	65,394846  	27,611835  	26,638329  	28,322123  	71,498045  	0,313819  	0,159014  	-4607,541666  	18430,972244  	-0,027560  	-0,050011  	0,322641  	0,163484  	-5,261101  	9287,136010  	127825,252221  	18,539485  	-0,047961  
288,561000  	24,270282  	31,165019  	25,610899  	1256,670793  	80,212386  	72,537722  	0,009878  	0,008304  	0,003961  	0,004376  	0,004358  	-0,000000  	-0,000000  	26,861490  	25,727926  	26,764941  	26,468360  	29,691485  	28,181992  	29,599068  	29,065087  	32,204865  	31,235836  	34,290609  	65,418422  	27,626771  	26,652836  	28,346541  	71,508705  	0,311614  	0,157897  	-4551,391785  	25517,248967  	-0,018522  	-0,050004  	0,309523  	0,156838  	-5,045231  	9256,786570  	127571,095229  	18,502623  	-0,047955  
289,557000  	24,305059  	31,165204  	25,608502  	1256,670793  	80,206762  	72,545795  	0,009875  	0,008297  	0,003961  	0,004413  	0,004321  	0,000001  	-0,000000  	26,854465  	25,707894  	26,757544  	26,476974  	29,681077  	28,168776  	29,598666  	29,056098  	32,195123  	31,234304  	34,293672  	65,415912  	27,619997  	26,634596  	28,342705  	71,517808  	0,341441  	0,173011  	-4962,007753  	25510,319792  	-0,018517  	-0,049989  	0,280482  	0,142122  	-4,563699  	9242,047637  	127514,811254  	18,494460  	-0,047942  
290,559000  	24,312370  	31,172653  	25,607826  	657,183579  	80,200263  	72,547790  	0,009885  	0,008324  	0,003962  	0,004370  	0,004355  	-0,000001  	-0,000000  	26,851031  	25,704898  	26,752470  	26,467458  	29,668870  	28,165566  	29,587138  	29,057395  	32,189672  	31,222280  	34,279734  	65,408241  	27,607534  	26,642002  	28,338768  	71,502536  	0,306017  	0,155061  	-4447,292148  	18432,156224  	-0,027561  	-0,050014  	0,307736  	0,155932  	-5,001605  	9301,173156  	127720,373802  	18,524274  	-0,047964  
291,558000  	24,305642  	31,187706  	25,606627  	-242,047242  	80,193515  	72,552185  	0,009874  	0,008300  	0,003961  	0,004382  	0,004326  	0,000000  	-0,000000  	26,858502  	25,719182  	26,756675  	26,471443  	29,681193  	28,170627  	29,597263  	29,062087  	32,202680  	31,226990  	34,287717  	65,409234  	27,614740  	26,654188  	28,339374  	71,520769  	0,316266  	0,160254  	-4610,834419  	-27086,950962  	-0,102668  	-0,049999  	0,284293  	0,144054  	-4,613869  	9248,283775  	127483,205800  	18,489876  	-0,047950  
292,561000  	24,305520  	31,205068  	25,605275  	956,927186  	80,195639  	72,548819  	0,009885  	0,008285  	0,003964  	0,004342  	0,004353  	-0,000000  	-0,000000  	26,854389  	25,702119  	26,765736  	26,457951  	29,672114  	28,171744  	29,592426  	29,056349  	32,193770  	31,224382  	34,280817  	65,411578  	27,607023  	26,675427  	28,338469  	71,509074  	0,283342  	0,143571  	-4141,329269  	22463,697614  	-0,022154  	-0,050005  	0,305707  	0,154904  	-4,964955  	9216,165013  	127729,567346  	18,525607  	-0,047955  
293,559000  	24,333230  	31,216335  	25,603923  	956,927186  	80,202794  	72,551313  	0,009871  	0,008321  	0,003961  	0,004386  	0,004346  	-0,000001  	-0,000000  	26,867015  	25,719793  	26,767382  	26,474238  	29,691485  	28,181411  	29,595052  	29,069683  	32,202867  	31,230360  	34,290706  	65,424593  	27,610891  	26,700089  	28,340384  	71,520750  	0,319750  	0,162020  	-4662,326321  	22467,275537  	-0,022157  	-0,050013  	0,300332  	0,152180  	-4,880638  	9294,731152  	127417,382288  	18,480329  	-0,047963  
294,559000  	24,340173  	31,217812  	25,603185  	357,439972  	80,203919  	72,545390  	0,009881  	0,008305  	0,003962  	0,004335  	0,004348  	-0,000000  	-0,000000  	26,859322  	25,717291  	26,759777  	26,471385  	29,682302  	28,178971  	29,602536  	29,063803  	32,201349  	31,223612  	34,285771  	65,417069  	27,607361  	26,701364  	28,326647  	71,505661  	0,278199  	0,140966  	-4053,242800  	12465,711180  	-0,036442  	-0,050000  	0,302186  	0,153120  	-4,915292  	9258,683941  	127631,326354  	18,511359  	-0,047952  
295,560000  	24,326717  	31,224739  	25,601895  	357,439972  	80,199920  	72,540715  	0,009875  	0,008295  	0,003961  	0,004370  	0,004399  	0,000000  	-0,000000  	26,857129  	25,713714  	26,760207  	26,467098  	29,678855  	28,173571  	29,599614  	29,068323  	32,205103  	31,229076  	34,287794  	65,413504  	27,612250  	26,710209  	28,336030  	71,508062  	0,306676  	0,155395  	-4481,388684  	12464,900160  	-0,036439  	-0,049996  	0,342278  	0,173435  	-5,567900  	9238,726178  	127516,301144  	18,494676  	-0,047948  
296,558000  	24,303308  	31,237360  	25,600051  	956,927186  	80,197420  	72,550066  	0,009890  	0,008303  	0,003962  	0,004368  	0,004357  	-0,000000  	-0,000000  	26,854483  	25,717777  	26,759887  	26,474297  	29,677727  	28,177331  	29,602414  	29,077268  	32,202879  	31,230666  	34,290187  	65,421655  	27,613185  	26,708787  	28,343660  	71,512695  	0,304938  	0,154514  	-4479,264404  	22462,348230  	-0,022152  	-0,050001  	0,309390  	0,156770  	-5,025119  	9254,648668  	127831,529533  	18,540396  	-0,047952  
297,558000  	24,281741  	31,243178  	25,599559  	956,927186  	80,197139  	72,561755  	0,009892  	0,008304  	0,003959  	0,004429  	0,004348  	0,000000  	-0,000000  	26,853178  	25,717688  	26,762522  	26,477540  	29,680989  	28,179366  	29,599899  	29,072259  	32,198957  	31,226548  	34,291104  	65,415161  	27,614936  	26,705179  	28,340030  	71,510102  	0,354276  	0,179514  	-5224,557643  	22462,015926  	-0,022152  	-0,050000  	0,301491  	0,152768  	-4,889174  	9256,369177  	127877,038280  	18,546996  	-0,047951  
298,561000  	24,278301  	31,237575  	25,598391  	357,439972  	80,202950  	72,553027  	0,009877  	0,008294  	0,003962  	0,004417  	0,004336  	0,000000  	-0,000000  	26,848839  	25,704382  	26,754205  	26,467379  	29,678868  	28,170617  	29,588259  	29,062895  	32,203000  	31,215973  	34,286988  	65,401109  	27,617329  	26,687234  	28,328588  	71,494598  	0,344195  	0,174406  	-5074,318233  	12465,449260  	-0,036440  	-0,049998  	0,292395  	0,148159  	-4,750688  	9235,618367  	127554,431048  	18,500206  	-0,047950  
299,559000  	24,284107  	31,226678  	25,596732  	1256,670793  	80,212417  	72,546512  	0,009887  	0,008328  	0,003963  	0,004357  	0,004334  	0,000001  	-0,000000  	26,850770  	25,703457  	26,750575  	26,470869  	29,678159  	28,171810  	29,588118  	29,067535  	32,205509  	31,223410  	34,289060  	65,402512  	27,622028  	26,667010  	28,326101  	71,491649  	0,295736  	0,149852  	-4349,436825  	25510,719657  	-0,018517  	-0,049989  	0,290606  	0,147252  	-4,731482  	9309,608744  	127773,423796  	18,531968  	-0,047942  
300,561000  	24,311203  	31,217751  	25,594703  	1256,670793  	80,210668  	72,545328  	0,009872  	0,008291  	0,003963  	0,004358  	0,004322  	0,000001  	-0,000000  	26,861630  	25,709128  	26,758814  	26,481654  	29,688690  	28,180338  	29,600052  	29,069139  	32,201170  	31,233046  	34,293604  	65,411804  	27,624061  	26,662744  	28,328905  	71,502971  	0,296400  	0,150188  	-4336,571722  	25508,485196  	-0,018516  	-0,049984  	0,281212  	0,142492  	-4,578203  	9228,502874  	127447,137735  	18,484645  	-0,047937  
301,559000  	24,327332  	31,211532  	25,593105  	956,927186  	80,209574  	72,547821  	0,009887  	0,008294  	0,003962  	0,004399  	0,004332  	0,000000  	-0,000000  	26,865666  	25,706844  	26,760501  	26,479075  	29,693202  	28,182594  	29,603701  	29,069241  	32,203508  	31,233900  	34,292337  	65,415249  	27,620356  	26,661127  	28,330289  	71,508248  	0,329860  	0,167143  	-4810,511070  	22460,999512  	-0,022151  	-0,049997  	0,288974  	0,146425  	-4,702362  	9234,758820  	127774,355861  	18,532104  	-0,047949  
