06/24/2020 12:22:15
Tempo T_f_e T_f_s AR AR T_q_e T_q_s Corrente_P_f Corrente_P_q Corrente_P_RESERVA Corrente_eletromag_f Corrente_eletromag_q AR AR T_1 T_2 T_3 T_4 T_5 T_6 T_7 T_8 T_9 T_10 T_11 T_12 T_13 T_14 T_15 T_16 Velocidade_f_(m/s) Vazao_f_(L/s) q_f_(W) AR AR AR Velocidade_q_(m/s) Vazao_q_(L/s) q_q_(W) DeltaP_q_(Pa) DeltaP_f_(Pa) DeltaP_f_(Psi) AR
0,008000  	23,830111  	31,569716  	25,981305  	1256,670793  	80,183985  	72,568456  	0,008758  	0,008297  	0,003961  	0,004298  	0,004391  	0,000000  	-0,000000  	26,870221  	25,467293  	26,562438  	26,375863  	29,796032  	28,246243  	29,683863  	29,257440  	32,641293  	31,624502  	34,742925  	65,501480  	28,031204  	27,126912  	28,353387  	71,547271  	0,247788  	0,125556  	-4062,739537  	25500,999994  	-0,018515  	-0,049995  	0,336038  	0,170273  	-5,435239  	9243,020376  	103452,158684  	15,004467  	-0,047947  
2,556000  	23,867217  	31,573164  	25,980506  	657,183579  	80,189797  	72,571324  	0,008749  	0,008303  	0,003962  	0,004387  	0,004333  	-0,000001  	-0,000000  	26,866907  	25,463533  	26,559996  	26,388679  	29,799329  	28,244479  	29,695109  	29,253461  	32,647000  	31,608868  	34,736500  	65,503570  	28,025621  	27,136353  	28,357077  	71,561605  	0,320317  	0,162307  	-5229,090529  	18415,855066  	-0,027552  	-0,050013  	0,289890  	0,146889  	-4,690636  	9254,612588  	103250,769242  	14,975258  	-0,047962  
3,558000  	23,890071  	31,562173  	25,979861  	-242,047242  	80,189640  	72,573942  	0,008759  	0,008290  	0,003961  	0,004340  	0,004378  	0,000001  	-0,000000  	26,870737  	25,469470  	26,566572  	26,378515  	29,797252  	28,260850  	29,696366  	29,266297  	32,645872  	31,623088  	34,743443  	65,500832  	28,038993  	27,148032  	28,364274  	71,562674  	0,282031  	0,142907  	-4583,845579  	-27086,362661  	-0,102520  	-0,049982  	0,325557  	0,164962  	-5,265838  	9226,911827  	103460,914440  	15,005737  	-0,047936  
4,614000  	23,927915  	31,558663  	25,979246  	956,927186  	80,191827  	72,569142  	0,008761  	0,008300  	0,003964  	0,004299  	0,004365  	0,000002  	-0,000000  	26,869261  	25,459655  	26,558889  	26,363440  	29,804379  	28,258640  	29,701085  	29,251906  	32,641969  	31,613937  	34,745336  	65,507939  	28,038414  	27,150694  	28,373444  	71,552532  	0,249194  	0,126268  	-4028,305981  	22438,089217  	-0,022137  	-0,049975  	0,315201  	0,159715  	-5,103015  	9248,703998  	103507,475289  	15,012490  	-0,047930  
5,557000  	23,949018  	31,566791  	25,977463  	956,927186  	80,186735  	72,593268  	0,008755  	0,008307  	0,003961  	0,004376  	0,004370  	-0,000002  	-0,000000  	26,863254  	25,454802  	26,556560  	26,369984  	29,789327  	28,247177  	29,685366  	29,254766  	32,641028  	31,605348  	34,740122  	65,494440  	28,041640  	27,147818  	28,362239  	71,552637  	0,311489  	0,157834  	-5026,754980  	22456,151742  	-0,022154  	-0,050020  	0,319268  	0,161775  	-5,149056  	9264,398691  	103376,124831  	14,993439  	-0,047968  
6,557000  	23,977095  	31,577874  	25,976541  	-242,047242  	80,184423  	72,599004  	0,008759  	0,008294  	0,003964  	0,004299  	0,004334  	0,000001  	-0,000000  	26,861751  	25,448207  	26,552199  	26,366359  	29,786008  	28,244499  	29,679458  	29,252511  	32,627312  	31,608123  	34,728393  	65,485129  	28,033738  	27,144181  	28,358495  	71,554078  	0,248504  	0,125919  	-4001,359408  	-27086,804063  	-0,102523  	-0,049983  	0,290980  	0,147442  	-4,687869  	9236,594643  	103474,203417  	15,007664  	-0,047937  
7,558000  	23,981149  	31,594776  	25,975896  	-242,047242  	80,185860  	72,586629  	0,008759  	0,008300  	0,003962  	0,004329  	0,004338  	0,000000  	-0,000000  	26,861632  	25,456867  	26,554696  	26,371907  	29,783703  	28,253247  	29,686422  	29,251391  	32,630720  	31,609361  	34,727136  	65,496972  	28,031801  	27,142924  	28,367615  	71,552185  	0,273431  	0,138549  	-4410,169331  	-27094,225427  	-0,102552  	-0,049998  	0,294219  	0,149083  	-4,748671  	9249,100168  	103464,607391  	15,006273  	-0,047950  
8,559000  	23,958111  	31,612571  	25,973806  	956,927186  	80,186610  	72,577278  	0,008750  	0,008289  	0,003964  	0,004331  	0,004366  	-0,000001  	-0,000000  	26,861722  	25,459004  	26,548294  	26,368379  	29,779966  	28,244893  	29,677693  	29,245281  	32,633314  	31,603595  	34,724304  	65,498981  	28,036017  	27,141453  	28,362834  	71,552474  	0,274775  	0,139230  	-4455,627238  	22454,089820  	-0,022152  	-0,050014  	0,315985  	0,160112  	-5,106739  	9225,693605  	103276,930592  	14,979052  	-0,047964  
9,628000  	23,930680  	31,633137  	25,973714  	956,927186  	80,179986  	72,583543  	0,008762  	0,008300  	0,003962  	0,004290  	0,004353  	0,000001  	-0,000000  	26,851668  	25,453815  	26,540022  	26,364417  	29,778920  	28,241107  	29,670945  	29,246201  	32,628322  	31,598810  	34,723401  	65,489636  	28,036285  	27,131611  	28,360656  	71,548957  	0,241807  	0,122526  	-3945,630944  	22443,751539  	-0,022142  	-0,049989  	0,305730  	0,154916  	-4,932642  	9249,153227  	103538,042762  	15,016923  	-0,047942  
10,559000  	23,915014  	31,641388  	25,972607  	357,439972  	80,177924  	72,589278  	0,008752  	0,008281  	0,003962  	0,004363  	0,004357  	0,000000  	-0,000000  	26,858351  	25,454457  	26,542533  	26,367297  	29,786199  	28,252490  	29,676214  	29,250984  	32,631918  	31,602922  	34,730502  	65,491578  	28,044094  	27,128598  	28,366402  	71,553189  	0,300674  	0,152354  	-4921,418771  	12447,150629  	-0,036427  	-0,050000  	0,309265  	0,156707  	-4,984562  	9207,069378  	103306,806078  	14,983385  	-0,047951  
11,558000  	23,891975  	31,642496  	25,971040  	1256,670793  	80,182767  	72,575750  	0,008754  	0,008306  	0,003962  	0,004348  	0,004319  	0,000001  	-0,000000  	26,861420  	25,455898  	26,549925  	26,370489  	29,789849  	28,254286  	29,682802  	29,247716  	32,638058  	31,608106  	34,737735  	65,497916  	28,050269  	27,128729  	28,370423  	71,563494  	0,288290  	0,146079  	-4733,466743  	25499,460997  	-0,018514  	-0,049991  	0,278995  	0,141369  	-4,507563  	9261,847640  	103355,803005  	14,990492  	-0,047943  
12,562000  	23,891668  	31,630797  	25,970609  	1256,670793  	80,188203  	72,582109  	0,008759  	0,008298  	0,003962  	0,004340  	0,004349  	-0,000001  	-0,000000  	26,860171  	25,457027  	26,552051  	26,373537  	29,791363  	28,251273  	29,688739  	29,246492  	32,639238  	31,608792  	34,738916  	65,503536  	28,045790  	27,135369  	28,374940  	71,566942  	0,282339  	0,143063  	-4628,935489  	25507,356317  	-0,018520  	-0,050008  	0,302350  	0,153203  	-4,884315  	9243,961279  	103460,836768  	15,005726  	-0,047958  
13,559000  	23,869828  	31,617189  	25,969534  	1256,670793  	80,190109  	72,590899  	0,008756  	0,008292  	0,003961  	0,004318  	0,004362  	0,000000  	-0,000000  	26,852989  	25,457712  	26,548059  	26,370162  	29,783654  	28,244606  	29,686528  	29,246848  	32,631898  	31,601701  	34,731903  	65,504038  	28,042708  	27,142229  	28,364078  	71,559163  	0,264581  	0,134065  	-4342,419100  	25501,267194  	-0,018515  	-0,049995  	0,312697  	0,158446  	-5,046893  	9231,815844  	103394,278902  	14,996072  	-0,047947  
14,571000  	23,846852  	31,607583  	25,968120  	657,183579  	80,186235  	72,584353  	0,008758  	0,008300  	0,003963  	0,004308  	0,004311  	0,000001  	-0,000000  	26,853562  	25,462490  	26,549272  	26,370600  	29,781335  	28,242750  	29,680375  	29,248829  	32,634093  	31,602578  	34,734465  	65,502570  	28,044733  	27,150886  	28,361357  	71,561993  	0,256377  	0,129908  	-4215,045909  	18409,528872  	-0,027542  	-0,049992  	0,272770  	0,138214  	-4,404016  	9248,280945  	103438,488407  	15,002484  	-0,047945  
15,557000  	23,824551  	31,598347  	25,966829  	657,183579  	80,181642  	72,581174  	0,008747  	0,008287  	0,003961  	0,004362  	0,004370  	-0,000000  	-0,000000  	26,864211  	25,465978  	26,554293  	26,379133  	29,789786  	28,249034  	29,684924  	29,258019  	32,645946  	31,612453  	34,742055  	65,506801  	28,051644  	27,161320  	28,375357  	71,570884  	0,300063  	0,152044  	-4941,584710  	18412,300530  	-0,027546  	-0,050000  	0,319338  	0,161811  	-5,154926  	9221,546556  	103207,590656  	14,968995  	-0,047952  
16,556000  	23,797398  	31,586895  	25,967259  	1256,670793  	80,175268  	72,580364  	0,008753  	0,008310  	0,003962  	0,004313  	0,004325  	-0,000000  	-0,000000  	26,866152  	25,464787  	26,554662  	26,381493  	29,792965  	28,251654  	29,684674  	29,258736  	32,643181  	31,614105  	34,739635  	65,508875  	28,058943  	27,163468  	28,377853  	71,566474  	0,260502  	0,131999  	-4298,754776  	25506,196685  	-0,018519  	-0,050005  	0,283387  	0,143594  	-4,571235  	9270,682935  	103340,522799  	14,988276  	-0,047956  
17,560000  	23,820712  	31,573348  	25,965968  	1256,670793  	80,171144  	72,581766  	0,008749  	0,008300  	0,003962  	0,004332  	0,004362  	-0,000000  	-0,000000  	26,865297  	25,465895  	26,550660  	26,379978  	29,796607  	28,254994  	29,679329  	29,254579  	32,635052  	31,610754  	34,736155  	65,507103  	28,058449  	27,164079  	28,375152  	71,566852  	0,275816  	0,139758  	-4529,904819  	25506,184325  	-0,018519  	-0,050005  	0,313158  	0,158680  	-5,047792  	9247,912366  	103255,295402  	14,975914  	-0,047956  
18,558000  	23,876310  	31,562265  	25,964370  	1256,670793  	80,173706  	72,579647  	0,008760  	0,008307  	0,003962  	0,004368  	0,004389  	0,000000  	-0,000000  	26,860970  	25,457135  	26,545262  	26,378486  	29,795414  	28,254572  	29,685816  	29,258825  	32,635474  	31,607436  	34,729868  	65,506174  	28,057348  	27,163346  	28,368460  	71,571654  	0,304900  	0,154495  	-4964,483836  	25501,703312  	-0,018516  	-0,049995  	0,334657  	0,169573  	-5,397654  	9263,362282  	103495,499675  	15,010753  	-0,047947  
19,559000  	23,937407  	31,549889  	25,963817  	1256,670793  	80,182829  	72,582608  	0,008758  	0,008293  	0,003963  	0,004279  	0,004310  	0,000000  	-0,000000  	26,848045  	25,443059  	26,548055  	26,369015  	29,781032  	28,241076  	29,673798  	29,244969  	32,626142  	31,600937  	34,726812  	65,495256  	28,050372  	27,151898  	28,356059  	71,559432  	0,232541  	0,117830  	-3750,104618  	25503,077133  	-0,018517  	-0,049998  	0,271857  	0,137752  	-4,388315  	9232,900359  	103433,418542  	15,001749  	-0,047950  
20,558000  	23,999826  	31,548658  	25,963571  	57,696365  	80,187578  	72,574441  	0,008759  	0,008300  	0,003963  	0,004389  	0,004405  	0,000000  	-0,000000  	26,844462  	25,448491  	26,548586  	26,358986  	29,779522  	28,236063  	29,671217  	29,244065  	32,615787  	31,590902  	34,728152  	65,493613  	28,039521  	27,143966  	28,356414  	71,553869  	0,321846  	0,163082  	-5146,876722  	1716,203338  	-0,053759  	-0,049999  	0,347408  	0,176034  	-5,617396  	9247,503462  	103464,600330  	15,006272  	-0,047950  
21,557000  	24,028026  	31,566883  	25,961788  	956,927186  	80,187766  	72,578275  	0,008759  	0,008278  	0,003963  	0,004333  	0,004332  	-0,000000  	-0,000000  	26,859239  	25,454959  	26,550711  	26,366529  	29,792699  	28,244933  	29,679846  	29,253416  	32,633114  	31,592980  	34,728329  	65,507874  	28,051751  	27,138960  	28,362754  	71,567130  	0,276705  	0,140209  	-4419,146741  	22450,151678  	-0,022148  	-0,050003  	0,289581  	0,146733  	-4,680120  	9201,479846  	103472,254555  	15,007382  	-0,047954  
22,559000  	24,016476  	31,595700  	25,960313  	-242,047242  	80,186828  	72,577963  	0,008751  	0,008301  	0,003961  	0,004316  	0,004312  	0,000000  	-0,000000  	26,861628  	25,448794  	26,555365  	26,368199  	29,775185  	28,247430  	29,679621  	29,247657  	32,632063  	31,603224  	34,738717  	65,508844  	28,062720  	27,125777  	28,369047  	71,569961  	0,262879  	0,133203  	-4220,822189  	-27092,504780  	-0,102551  	-0,049995  	0,273365  	0,138516  	-4,417683  	9250,742151  	103296,052033  	14,981826  	-0,047947  
23,556000  	24,000901  	31,627657  	25,959391  	657,183579  	80,185704  	72,578150  	0,008760  	0,008283  	0,003961  	0,004347  	0,004351  	-0,000000  	-0,000000  	26,845916  	25,445207  	26,539518  	26,356579  	29,779336  	28,228317  	29,669902  	29,236757  	32,627986  	31,594686  	34,719885  	65,496971  	28,050614  	27,101063  	28,363704  	71,553186  	0,287903  	0,145882  	-4651,590346  	18414,064413  	-0,027549  	-0,050005  	0,304236  	0,154158  	-4,915711  	9212,973723  	103477,790453  	15,008185  	-0,047955  
24,560000  	23,994819  	31,648715  	25,958530  	57,696365  	80,186079  	72,588562  	0,008765  	0,008294  	0,003962  	0,004295  	0,004356  	0,000001  	-0,000000  	26,844549  	25,443690  	26,550952  	26,351963  	29,778501  	28,234034  	29,678276  	29,240001  	32,632795  	31,598620  	34,724191  	65,502679  	28,056677  	27,093964  	28,365553  	71,562684  	0,245429  	0,124361  	-3979,463721  	1716,193006  	-0,053750  	-0,049989  	0,308248  	0,156191  	-4,973971  	9235,004304  	103600,138016  	15,025930  	-0,047942  
25,559000  	24,005140  	31,662692  	25,958008  	1256,670793  	80,191546  	72,596011  	0,008748  	0,008274  	0,003962  	0,004341  	0,004377  	-0,000000  	-0,000000  	26,836756  	25,439152  	26,543351  	26,358109  	29,770225  	28,237786  	29,670816  	29,245111  	32,619477  	31,593899  	34,723346  	65,487208  	28,052818  	27,087644  	28,361218  	71,561714  	0,282776  	0,143285  	-4587,213841  	25506,854859  	-0,018519  	-0,050006  	0,324544  	0,164449  	-5,235580  	9193,443258  	103219,481537  	14,970720  	-0,047957  
26,558000  	24,011714  	31,664047  	25,956471  	1256,670793  	80,195358  	72,597071  	0,008757  	0,008297  	0,003963  	0,004334  	0,004371  	0,000000  	-0,000000  	26,837201  	25,446680  	26,544082  	26,363263  	29,784621  	28,235802  	29,668614  	29,235915  	32,623501  	31,602108  	34,727113  	65,490686  	28,065662  	27,097405  	28,352426  	71,571848  	0,277495  	0,140609  	-4498,464308  	25503,113272  	-0,018516  	-0,049998  	0,320018  	0,162155  	-5,164430  	9242,779137  	103424,634542  	15,000475  	-0,047949  
27,557000  	23,992362  	31,663401  	25,955641  	1256,670793  	80,192640  	72,591710  	0,008760  	0,008304  	0,003963  	0,004322  	0,004285  	-0,000000  	-0,000000  	26,835232  	25,436869  	26,538083  	26,356572  	29,776804  	28,226707  	29,673310  	29,234297  	32,623720  	31,588802  	34,708095  	65,489966  	28,053653  	27,087457  	28,363873  	71,555687  	0,267804  	0,135698  	-4351,983268  	25504,761274  	-0,018518  	-0,050001  	0,252364  	0,127875  	-4,074052  	9257,953857  	103478,877861  	15,008342  	-0,047952  
28,559000  	23,968831  	31,669004  	25,954658  	1256,670793  	80,190890  	72,587159  	0,008754  	0,008259  	0,003962  	0,004370  	0,004391  	0,000000  	-0,000000  	26,838809  	25,438016  	26,541584  	26,352112  	29,767508  	28,225422  	29,668279  	29,242640  	32,625222  	31,593827  	34,713984  	65,491223  	28,050527  	27,086538  	28,361852  	71,559520  	0,306309  	0,155209  	-4996,625377  	25503,003897  	-0,018516  	-0,049997  	0,335809  	0,170157  	-5,423143  	9159,386801  	103352,900895  	14,990071  	-0,047949  
29,556000  	23,917471  	31,674423  	25,954627  	1256,670793  	80,197576  	72,591897  	0,008757  	0,008315  	0,003961  	0,004333  	0,004326  	0,000000  	-0,000000  	26,845599  	25,452774  	26,539332  	26,362244  	29,789447  	28,236655  	29,689904  	29,252856  	32,634277  	31,597555  	34,734886  	65,505546  	28,057853  	27,084221  	28,368798  	71,570229  	0,276446  	0,140077  	-4542,750421  	25501,906705  	-0,018516  	-0,049995  	0,284824  	0,144322  	-4,600936  	9280,532000  	103423,299996  	15,000281  	-0,047947  
30,560000  	23,889887  	31,669250  	25,953275  	657,183579  	80,201638  	72,584416  	0,008761  	0,008263  	0,003962  	0,004348  	0,004386  	-0,000001  	-0,000000  	26,841718  	25,452836  	26,548404  	26,359855  	29,782253  	28,240267  	29,680082  	29,245382  	32,634614  	31,600642  	34,730492  	65,495002  	28,058547  	27,085891  	28,362576  	71,565480  	0,288787  	0,146331  	-4759,279055  	18415,288171  	-0,027550  	-0,050008  	0,332278  	0,168368  	-5,375632  	9167,914356  	103499,009038  	15,011262  	-0,047958  
31,557000  	23,882975  	31,658259  	25,952629  	657,183579  	80,202232  	72,585070  	0,008751  	0,008284  	0,003961  	0,004327  	0,004401  	0,000000  	-0,000000  	26,841374  	25,439376  	26,543318  	26,352086  	29,775060  	28,234901  	29,672766  	29,236559  	32,626506  	31,594892  	34,720860  	65,492873  	28,055312  	27,083676  	28,358983  	71,557982  	0,271954  	0,137801  	-4479,517535  	18412,163100  	-0,027546  	-0,049998  	0,343664  	0,174137  	-5,559798  	9214,658860  	103296,235621  	14,981852  	-0,047950  
32,559000  	23,878429  	31,635169  	25,951215  	1256,670793  	80,201357  	72,582888  	0,008760  	0,008280  	0,003963  	0,004325  	0,004315  	0,000000  	-0,000000  	26,853399  	25,454922  	26,554323  	26,371755  	29,790514  	28,247794  	29,692072  	29,250219  	32,635469  	31,605515  	34,732255  	65,499310  	28,067478  	27,107602  	28,368681  	71,564484  	0,269973  	0,136797  	-4436,271217  	25502,710070  	-0,018516  	-0,049996  	0,275697  	0,139698  	-4,460984  	9206,431969  	103477,458581  	15,008136  	-0,047948  
33,664000  	23,877139  	31,614387  	25,950601  	956,927186  	80,200826  	72,592053  	0,008762  	0,008285  	0,003962  	0,004371  	0,004357  	-0,000001  	-0,000000  	26,859045  	25,454388  	26,553673  	26,370340  	29,783639  	28,241006  	29,683759  	29,253275  	32,636500  	31,611397  	34,734517  	65,496383  	28,066865  	27,111814  	28,359561  	71,556091  	0,307471  	0,155798  	-5039,763834  	22452,683068  	-0,022150  	-0,050009  	0,308847  	0,156495  	-4,991027  	9215,429976  	103538,402878  	15,016976  	-0,047959  
34,556000  	23,891330  	31,601826  	25,949924  	-242,047242  	80,198264  	72,587502  	0,008753  	0,008289  	0,003962  	0,004352  	0,004353  	0,000002  	-0,000000  	26,853569  	25,450453  	26,547356  	26,373033  	29,784284  	28,243538  	29,679840  	29,254361  	32,634835  	31,598452  	34,730106  	65,492866  	28,065186  	27,120686  	28,354737  	71,555263  	0,291762  	0,147838  	-4765,729168  	-27083,242586  	-0,102520  	-0,049976  	0,305580  	0,154840  	-4,939524  	9225,822360  	103341,468985  	14,988413  	-0,047931  
35,557000  	23,878982  	31,595546  	25,949279  	657,183579  	80,196077  	72,589123  	0,008759  	0,008238  	0,003963  	0,004315  	0,004334  	-0,000001  	-0,000000  	26,857649  	25,459066  	26,550610  	26,373423  	29,784259  	28,248091  	29,681953  	29,262616  	32,640855  	31,602810  	34,738066  	65,502488  	28,072736  	27,133519  	28,370940  	71,562672  	0,261733  	0,132622  	-4278,605639  	18418,111421  	-0,027554  	-0,050016  	0,290781  	0,147341  	-4,697960  	9115,370209  	103462,291353  	15,005937  	-0,047965  
36,558000  	23,881992  	31,593452  	25,949156  	57,696365  	80,195139  	72,587689  	0,008756  	0,008331  	0,003963  	0,004380  	0,004374  	0,000001  	-0,000000  	26,867428  	25,457718  	26,553839  	26,375251  	29,795854  	28,253958  	29,688694  	29,266866  	32,643333  	31,609178  	34,736166  	65,506720  	28,079656  	27,144496  	28,371457  	71,558306  	0,314587  	0,159403  	-5139,204310  	1716,709028  	-0,053751  	-0,049989  	0,322434  	0,163380  	-5,209686  	9314,456165  	103403,712523  	14,997441  	-0,047942  
37,559000  	23,894771  	31,593206  	25,948480  	1256,670793  	80,190953  	72,589684  	0,008756  	0,008284  	0,003964  	0,004267  	0,004355  	0,000000  	-0,000000  	26,864624  	25,455879  	26,555815  	26,374906  	29,792506  	28,252841  	29,686365  	29,261448  	32,639884  	31,608008  	34,741020  	65,508440  	28,077034  	27,144745  	28,369084  	71,557983  	0,222889  	0,112940  	-3635,047908  	25501,864799  	-0,018515  	-0,049994  	0,307642  	0,155884  	-4,966645  	9214,522323  	103390,698928  	14,995553  	-0,047947  
38,555000  	23,854715  	31,589635  	25,947189  	1256,670793  	80,190703  	72,580831  	0,008764  	0,008288  	0,003962  	0,004383  	0,004323  	-0,000000  	-0,000000  	26,867098  	25,454925  	26,555691  	26,382762  	29,796057  	28,252515  	29,688832  	29,261086  	32,641392  	31,611571  	34,746434  	65,507367  	28,078214  	27,143992  	28,373372  	71,566722  	0,317182  	0,160719  	-5197,384436  	25505,175039  	-0,018518  	-0,050002  	0,281685  	0,142732  	-4,552740  	9223,311634  	103582,541772  	15,023378  	-0,047953  
39,554000  	23,852319  	31,589450  	25,947005  	357,439972  	80,192546  	72,580177  	0,008750  	0,008282  	0,003961  	0,004319  	0,004366  	0,000001  	-0,000000  	26,867895  	25,457098  	26,552746  	26,380636  	29,795527  	28,245125  	29,690914  	29,261787  	32,641477  	31,608475  	34,743232  	65,502802  	28,081422  	27,147212  	28,367400  	71,563604  	0,265407  	0,134483  	-4350,224003  	12445,987903  	-0,036421  	-0,049989  	0,316485  	0,160365  	-5,116864  	9209,866620  	103278,378116  	14,979262  	-0,047942  
40,557000  	23,875050  	31,589327  	25,946205  	956,927186  	80,202544  	72,570140  	0,008755  	0,008311  	0,003963  	0,004319  	0,004387  	-0,000001  	-0,000000  	26,859878  	25,452833  	26,548386  	26,366545  	29,785339  	28,240761  	29,683359  	29,257217  	32,635163  	31,599624  	34,736675  	65,496913  	28,075045  	27,144144  	28,362901  	71,559548  	0,265127  	0,134342  	-4332,805061  	22454,845127  	-0,022153  	-0,050014  	0,332660  	0,168561  	-5,392533  	9273,357081  	103371,083210  	14,992708  	-0,047963  
41,555000  	23,893112  	31,573164  	25,945990  	-242,047242  	80,203669  	72,570202  	0,008763  	0,008270  	0,003961  	0,004357  	0,004309  	0,000001  	-0,000000  	26,854967  	25,449907  	26,545955  	26,364205  	29,783980  	28,243942  	29,678966  	29,254453  	32,630914  	31,599341  	34,735828  	65,495724  	28,064458  	27,138244  	28,365451  	71,563918  	0,295727  	0,149847  	-4811,421165  	-27090,365722  	-0,102549  	-0,049991  	0,271028  	0,137332  	-4,394064  	9184,770676  	103541,785141  	15,017466  	-0,047944  
42,556000  	23,900853  	31,571317  	25,944515  	357,439972  	80,198795  	72,581860  	0,008752  	0,008295  	0,003965  	0,004325  	0,004367  	-0,000001  	-0,000000  	26,856211  	25,460412  	26,544724  	26,364228  	29,786042  	28,243749  	29,680501  	29,252821  	32,633849  	31,606093  	34,739932  	65,499442  	28,061633  	27,133152  	28,365275  	71,560364  	0,270345  	0,136986  	-4392,970226  	12450,031945  	-0,036432  	-0,050006  	0,317148  	0,160701  	-5,130662  	9238,675242  	103313,316406  	14,984330  	-0,047957  
43,557000  	23,933291  	31,575196  	25,943040  	1256,670793  	80,196170  	72,587190  	0,008760  	0,008276  	0,003963  	0,004376  	0,004314  	-0,000000  	-0,000000  	26,855031  	25,458317  	26,541187  	26,361215  	29,786676  	28,244585  	29,681418  	29,249623  	32,635114  	31,610523  	34,738447  	65,499708  	28,064197  	27,127734  	28,367341  	71,549887  	0,311195  	0,157685  	-5037,931370  	25506,728844  	-0,018519  	-0,050005  	0,275032  	0,139361  	-4,444693  	9197,779195  	103478,079957  	15,008227  	-0,047955  
44,557000  	23,940049  	31,580121  	25,941687  	57,696365  	80,193733  	72,584821  	0,008749  	0,008274  	0,003961  	0,004370  	0,004352  	-0,000000  	-0,000000  	26,846494  	25,445711  	26,545260  	26,367721  	29,784932  	28,241652  	29,680252  	29,250451  	32,629417  	31,605700  	34,733863  	65,497436  	28,063484  	27,131367  	28,366996  	71,545828  	0,306522  	0,155317  	-4961,092764  	1717,481420  	-0,053762  	-0,050000  	0,304815  	0,154452  	-4,925951  	9192,035440  	103252,647492  	14,975530  	-0,047952  
45,558000  	23,892252  	31,591882  	25,940888  	1256,670793  	80,192983  	72,591679  	0,008730  	0,008311  	0,003964  	0,004360  	0,004386  	0,000002  	-0,000000  	26,846969  	25,446916  	26,553675  	26,367698  	29,784587  	28,239772  	29,676593  	29,252183  	32,631317  	31,601230  	34,730963  	65,497175  	28,060483  	27,134855  	28,365505  	71,550678  	0,298598  	0,151302  	-4870,528350  	25495,467189  	-0,018511  	-0,049980  	0,331600  	0,168024  	-5,353459  	9271,424339  	102829,730369  	14,914191  	-0,047934  
46,560000  	23,878613  	31,605736  	25,940458  	1256,670793  	80,197420  	72,592676  	0,008735  	0,008296  	0,003963  	0,004342  	0,004322  	0,000001  	-0,000000  	26,850372  	25,443462  	26,539577  	26,368137  	29,785576  	28,237209  	29,678664  	29,246171  	32,632634  	31,599522  	34,732165  	65,502870  	28,054517  	27,133524  	28,365721  	71,550244  	0,283693  	0,143749  	-4643,933986  	25500,494023  	-0,018514  	-0,049991  	0,281019  	0,142395  	-4,538924  	9239,543278  	102949,514756  	14,931565  	-0,047943  
47,557000  	23,887552  	31,610908  	25,939444  	1256,670793  	80,194296  	72,592770  	0,008740  	0,008258  	0,003964  	0,004318  	0,004392  	-0,000000  	-0,000000  	26,848414  	25,439509  	26,534768  	26,354454  	29,778964  	28,229477  	29,676812  	29,240271  	32,628714  	31,589217  	34,726293  	65,495483  	28,056143  	27,129728  	28,359924  	71,549113  	0,264050  	0,133796  	-4320,270362  	25506,667863  	-0,018519  	-0,050004  	0,337111  	0,170816  	-5,442590  	9159,053593  	103052,726757  	14,946534  	-0,047955  
48,558000  	23,918085  	31,606290  	25,939075  	57,696365  	80,191921  	72,590525  	0,008730  	0,008296  	0,003962  	0,004350  	0,004326  	0,000002  	-0,000000  	26,839069  	25,445646  	26,540120  	26,342705  	29,775298  	28,227062  	29,672416  	29,239618  	32,631580  	31,592599  	34,729658  	65,493369  	28,051874  	27,126745  	28,361911  	71,543993  	0,290605  	0,147251  	-4733,099154  	1716,902741  	-0,053740  	-0,049976  	0,284443  	0,144129  	-4,592196  	9240,620719  	102845,427180  	14,916468  	-0,047931  
49,555000  	23,978815  	31,600626  	25,938091  	1256,670793  	80,192109  	72,587907  	0,008727  	0,008299  	0,003962  	0,004331  	0,004337  	-0,000000  	-0,000000  	26,848428  	25,452029  	26,548363  	26,365987  	29,785940  	28,239472  	29,683045  	29,257737  	32,632136  	31,604296  	34,739009  	65,497131  	28,067825  	27,132130  	28,372008  	71,551484  	0,275096  	0,139393  	-4441,807158  	25504,937336  	-0,018518  	-0,050000  	0,292862  	0,148395  	-4,729859  	9245,724943  	102782,166845  	14,907293  	-0,047952  
50,556000  	24,019793  	31,603027  	25,938460  	1256,670793  	80,193921  	72,575688  	0,008738  	0,008297  	0,003962  	0,004342  	0,004368  	0,000000  	-0,000000  	26,847125  	25,443512  	26,543593  	26,356996  	29,784712  	28,235098  	29,678181  	29,251527  	32,636223  	31,600832  	34,734148  	65,489194  	28,058702  	27,130126  	28,362612  	71,549303  	0,284011  	0,143910  	-4562,519005  	25503,461113  	-0,018516  	-0,049997  	0,317519  	0,160889  	-5,137546  	9242,011558  	103021,354320  	14,941984  	-0,047949  
51,557000  	24,022558  	31,617528  	25,938829  	1256,670793  	80,199357  	72,581891  	0,008729  	0,008283  	0,003964  	0,004338  	0,004369  	0,000000  	-0,000000  	26,842876  	25,444662  	26,539373  	26,358350  	29,779742  	28,230532  	29,670048  	29,242622  	32,615961  	31,593121  	34,725543  	65,487264  	28,052774  	27,118926  	28,358185  	71,552093  	0,280555  	0,142159  	-4513,970849  	25503,426759  	-0,018516  	-0,049997  	0,318187  	0,161228  	-5,147834  	9212,774931  	102816,999218  	14,912345  	-0,047949  
52,555000  	24,019670  	31,639941  	25,938091  	1256,670793  	80,199920  	72,582390  	0,008736  	0,008312  	0,003965  	0,004312  	0,004344  	0,000000  	-0,000000  	26,843037  	25,437076  	26,530200  	26,360897  	29,782722  	28,233122  	29,668005  	29,242516  	32,620691  	31,590814  	34,728397  	65,487912  	28,060284  	27,101691  	28,366134  	71,547369  	0,259541  	0,131511  	-4189,781723  	25504,496558  	-0,018517  	-0,049999  	0,298542  	0,151274  	-4,830050  	9275,399478  	102960,360596  	14,933138  	-0,047951  
53,557000  	24,038685  	31,666449  	25,938183  	1256,670793  	80,199576  	72,603150  	0,008736  	0,008286  	0,003960  	0,004373  	0,004359  	0,000001  	-0,000000  	26,857174  	25,442009  	26,545596  	26,356945  	29,787278  	28,239421  	29,677511  	29,252588  	32,627296  	31,595592  	34,728754  	65,498343  	28,077433  	27,110108  	28,372011  	71,558237  	0,308821  	0,156482  	-4990,204947  	25500,597540  	-0,018514  	-0,049991  	0,310223  	0,157193  	-5,005148  	9217,620937  	102960,395901  	14,933143  	-0,047944  
54,556000  	24,033524  	31,682951  	25,937261  	1256,670793  	80,201826  	72,596541  	0,008728  	0,008299  	0,003962  	0,004329  	0,004349  	0,000001  	-0,000000  	26,849300  	25,446520  	26,555216  	26,361480  	29,780997  	28,239285  	29,678256  	29,248730  	32,632684  	31,602305  	34,743832  	65,481507  	28,061032  	27,103858  	28,365106  	71,554094  	0,273500  	0,138584  	-4432,015772  	25499,308791  	-0,018513  	-0,049988  	0,302639  	0,153349  	-4,888463  	9246,755692  	102791,642832  	14,908667  	-0,047941  
55,556000  	24,020623  	31,693942  	25,937815  	357,439972  	80,201044  	72,612688  	0,008731  	0,008268  	0,003963  	0,004319  	0,004330  	0,000001  	-0,000000  	26,842422  	25,443543  	26,544565  	26,366934  	29,773731  	28,228083  	29,674079  	29,242195  	32,629083  	31,595381  	34,734838  	65,489511  	28,059764  	27,097082  	28,364023  	71,553971  	0,264810  	0,134181  	-4304,597611  	12447,055978  	-0,036423  	-0,049991  	0,287662  	0,145760  	-4,636213  	9180,633531  	102850,617083  	14,917221  	-0,047944  
56,558000  	24,003420  	31,703363  	25,937138  	-242,047242  	80,201294  	72,612626  	0,008738  	0,008298  	0,003963  	0,004359  	0,004399  	0,000001  	-0,000000  	26,847235  	25,442368  	26,540497  	26,351108  	29,778108  	28,233294  	29,675241  	29,241777  	32,621027  	31,592269  	34,731972  	65,496362  	28,065160  	27,110880  	28,358675  	71,554351  	0,297658  	0,150826  	-4855,356169  	-27090,329733  	-0,102552  	-0,049992  	0,342533  	0,173564  	-5,520788  	9245,132103  	103003,687464  	14,939422  	-0,047944  
57,556000  	23,981948  	31,708258  	25,937784  	956,927186  	80,204106  	72,607856  	0,008723  	0,008316  	0,003962  	0,004315  	0,004352  	0,000001  	-0,000000  	26,848895  	25,450531  	26,543667  	26,364092  	29,775620  	28,242596  	29,679652  	29,253485  	32,631241  	31,606674  	34,733893  	65,498784  	28,076808  	27,135937  	28,376004  	71,555803  	0,261826  	0,132669  	-4285,504884  	22444,044330  	-0,022142  	-0,049986  	0,305152  	0,154623  	-4,923206  	9284,065694  	102693,168825  	14,894385  	-0,047939  
58,557000  	23,969907  	31,706842  	25,936616  	357,439972  	80,203481  	72,605113  	0,008739  	0,008286  	0,003962  	0,004357  	0,004339  	0,000000  	-0,000000  	26,852529  	25,455757  	26,547894  	26,374770  	29,786079  	28,244349  	29,681881  	29,252629  	32,634528  	31,602922  	34,735917  	65,500480  	28,074796  	27,137717  	28,360822  	71,556029  	0,296175  	0,150074  	-4854,381258  	12448,520579  	-0,036427  	-0,049998  	0,294787  	0,149370  	-4,757305  	9217,937873  	103035,554178  	14,944044  	-0,047949  
59,556000  	23,953964  	31,700469  	25,935694  	1256,670793  	80,198326  	72,607794  	0,008736  	0,008286  	0,003962  	0,004329  	0,004335  	0,000002  	-0,000000  	26,847678  	25,446916  	26,541701  	26,366834  	29,782312  	28,242347  	29,673396  	29,246369  	32,635085  	31,598592  	34,732990  	65,496715  	28,064832  	27,130386  	28,365576  	71,550380  	0,273044  	0,138353  	-4480,793763  	25496,091042  	-0,018511  	-0,049981  	0,291441  	0,147675  	-4,698469  	9217,921602  	102971,277046  	14,934721  	-0,047935  
60,557000  	23,926748  	31,691602  	25,936001  	57,696365  	80,196452  	72,600064  	0,008731  	0,008281  	0,003961  	0,004336  	0,004351  	0,000000  	-0,000000  	26,847820  	25,447611  	26,545354  	26,364296  	29,787441  	28,244641  	29,679986  	29,248689  	32,632286  	31,604263  	34,736384  	65,496709  	28,072277  	27,128943  	28,367225  	71,555207  	0,279024  	0,141384  	-4589,798056  	1717,609496  	-0,053757  	-0,049994  	0,303905  	0,153991  	-4,903182  	9206,750320  	102871,249598  	14,920213  	-0,047946  
61,556000  	23,898979  	31,685321  	25,935878  	1256,670793  	80,195639  	72,606890  	0,008738  	0,008278  	0,003962  	0,004290  	0,004371  	0,000001  	-0,000000  	26,854222  	25,449715  	26,551945  	26,372270  	29,798430  	28,252203  	29,685673  	29,253149  	32,633105  	31,606091  	34,738789  	65,495589  	28,073823  	27,122682  	28,367703  	71,554482  	0,241892  	0,122569  	-3990,011772  	25501,527581  	-0,018515  	-0,049993  	0,320278  	0,162287  	-5,162150  	9201,222336  	103018,784082  	14,941611  	-0,047945  
62,558000  	23,844487  	31,674607  	25,934587  	1256,670793  	80,190328  	72,592177  	0,008739  	0,008301  	0,003962  	0,004336  	0,004353  	0,000002  	-0,000000  	26,854874  	25,448892  	26,552559  	26,376128  	29,794119  	28,247924  	29,684486  	29,254865  	32,635255  	31,606849  	34,743446  	65,491622  	28,064967  	27,110724  	28,365913  	71,556894  	0,278579  	0,141158  	-4621,018492  	25496,205302  	-0,018511  	-0,049981  	0,306072  	0,155089  	-4,939286  	9251,563496  	103042,283400  	14,945020  	-0,047935  
63,555000  	23,822923  	31,662231  	25,934956  	1256,670793  	80,190859  	72,597009  	0,008726  	0,008266  	0,003961  	0,004321  	0,004337  	-0,000000  	-0,000000  	26,859788  	25,455693  	26,560159  	26,383259  	29,798995  	28,253438  	29,688752  	29,265643  	32,641135  	31,612790  	34,752173  	65,504183  	28,065028  	27,105841  	28,371382  	71,560444  	0,266371  	0,134972  	-4423,697470  	25505,552471  	-0,018518  	-0,050001  	0,293509  	0,148723  	-4,733867  	9176,045035  	102755,052247  	14,903360  	-0,047953  
64,557000  	23,858371  	31,641049  	25,935141  	1256,670793  	80,193858  	72,598006  	0,008737  	0,008310  	0,003962  	0,004348  	0,004328  	-0,000000  	-0,000000  	26,861276  	25,462495  	26,561929  	26,383721  	29,795323  	28,259118  	29,692570  	29,265664  	32,644764  	31,619082  	34,750813  	65,509947  	28,063016  	27,105226  	28,370032  	71,554762  	0,288847  	0,146361  	-4762,292908  	25506,581212  	-0,018519  	-0,050004  	0,285923  	0,144879  	-4,612726  	9270,201872  	102986,649046  	14,936951  	-0,047955  
65,555000  	23,858432  	31,610046  	25,934403  	57,696365  	80,198014  	72,581236  	0,008744  	0,008291  	0,003963  	0,004317  	0,004367  	0,000000  	-0,000000  	26,853479  	25,457179  	26,552160  	26,377240  	29,787540  	28,252031  	29,688468  	29,261754  	32,640793  	31,613787  	34,742166  	65,501122  	28,054342  	27,094141  	28,363284  	71,554254  	0,263717  	0,133628  	-4330,627070  	1717,843995  	-0,053761  	-0,049998  	0,316565  	0,160406  	-5,121126  	9229,426798  	103150,720610  	14,960747  	-0,047950  
66,557000  	23,837053  	31,593668  	25,934280  	1256,670793  	80,200576  	72,578867  	0,008727  	0,008287  	0,003962  	0,004263  	0,004348  	-0,000001  	-0,000000  	26,854167  	25,457757  	26,549207  	26,379926  	29,793414  	28,249076  	29,683974  	29,261676  	32,635000  	31,610409  	34,743197  	65,499659  	28,048313  	27,086450  	28,361009  	71,557304  	0,219686  	0,111317  	-3609,904250  	25508,054690  	-0,018520  	-0,050007  	0,301992  	0,153022  	-4,888541  	9220,684886  	102778,636298  	14,906781  	-0,047957  
67,555000  	23,805998  	31,592375  	25,934557  	1256,670793  	80,199857  	72,575283  	0,008752  	0,008300  	0,003961  	0,004368  	0,004385  	0,000002  	-0,000000  	26,860839  	25,458480  	26,553557  	26,383143  	29,801506  	28,253117  	29,683261  	29,258332  	32,636329  	31,612858  	34,748380  	65,503987  	28,044937  	27,087628  	28,361092  	71,554368  	0,305023  	0,154557  	-5031,406704  	25496,064351  	-0,018511  	-0,049981  	0,330836  	0,167637  	-5,357463  	9248,805163  	103323,258425  	14,985772  	-0,047935  
68,556000  	23,799425  	31,592498  	25,934249  	1256,670793  	80,195171  	72,592551  	0,008751  	0,008285  	0,003962  	0,004366  	0,004365  	0,000002  	-0,000000  	26,859081  	25,448161  	26,554109  	26,378958  	29,798475  	28,253146  	29,687956  	29,258920  	32,643821  	31,610987  	34,748405  	65,500624  	28,041595  	27,079900  	28,365476  	71,554696  	0,303416  	0,153743  	-5009,195189  	25495,366436  	-0,018511  	-0,049979  	0,315535  	0,159884  	-5,094990  	9216,547034  	103294,470348  	14,981596  	-0,047933  
69,558000  	23,825841  	31,578028  	25,933942  	956,927186  	80,191203  	72,592115  	0,008757  	0,008305  	0,003963  	0,004273  	0,004345  	0,000001  	-0,000000  	26,862343  	25,455965  	26,559297  	26,385171  	29,800396  	28,255438  	29,695894  	29,267210  	32,652800  	31,614995  	34,754838  	65,504187  	28,047130  	27,072981  	28,372610  	71,563519  	0,227636  	0,115345  	-3738,395847  	22446,258397  	-0,022144  	-0,049991  	0,299205  	0,151609  	-4,829058  	9258,504250  	103429,880934  	15,001236  	-0,047944  
70,557000  	23,834319  	31,564482  	25,934495  	357,439972  	80,194077  	72,591055  	0,008752  	0,008288  	0,003964  	0,004370  	0,004327  	-0,000000  	-0,000000  	26,868741  	25,464953  	26,562478  	26,391301  	29,810621  	28,259105  	29,691693  	29,270898  	32,655083  	31,619408  	34,761616  	65,513556  	28,054761  	27,072737  	28,368981  	71,567292  	0,306286  	0,155197  	-5015,748618  	12450,379428  	-0,036432  	-0,050006  	0,285012  	0,144418  	-4,602369  	9223,453831  	103307,935853  	14,983549  	-0,047956  
71,555000  	23,840125  	31,555800  	25,934772  	1256,670793  	80,200576  	72,583574  	0,008760  	0,008280  	0,003964  	0,004352  	0,004385  	0,000001  	-0,000000  	26,860683  	25,450015  	26,549661  	26,379200  	29,794573  	28,256522  	29,685714  	29,265465  	32,645316  	31,613492  	34,752450  	65,500458  	28,043872  	27,065705  	28,360919  	71,555864  	0,292032  	0,147975  	-4773,366253  	25501,905196  	-0,018515  	-0,049993  	0,331268  	0,167856  	-5,359146  	9204,548747  	103481,885887  	15,008779  	-0,047946  
72,558000  	23,879996  	31,553830  	25,934649  	1256,670793  	80,203950  	72,575906  	0,008750  	0,008310  	0,003962  	0,004358  	0,004333  	-0,000001  	-0,000000  	26,861761  	25,461718  	26,555612  	26,379844  	29,791303  	28,259860  	29,696489  	29,268753  	32,646396  	31,613638  	34,750357  	65,498406  	28,046623  	27,073874  	28,368360  	71,554459  	0,296406  	0,150191  	-4818,573545  	25507,898932  	-0,018520  	-0,050007  	0,290026  	0,146958  	-4,698734  	9269,645819  	103274,515698  	14,978702  	-0,047957  
73,556000  	23,898242  	31,552075  	25,934464  	57,696365  	80,207699  	72,583886  	0,008762  	0,008295  	0,003963  	0,004332  	0,004351  	-0,000000  	-0,000000  	26,853387  	25,453111  	26,553430  	26,370217  	29,785399  	28,246080  	29,685124  	29,257048  	32,633391  	31,609578  	34,753198  	65,493090  	28,047936  	27,074644  	28,357422  	71,545872  	0,275700  	0,139699  	-4470,278236  	1718,050345  	-0,053768  	-0,050005  	0,303863  	0,153970  	-4,920195  	9238,620061  	103532,888164  	15,016176  	-0,047956  
74,557000  	23,920911  	31,554907  	25,935325  	657,183579  	80,211074  	72,583637  	0,008760  	0,008300  	0,003962  	0,004327  	0,004366  	-0,000000  	-0,000000  	26,854425  	25,457803  	26,551672  	26,369196  	29,789193  	28,256351  	29,690495  	29,259779  	32,636846  	31,615273  	34,756589  	65,500393  	28,048478  	27,094746  	28,364697  	71,548405  	0,271633  	0,137638  	-4392,909219  	18414,877171  	-0,027549  	-0,050004  	0,316189  	0,160215  	-5,122202  	9248,213738  	103483,714710  	15,009044  	-0,047955  
75,555000  	23,944503  	31,567191  	25,935878  	657,183579  	80,218729  	72,586691  	0,008757  	0,008282  	0,003962  	0,004297  	0,004306  	0,000001  	-0,000000  	26,846433  	25,449939  	26,549458  	26,372289  	29,788915  	28,241251  	29,686025  	29,250072  	32,643438  	31,605202  	34,744283  	65,498116  	28,047824  	27,092572  	28,352592  	71,556739  	0,247587  	0,125454  	-3998,091213  	18410,933836  	-0,027543  	-0,049992  	0,268650  	0,136127  	-4,354709  	9209,947976  	103412,771905  	14,998754  	-0,047945  
76,557000  	23,932523  	31,580676  	25,936616  	1256,670793  	80,217479  	72,591180  	0,008757  	0,008266  	0,003962  	0,004351  	0,004367  	0,000000  	-0,000000  	26,859738  	25,451475  	26,555544  	26,374562  	29,800824  	28,249626  	29,685111  	29,255187  	32,641209  	31,620099  	34,749775  	65,511062  	28,065126  	27,098563  	28,373936  	71,562384  	0,290759  	0,147330  	-4710,943021  	25503,978412  	-0,018517  	-0,049998  	0,316806  	0,160528  	-5,131440  	9174,560105  	103419,479944  	14,999727  	-0,047950  
77,556000  	23,871180  	31,597239  	25,936339  	57,696365  	80,212605  	72,616273  	0,008757  	0,008306  	0,003961  	0,004301  	0,004344  	0,000000  	-0,000000  	26,850197  	25,441884  	26,539894  	26,357020  	29,787023  	28,230752  	29,673069  	29,242178  	32,632180  	31,606238  	34,738430  	65,491474  	28,046148  	27,094771  	28,357952  	71,547346  	0,250158  	0,126757  	-4094,411342  	1717,641154  	-0,053758  	-0,049995  	0,299032  	0,151522  	-4,824538  	9261,012854  	103413,647481  	14,998881  	-0,047948  
78,560000  	23,824920  	31,606721  	25,936462  	1256,670793  	80,207043  	72,623941  	0,008743  	0,008302  	0,003963  	0,004310  	0,004325  	0,000000  	-0,000000  	26,844897  	25,440783  	26,545425  	26,362994  	29,785041  	28,239808  	29,673074  	29,239092  	32,632622  	31,607341  	34,745646  	65,493170  	28,029342  	27,102260  	28,357045  	71,549041  	0,257979  	0,130720  	-4252,905463  	25502,791790  	-0,018516  	-0,049996  	0,283851  	0,143829  	-4,571634  	9252,171192  	103126,444572  	14,957226  	-0,047948  
79,558000  	23,786677  	31,604597  	25,936831  	1256,670793  	80,202450  	72,604241  	0,008762  	0,008266  	0,003963  	0,004382  	0,004373  	-0,000000  	-0,000000  	26,851360  	25,459243  	26,548970  	26,368383  	29,789265  	28,243043  	29,680668  	29,253886  	32,638437  	31,613162  	34,744126  	65,491680  	28,052653  	27,111548  	28,366552  	71,563665  	0,316017  	0,160128  	-5233,869466  	25506,659078  	-0,018519  	-0,050004  	0,321975  	0,163147  	-5,195973  	9174,442669  	103536,348099  	15,016678  	-0,047955  
80,558000  	23,806950  	31,590989  	25,937446  	57,696365  	80,201263  	72,593144  	0,008751  	0,008300  	0,003961  	0,004278  	0,004363  	0,000002  	-0,000000  	26,840272  	25,449027  	26,540779  	26,361296  	29,788153  	28,237710  	29,676445  	29,251009  	32,627436  	31,609191  	34,736622  	65,493787  	28,050621  	27,110399  	28,354588  	71,572216  	0,232211  	0,117663  	-3829,202725  	1716,807613  	-0,053734  	-0,049970  	0,313954  	0,159083  	-5,073131  	9249,540907  	103288,058875  	14,980666  	-0,047926  
81,558000  	23,879842  	31,565128  	25,937753  	956,927186  	80,202200  	72,594016  	0,008753  	0,008306  	0,003964  	0,004355  	0,004306  	-0,000000  	-0,000000  	26,846073  	25,440024  	26,539545  	26,357777  	29,781301  	28,238030  	29,671106  	29,245560  	32,638309  	31,595906  	34,732350  	65,496177  	28,039357  	27,131353  	28,351798  	71,560871  	0,293973  	0,148958  	-4786,151911  	22452,102601  	-0,022150  	-0,050006  	0,268876  	0,136241  	-4,344755  	9260,778689  	103345,091326  	14,988938  	-0,047957  
82,558000  	23,938758  	31,544194  	25,938306  	357,439972  	80,198389  	72,592396  	0,008754  	0,008283  	0,003964  	0,004336  	0,004389  	0,000001  	-0,000000  	26,838952  	25,439921  	26,536981  	26,360685  	29,777826  	28,232243  	29,677764  	29,241606  	32,635613  	31,603990  	34,741248  	65,491243  	28,037567  	27,159707  	28,357458  	71,560042  	0,279020  	0,141381  	-4495,489495  	12447,346883  	-0,036424  	-0,049993  	0,334680  	0,169585  	-5,406516  	9211,527704  	103351,891159  	14,989924  	-0,047945  
83,558000  	23,966312  	31,543455  	25,938306  	1256,670793  	80,196389  	72,586910  	0,008761  	0,008298  	0,003962  	0,004308  	0,004356  	-0,000000  	-0,000000  	26,835779  	25,441558  	26,529862  	26,351436  	29,780318  	28,229902  	29,673139  	29,236103  	32,621829  	31,594841  	34,727758  	65,500925  	28,039806  	27,168191  	28,364277  	71,549572  	0,255785  	0,129608  	-4105,802438  	25505,819397  	-0,018518  	-0,050002  	0,308414  	0,156276  	-4,984492  	9244,554119  	103508,004871  	15,012567  	-0,047953  
84,562000  	23,954148  	31,562542  	25,938737  	57,696365  	80,198076  	72,592832  	0,008756  	0,008298  	0,003963  	0,004327  	0,004332  	0,000001  	-0,000000  	26,841651  	25,442052  	26,535562  	26,353083  	29,766712  	28,229806  	29,669700  	29,241385  	32,625335  	31,598350  	34,728392  	65,495165  	28,035255  	27,181977  	28,350125  	71,553272  	0,271648  	0,137646  	-4378,412212  	1717,413203  	-0,053755  	-0,049992  	0,289292  	0,146586  	-4,672853  	9244,942507  	103392,732523  	14,995848  	-0,047945  
85,558000  	23,921495  	31,593575  	25,938183  	1256,670793  	80,201013  	72,597476  	0,008764  	0,008268  	0,003964  	0,004347  	0,004377  	0,000001  	-0,000000  	26,844961  	25,443494  	26,539548  	26,356544  	29,770640  	28,225652  	29,665257  	29,243082  	32,626981  	31,601254  	34,729265  	65,493924  	28,037862  	27,200948  	28,363962  	71,555729  	0,287524  	0,145690  	-4673,099353  	25498,350691  	-0,018513  	-0,049986  	0,324940  	0,164649  	-5,247486  	9179,203782  	103572,825708  	15,021968  	-0,047939  
86,559000  	23,932553  	31,614203  	25,937876  	1256,670793  	80,201138  	72,596915  	0,008756  	0,008300  	0,003962  	0,004384  	0,004328  	0,000001  	-0,000000  	26,852391  	25,448998  	26,540717  	26,364293  	29,783213  	28,231362  	29,676195  	29,246894  	32,634903  	31,604508  	34,742500  	65,503725  	28,045275  	27,222233  	28,369937  	71,572394  	0,317704  	0,160983  	-5170,052534  	25499,356128  	-0,018514  	-0,049988  	0,286234  	0,145037  	-4,622834  	9248,858221  	103407,038298  	14,997923  	-0,047941  
87,557000  	23,954670  	31,619559  	25,937968  	1256,670793  	80,197358  	72,600562  	0,008753  	0,008292  	0,003963  	0,004335  	0,004385  	-0,000001  	-0,000000  	26,843379  	25,436755  	26,536557  	26,351683  	29,775052  	28,229462  	29,672544  	29,239345  	32,633964  	31,602358  	34,737337  	65,506640  	28,049040  	27,221167  	28,363474  	71,570329  	0,278047  	0,140888  	-4514,829931  	25512,118909  	-0,018523  	-0,050016  	0,331346  	0,167895  	-5,346196  	9230,814808  	103336,137860  	14,987640  	-0,047965  
88,559000  	23,968063  	31,614941  	25,938706  	57,696365  	80,195795  	72,596697  	0,008760  	0,008307  	0,003961  	0,004341  	0,004316  	-0,000001  	-0,000000  	26,836782  	25,433248  	26,532142  	26,349920  	29,773884  	28,223831  	29,667655  	29,238323  	32,623418  	31,598623  	34,729132  	65,507415  	28,052338  	27,219754  	28,363460  	71,570100  	0,283302  	0,143551  	-4589,338636  	1717,840970  	-0,053768  	-0,050006  	0,276284  	0,139995  	-4,459135  	9263,037565  	103496,361128  	15,010878  	-0,047957  
89,555000  	23,953810  	31,618790  	25,939075  	1256,670793  	80,198451  	72,588343  	0,008749  	0,008284  	0,003963  	0,004275  	0,004375  	0,000001  	-0,000000  	26,838799  	25,444037  	26,534762  	26,359562  	29,779279  	28,228245  	29,669473  	29,243114  	32,631959  	31,594712  	34,734193  	65,509902  	28,055168  	27,224878  	28,364882  	71,570544  	0,229685  	0,116383  	-3729,582250  	25498,207907  	-0,018513  	-0,049986  	0,322911  	0,163621  	-5,219215  	9213,843175  	103257,293692  	14,976204  	-0,047939  
90,558000  	23,941953  	31,627595  	25,939075  	1256,670793  	80,196389  	72,592022  	0,008746  	0,008291  	0,003963  	0,004354  	0,004318  	-0,000000  	-0,000000  	26,842502  	25,443854  	26,539347  	26,358675  	29,782987  	28,237261  	29,676969  	29,240998  	32,631554  	31,599496  	34,736877  	65,507085  	28,058992  	27,228134  	28,365670  	71,572796  	0,293692  	0,148816  	-4781,787276  	25507,555759  	-0,018519  	-0,050006  	0,278390  	0,141062  	-4,496234  	9229,592341  	103187,275890  	14,966049  	-0,047957  
91,556000  	23,929236  	31,632860  	25,939351  	1256,670793  	80,193796  	72,598443  	0,008754  	0,008310  	0,003962  	0,004375  	0,004383  	-0,000001  	-0,000000  	26,835114  	25,436779  	26,537220  	26,350871  	29,779690  	28,235336  	29,672614  	29,234722  	32,619976  	31,596241  	34,727624  	65,498203  	28,054721  	27,224551  	28,358448  	71,575203  	0,310415  	0,157290  	-5065,890846  	25507,642054  	-0,018520  	-0,050006  	0,329811  	0,167118  	-5,320415  	9270,182063  	103364,163339  	14,991704  	-0,047957  
92,558000  	23,924628  	31,631628  	25,938798  	57,696365  	80,193921  	72,596884  	0,008761  	0,008277  	0,003963  	0,004289  	0,004360  	-0,000000  	-0,000000  	26,824898  	25,433301  	26,531971  	26,346616  	29,772253  	28,221381  	29,660000  	29,231802  	32,612668  	31,584415  	34,722884  	65,493772  	28,045094  	27,223203  	28,351583  	71,571099  	0,240744  	0,121987  	-3930,604382  	1717,691597  	-0,053764  	-0,050002  	0,311739  	0,157960  	-5,029993  	9198,240450  	103502,617257  	15,011785  	-0,047953  
93,557000  	23,946776  	31,628888  	25,938460  	956,927186  	80,191577  	72,601404  	0,008752  	0,008302  	0,003962  	0,004346  	0,004319  	-0,000000  	-0,000000  	26,828049  	25,431882  	26,527353  	26,349563  	29,767447  	28,219156  	29,656492  	29,231534  	32,611851  	31,584698  	34,722809  	65,497982  	28,041495  	27,233255  	28,356152  	71,568018  	0,286678  	0,145262  	-4665,444665  	22450,281425  	-0,022148  	-0,050002  	0,279165  	0,141455  	-4,500348  	9252,220006  	103307,420393  	14,983475  	-0,047953  
94,556000  	23,941062  	31,627164  	25,938337  	357,439972  	80,194014  	72,595045  	0,008759  	0,008306  	0,003962  	0,004334  	0,004357  	-0,000000  	-0,000000  	26,837970  	25,434401  	26,530338  	26,359054  	29,771929  	28,228844  	29,662492  	29,235669  	32,619729  	31,595077  	34,722786  	65,500469  	28,045392  	27,247963  	28,363432  	71,572131  	0,277184  	0,140451  	-4513,282125  	12449,239720  	-0,036429  	-0,050001  	0,308987  	0,156566  	-4,986866  	9261,711103  	103462,383147  	15,005950  	-0,047953  
95,558000  	23,933874  	31,626425  	25,938706  	1256,670793  	80,195233  	72,598848  	0,008750  	0,008294  	0,003960  	0,004362  	0,004323  	-0,000000  	-0,000000  	26,840951  	25,436722  	26,535435  	26,360779  	29,780290  	28,229806  	29,668689  	29,238106  	32,627132  	31,600122  	34,726208  	65,496860  	28,049277  	27,252762  	28,362184  	71,572850  	0,299566  	0,151793  	-4881,814691  	25504,926770  	-0,018518  	-0,050000  	0,282277  	0,143032  	-4,554235  	9234,588325  	103277,622579  	14,979153  	-0,047952  
96,559000  	23,935042  	31,627780  	25,938829  	57,696365  	80,202169  	72,592801  	0,008756  	0,008271  	0,003963  	0,004317  	0,004349  	-0,000001  	-0,000000  	26,838504  	25,436116  	26,530246  	26,352198  	29,778350  	28,231336  	29,665514  	29,235577  	32,625344  	31,598699  	34,725601  	65,495261  	28,047046  	27,247363  	28,355834  	71,566598  	0,263319  	0,133426  	-4291,215554  	1717,846076  	-0,053769  	-0,050007  	0,302975  	0,153519  	-4,896513  	9186,703418  	103403,945539  	14,997474  	-0,047957  
97,557000  	23,923707  	31,628672  	25,940304  	1256,670793  	80,208793  	72,585320  	0,008761  	0,008317  	0,003962  	0,004363  	0,004364  	0,000000  	-0,000000  	26,836174  	25,437444  	26,534473  	26,353653  	29,779110  	28,230913  	29,662657  	29,243708  	32,621211  	31,596203  	34,726814  	65,495885  	28,044071  	27,241026  	28,358636  	71,565413  	0,300892  	0,152464  	-4911,340224  	25502,643117  	-0,018516  	-0,049995  	0,314629  	0,159425  	-5,094290  	9284,558076  	103513,738479  	15,013398  	-0,047948  
98,558000  	23,910068  	31,626948  	25,939935  	1256,670793  	80,208293  	72,595980  	0,008748  	0,008285  	0,003961  	0,004301  	0,004378  	-0,000000  	-0,000000  	26,829879  	25,436065  	26,534284  	26,354514  	29,780244  	28,224902  	29,670158  	29,241479  	32,628608  	31,584792  	34,723092  	65,496700  	28,037952  	27,224019  	28,356767  	71,565958  	0,250437  	0,126898  	-4094,097744  	25506,089760  	-0,018518  	-0,050003  	0,325584  	0,164976  	-5,263960  	9215,521944  	103232,834065  	14,972657  	-0,047954  
99,557000  	23,884726  	31,626487  	25,939935  	357,439972  	80,201357  	72,593985  	0,008757  	0,008294  	0,003963  	0,004355  	0,004295  	-0,000000  	-0,000000  	26,840919  	25,446114  	26,541059  	26,353835  	29,780229  	28,229948  	29,678614  	29,246868  	32,623060  	31,594377  	34,738797  	65,498778  	28,048256  	27,219342  	28,357604  	71,569368  	0,294527  	0,149239  	-4830,401334  	12449,473615  	-0,036430  	-0,050003  	0,259838  	0,131662  	-4,198255  	9234,552953  	103412,058735  	14,998651  	-0,047954  
100,561000  	23,884910  	31,621376  	25,940550  	956,927186  	80,199107  	72,597289  	0,008753  	0,008290  	0,003960  	0,004351  	0,004375  	0,000000  	-0,000000  	26,839662  	25,441536  	26,536559  	26,357223  	29,782430  	28,233329  	29,669094  	29,239108  	32,627930  	31,600278  	34,729968  	65,500590  	28,045038  	27,209050  	28,358213  	71,564984  	0,290702  	0,147301  	-4764,408864  	22447,914649  	-0,022146  	-0,049996  	0,323087  	0,163710  	-5,216380  	9227,505375  	103334,436136  	14,987393  	-0,047948  
101,559000  	23,901989  	31,615496  	25,940212  	57,696365  	80,200138  	72,605456  	0,008751  	0,008306  	0,003963  	0,004361  	0,004344  	-0,000001  	-0,000000  	26,846234  	25,446761  	26,544474  	26,356956  	29,790927  	28,243259  	29,678928  	29,253675  	32,634178  	31,602462  	34,733371  	65,501346  	28,056770  	27,216124  	28,365555  	71,563241  	0,299506  	0,151762  	-4894,141793  	1717,794334  	-0,053769  	-0,050008  	0,298523  	0,151264  	-4,815261  	9261,002949  	103302,837744  	14,982810  	-0,047958  
102,556000  	23,893757  	31,605828  	25,941011  	657,183579  	80,204575  	72,592053  	0,008754  	0,008293  	0,003961  	0,004341  	0,004355  	-0,000000  	-0,000000  	26,848908  	25,440419  	26,556451  	26,367571  	29,796309  	28,247880  	29,683854  	29,255824  	32,634086  	31,610255  	34,745268  	65,504637  	28,058549  	27,222581  	28,372373  	71,573439  	0,283156  	0,143477  	-4626,107372  	18414,707223  	-0,027549  	-0,050004  	0,307294  	0,155708  	-4,968376  	9234,498480  	103364,544638  	14,991760  	-0,047955  
103,558000  	23,896429  	31,602134  	25,941564  	657,183579  	80,210261  	72,597196  	0,008763  	0,008295  	0,003960  	0,004311  	0,004339  	-0,000000  	-0,000000  	26,846603  	25,448366  	26,553962  	26,370583  	29,781704  	28,244447  	29,675172  	29,245852  	32,630521  	31,602551  	34,745860  	65,500163  	28,039935  	27,211907  	28,358106  	71,572873  	0,258279  	0,130872  	-4216,186398  	18414,780819  	-0,027549  	-0,050005  	0,294895  	0,149425  	-4,768249  	9238,618646  	103547,723521  	15,018328  	-0,047955  
104,559000  	23,887030  	31,600718  	25,942118  	1256,670793  	80,215198  	72,599066  	0,008748  	0,008303  	0,003963  	0,004282  	0,004366  	-0,000000  	-0,000000  	26,845734  	25,439085  	26,545880  	26,367365  	29,786873  	28,236735  	29,678273  	29,250804  	32,626663  	31,605731  	34,736820  	65,503561  	28,037020  	27,227110  	28,352764  	71,556287  	0,235140  	0,119147  	-3842,449816  	25505,314975  	-0,018518  	-0,050001  	0,315878  	0,160058  	-5,109601  	9255,000976  	103225,631749  	14,971612  	-0,047953  
105,559000  	23,901129  	31,598747  	25,942824  	57,696365  	80,215354  	72,602495  	0,008758  	0,008314  	0,003963  	0,004368  	0,004321  	0,000001  	-0,000000  	26,830475  	25,426804  	26,542454  	26,352650  	29,772205  	28,230925  	29,664203  	29,239805  	32,629210  	31,594069  	34,731995  	65,489198  	28,027564  	27,244117  	28,339632  	71,553129  	0,305054  	0,154573  	-4974,530834  	1717,199260  	-0,053755  	-0,049993  	0,280284  	0,142022  	-4,531893  	9279,465879  	103437,761115  	15,002379  	-0,047945  
106,563000  	23,926010  	31,600779  	25,943193  	1256,670793  	80,213917  	72,600687  	0,008748  	0,008290  	0,003961  	0,004314  	0,004367  	0,000000  	-0,000000  	26,845531  	25,451618  	26,555698  	26,368772  	29,781221  	28,251259  	29,685171  	29,260955  	32,633585  	31,607030  	34,743103  	65,514067  	28,045588  	27,282261  	28,371998  	71,567229  	0,261178  	0,132341  	-4246,395901  	25504,355633  	-0,018517  	-0,049999  	0,316583  	0,160415  	-5,119050  	9226,057232  	103232,593987  	14,972622  	-0,047951  
107,557000  	23,930618  	31,598655  	25,944208  	1256,670793  	80,212042  	72,601123  	0,008752  	0,008282  	0,003962  	0,004360  	0,004333  	-0,000001  	-0,000000  	26,828967  	25,434377  	26,539501  	26,355871  	29,773982  	28,230071  	29,676504  	29,244073  	32,629123  	31,599547  	34,729982  	65,497871  	28,035208  	27,278429  	28,363276  	71,566662  	0,298047  	0,151023  	-4841,581283  	25511,799157  	-0,018523  	-0,050016  	0,290105  	0,146998  	-4,689484  	9210,438236  	103305,231454  	14,983157  	-0,047965  
108,559000  	23,947390  	31,601980  	25,943531  	57,696365  	80,213792  	72,599004  	0,008759  	0,008296  	0,003961  	0,004322  	0,004402  	0,000001  	-0,000000  	26,835226  	25,438321  	26,525806  	26,360897  	29,782336  	28,233066  	29,664412  	29,238408  	32,624209  	31,598974  	34,729953  	65,505782  	28,036816  	27,280738  	28,356073  	71,559025  	0,267670  	0,135630  	-4340,487516  	1716,993944  	-0,053750  	-0,049988  	0,344271  	0,174445  	-5,567900  	9239,877193  	103458,040575  	15,005320  	-0,047941  
109,556000  	23,954977  	31,612448  	25,944054  	57,696365  	80,216073  	72,613343  	0,008751  	0,008300  	0,003962  	0,004334  	0,004354  	0,000000  	-0,000000  	26,844183  	25,448922  	26,541862  	26,365153  	29,781756  	28,242784  	29,682136  	29,249737  	32,632561  	31,602961  	34,730859  	65,514762  	28,037728  	27,297532  	28,360213  	71,575273  	0,277437  	0,140580  	-4500,568852  	1717,264273  	-0,053759  	-0,049997  	0,306307  	0,155208  	-4,946071  	9248,985562  	103285,050850  	14,980230  	-0,047949  
110,560000  	23,962473  	31,619036  	25,943255  	657,183579  	80,211699  	72,617083  	0,008752  	0,008298  	0,003963  	0,004293  	0,004346  	0,000001  	-0,000000  	26,841269  	25,449140  	26,537040  	26,362210  	29,783341  	28,238807  	29,678826  	29,258711  	32,632347  	31,603994  	34,736507  	65,513022  	28,045583  	27,308596  	28,361922  	71,567842  	0,243940  	0,123606  	-3956,704805  	18407,275356  	-0,027538  	-0,049982  	0,300183  	0,152105  	-4,842014  	9243,340142  	103308,077075  	14,983570  	-0,047936  
111,560000  	23,966343  	31,627349  	25,942056  	-242,047242  	80,206450  	72,611846  	0,008761  	0,008303  	0,003962  	0,004337  	0,004305  	0,000001  	-0,000000  	26,841934  	25,441385  	26,530733  	26,367732  	29,779928  	28,235479  	29,674657  	29,246189  	32,624152  	31,600870  	34,735222  	65,501609  	28,049386  	27,299854  	28,363802  	71,572590  	0,280007  	0,141882  	-4544,347226  	-27090,125743  	-0,102549  	-0,049991  	0,267735  	0,135663  	-4,318614  	9255,851327  	103515,475508  	15,013650  	-0,047944  
112,559000  	23,985143  	31,636031  	25,941564  	956,927186  	80,204700  	72,614340  	0,008757  	0,008292  	0,003962  	0,004372  	0,004375  	-0,000000  	-0,000000  	26,842117  	25,442011  	26,529388  	26,364121  	29,775225  	28,234833  	29,668887  	29,241043  	32,627486  	31,589794  	34,730385  	65,498858  	28,035522  	27,291780  	28,355846  	71,570379  	0,308014  	0,156073  	-4992,276277  	22451,250844  	-0,022149  	-0,050004  	0,323244  	0,163790  	-5,211065  	9231,506690  	103427,346002  	15,000868  	-0,047955  
113,562000  	23,977340  	31,644374  	25,941165  	57,696365  	80,205294  	72,610381  	0,008756  	0,008291  	0,003963  	0,004330  	0,004312  	0,000000  	-0,000000  	26,843459  	25,442765  	26,535706  	26,369186  	29,776895  	28,240525  	29,665927  	29,247556  	32,627759  	31,595284  	34,733774  	65,504392  	28,031903  	27,285700  	28,363927  	71,568424  	0,273639  	0,138655  	-4444,484986  	1717,398219  	-0,053759  	-0,049996  	0,273606  	0,138638  	-4,413488  	9229,953138  	103393,523365  	14,995963  	-0,047948  
114,556000  	23,938697  	31,649300  	25,942025  	1256,670793  	80,209730  	72,603274  	0,008755  	0,008317  	0,003962  	0,004312  	0,004315  	0,000001  	-0,000000  	26,840585  	25,438411  	26,543151  	26,365133  	29,783949  	28,236697  	29,669233  	29,247410  	32,630105  	31,598146  	34,731062  	65,503813  	28,025273  	27,269638  	28,357005  	71,568848  	0,259541  	0,131511  	-4239,473634  	25501,679689  	-0,018515  	-0,049993  	0,275965  	0,139834  	-4,458303  	9284,156247  	103376,979223  	14,993563  	-0,047946  
115,557000  	23,912618  	31,651517  	25,941196  	1256,670793  	80,207949  	72,598038  	0,008747  	0,008276  	0,003962  	0,004337  	0,004373  	-0,000000  	-0,000000  	26,836287  	25,433914  	26,539618  	26,364005  	29,781227  	28,234613  	29,671423  	29,245706  	32,626757  	31,593310  	34,724557  	65,498216  	28,018561  	27,249055  	28,347922  	71,563257  	0,279789  	0,141771  	-4586,999799  	25504,904055  	-0,018518  	-0,050000  	0,321895  	0,163106  	-5,202669  	9196,824143  	103197,493292  	14,967531  	-0,047952  
116,560000  	23,870965  	31,648192  	25,940888  	57,696365  	80,202638  	72,608947  	0,008762  	0,008321  	0,003962  	0,004336  	0,004380  	0,000000  	-0,000000  	26,835524  	25,435179  	26,539543  	26,368076  	29,779058  	28,239130  	29,672352  	29,249380  	32,626591  	31,594225  	34,725588  	65,499424  	28,013986  	27,241274  	28,352031  	71,562995  	0,278638  	0,141188  	-4590,767022  	1717,455528  	-0,053760  	-0,049998  	0,327188  	0,165789  	-5,276959  	9293,176892  	103535,860884  	15,016607  	-0,047950  
117,558000  	23,845439  	31,640310  	25,941288  	-242,047242  	80,201138  	72,602838  	0,008757  	0,008297  	0,003962  	0,004305  	0,004319  	0,000001  	-0,000000  	26,842528  	25,442635  	26,541953  	26,365492  	29,783325  	28,237249  	29,668094  	29,244433  	32,626816  	31,595368  	34,734290  	65,496833  	28,010029  	27,231651  	28,353557  	71,571481  	0,253419  	0,128409  	-4184,741629  	-27090,792411  	-0,102552  	-0,049992  	0,279142  	0,141443  	-4,504786  	9242,161536  	103431,215481  	15,001430  	-0,047945  
118,560000  	23,831739  	31,628180  	25,941472  	357,439972  	80,202263  	72,604334  	0,008750  	0,008304  	0,003965  	0,004356  	0,004384  	-0,000001  	-0,000000  	26,842854  	25,443072  	26,543268  	26,363822  	29,783534  	28,236472  	29,668530  	29,243099  	32,625926  	31,599098  	34,735481  	65,499184  	28,011449  	27,208765  	28,350009  	71,573613  	0,295018  	0,149488  	-4872,648014  	12450,301301  	-0,036433  	-0,050007  	0,330073  	0,167250  	-5,326449  	9256,877831  	103265,308033  	14,977367  	-0,047957  
119,561000  	23,827408  	31,611001  	25,941749  	1256,670793  	80,204419  	72,605768  	0,008760  	0,008296  	0,003961  	0,004286  	0,004371  	0,000001  	-0,000000  	26,838029  	25,438121  	26,543755  	26,367386  	29,785507  	28,238321  	29,676697  	29,250595  	32,630833  	31,607494  	34,730701  	65,506704  	28,021111  	27,187433  	28,354472  	71,570214  	0,238484  	0,120841  	-3932,414304  	25499,863906  	-0,018514  	-0,049989  	0,320035  	0,162164  	-5,164969  	9239,557427  	103494,122761  	15,010553  	-0,047942  
120,555000  	23,842889  	31,592467  	25,941749  	1256,670793  	80,201919  	72,607264  	0,008760  	0,008305  	0,003961  	0,004313  	0,004320  	0,000001  	-0,000000  	26,845799  	25,442655  	26,546089  	26,371859  	29,792684  	28,241445  	29,683619  	29,254044  	32,635389  	31,610936  	34,731325  	65,505165  	28,035907  	27,176092  	28,364664  	71,577270  	0,260376  	0,131934  	-4274,632267  	25497,688040  	-0,018512  	-0,049985  	0,279981  	0,141868  	-4,516161  	9259,566126  	103482,507263  	15,008869  	-0,047938  
121,562000  	23,867371  	31,574488  	25,943009  	956,927186  	80,202513  	72,587626  	0,008753  	0,008299  	0,003963  	0,004355  	0,004359  	-0,000000  	-0,000000  	26,850590  	25,446262  	26,550666  	26,373645  	29,790992  	28,245015  	29,688149  	29,251994  	32,631092  	31,606827  	34,730461  	65,502920  	28,042240  	27,159394  	28,361063  	71,581177  	0,293873  	0,148907  	-4798,115521  	22450,704623  	-0,022148  	-0,050003  	0,310343  	0,157253  	-5,019228  	9246,334761  	103336,625075  	14,987710  	-0,047954  
122,566000  	23,881992  	31,566175  	25,942702  	-242,047242  	80,209324  	72,595793  	0,008761  	0,008281  	0,003961  	0,004351  	0,004345  	0,000001  	-0,000000  	26,845068  	25,443242  	26,547417  	26,370247  	29,790912  	28,241047  	29,687787  	29,246988  	32,627641  	31,603446  	34,731893  	65,505829  	28,042725  	27,130783  	28,353234  	71,570262  	0,290713  	0,147306  	-4732,393719  	-27090,341453  	-0,102550  	-0,049991  	0,299630  	0,151825  	-4,845111  	9207,660095  	103515,320164  	15,013628  	-0,047944  
123,557000  	23,903464  	31,566729  	25,943163  	657,183579  	80,214667  	72,589653  	0,008763  	0,008308  	0,003961  	0,004330  	0,004319  	-0,000001  	-0,000000  	26,851361  	25,447901  	26,549183  	26,372991  	29,799855  	28,248333  	29,687035  	29,253878  	32,636872  	31,608642  	34,740886  	65,512045  	28,056016  	27,114067  	28,363688  	71,572962  	0,273808  	0,138741  	-4445,076699  	18417,460989  	-0,027553  	-0,050013  	0,278995  	0,141369  	-4,518234  	9264,940595  	103542,166440  	15,017522  	-0,047962  
124,559000  	23,928468  	31,569377  	25,943777  	1256,670793  	80,215479  	72,595575  	0,008753  	0,008303  	0,003963  	0,004327  	0,004326  	0,000000  	-0,000000  	26,852326  	25,442781  	26,548441  	26,370590  	29,788039  	28,242565  	29,681329  	29,249333  	32,636134  	31,602292  	34,737064  	65,500879  	28,055316  	27,104140  	28,354545  	71,573302  	0,271466  	0,137554  	-4394,188874  	25504,583260  	-0,018517  	-0,050000  	0,284312  	0,144063  	-4,601258  	9254,178216  	103331,216278  	14,986926  	-0,047951  
125,554000  	23,925181  	31,575811  	25,944761  	1256,670793  	80,210668  	72,604334  	0,008752  	0,008274  	0,003962  	0,004362  	0,004403  	0,000000  	-0,000000  	26,845891  	25,440764  	26,539080  	26,360656  	29,787855  	28,242963  	29,681598  	29,245124  	32,634146  	31,603732  	34,737854  	65,498032  	28,061152  	27,096666  	28,363506  	71,573994  	0,300313  	0,152171  	-4867,317903  	25503,432667  	-0,018517  	-0,049998  	0,345298  	0,174965  	-5,578302  	9193,251540  	103318,675776  	14,985107  	-0,047949  
126,557000  	23,944226  	31,589912  	25,944515  	1256,670793  	80,209480  	72,611005  	0,008760  	0,008302  	0,003962  	0,004330  	0,004324  	0,000000  	-0,000000  	26,838624  	25,443300  	26,541779  	26,353035  	29,787496  	28,241666  	29,679458  	29,249359  	32,628622  	31,590096  	34,738066  	65,499065  	28,061623  	27,096954  	28,355810  	71,571767  	0,274354  	0,139017  	-4443,698485  	25503,957978  	-0,018517  	-0,049999  	0,283046  	0,143422  	-4,567910  	9253,302398  	103477,988163  	15,008213  	-0,047950  
127,556000  	23,964869  	31,600348  	25,943870  	357,439972  	80,208449  	72,596479  	0,008751  	0,008299  	0,003965  	0,004366  	0,004353  	-0,000001  	-0,000000  	26,840443  	25,439754  	26,545073  	26,358513  	29,782210  	28,234155  	29,683531  	29,250880  	32,623597  	31,601489  	34,738056  	65,505669  	28,056783  	27,100839  	28,353621  	71,575007  	0,303540  	0,153806  	-4909,855419  	12450,896437  	-0,036435  	-0,050010  	0,305809  	0,154956  	-4,944011  	9246,503133  	103284,718978  	14,980182  	-0,047960  
128,557000  	23,984037  	31,608353  	25,943316  	956,927186  	80,205012  	72,603025  	0,008760  	0,008294  	0,003961  	0,004329  	0,004350  	-0,000000  	-0,000000  	26,852569  	25,447377  	26,548590  	26,364961  	29,797235  	28,246413  	29,685209  	29,247092  	32,643070  	31,614691  	34,736229  	65,514094  	28,059140  	27,118023  	28,364052  	71,572931  	0,273194  	0,138429  	-4412,532714  	22451,299963  	-0,022149  	-0,050005  	0,303191  	0,153629  	-4,895269  	9235,255447  	103478,793128  	15,008330  	-0,047955  
129,558000  	24,013342  	31,622515  	25,943347  	1256,670793  	80,201763  	72,597134  	0,008759  	0,008275  	0,003962  	0,004368  	0,004361  	0,000001  	-0,000000  	26,842318  	25,445975  	26,535480  	26,364667  	29,777533  	28,242678  	29,673874  	29,249960  	32,637556  	31,596857  	34,729316  	65,510884  	28,051622  	27,115286  	28,356334  	71,558491  	0,304599  	0,154343  	-4910,008201  	25501,173712  	-0,018515  	-0,049992  	0,312567  	0,158380  	-5,048395  	9195,424107  	103462,404330  	15,005953  	-0,047945  
130,557000  	24,015615  	31,635507  	25,943531  	657,183579  	80,198264  	72,598941  	0,008747  	0,008290  	0,003961  	0,004259  	0,004347  	0,000001  	-0,000000  	26,841692  	25,449333  	26,539803  	26,371423  	29,789999  	28,245806  	29,676997  	29,251404  	32,640315  	31,592577  	34,737765  	65,505831  	28,061890  	27,118492  	28,366820  	71,570416  	0,216555  	0,109730  	-3495,680747  	18408,684822  	-0,027540  	-0,049986  	0,301345  	0,152694  	-4,863754  	9227,876784  	103195,883363  	14,967297  	-0,047940  
131,559000  	24,000594  	31,648807  	25,942702  	657,183579  	80,197826  	72,600843  	0,008764  	0,008279  	0,003964  	0,004367  	0,004287  	0,000000  	-0,000000  	26,833354  	25,443289  	26,538978  	26,365990  	29,779532  	28,237249  	29,671896  	29,243230  	32,625525  	31,598632  	34,729971  	65,502896  	28,057037  	27,144481  	28,350472  	71,571512  	0,303960  	0,154019  	-4924,846995  	18412,352619  	-0,027545  	-0,049997  	0,253768  	0,128586  	-4,094595  	9202,843802  	103562,714222  	15,020502  	-0,047949  
132,556000  	23,975897  	31,661553  	25,943070  	1256,670793  	80,200138  	72,618361  	0,008755  	0,008272  	0,003962  	0,004279  	0,004381  	0,000000  	-0,000000  	26,844064  	25,446709  	26,537172  	26,356001  	29,783242  	28,231608  	29,675523  	29,248486  	32,618013  	31,597935  	34,733518  	65,502287  	28,042723  	27,149159  	28,352054  	71,569615  	0,232304  	0,117710  	-3782,284968  	25503,974869  	-0,018517  	-0,049999  	0,327672  	0,166034  	-5,276480  	9188,892257  	103382,875236  	14,994418  	-0,047950  
133,556000  	23,933966  	31,675285  	25,943101  	57,696365  	80,197920  	72,604396  	0,008751  	0,008285  	0,003963  	0,004329  	0,004329  	-0,000001  	-0,000000  	26,832718  	25,433347  	26,541939  	26,364032  	29,772804  	28,236945  	29,672365  	29,246138  	32,622937  	31,591760  	34,726368  	65,505826  	28,048113  	27,150051  	28,361913  	71,573714  	0,273044  	0,138354  	-4477,811984  	1717,621117  	-0,053769  	-0,050007  	0,286939  	0,145394  	-4,627709  	9216,247077  	103299,660252  	14,982349  	-0,047958  
134,557000  	23,888320  	31,675161  	25,943163  	1256,670793  	80,193921  	72,611316  	0,008761  	0,008299  	0,003962  	0,004310  	0,004347  	-0,000000  	-0,000000  	26,841781  	25,444506  	26,550106  	26,367242  	29,781625  	28,235565  	29,670619  	29,244340  	32,622428  	31,598530  	34,730527  	65,513792  	28,058315  	27,156357  	28,359493  	71,566167  	0,258161  	0,130812  	-4258,636683  	25505,860121  	-0,018518  	-0,050003  	0,301256  	0,152649  	-4,851633  	9245,532517  	103513,865578  	15,013417  	-0,047954  
135,557000  	23,878275  	31,666387  	25,943347  	1256,670793  	80,195858  	72,610631  	0,008759  	0,008289  	0,003960  	0,004376  	0,004320  	0,000000  	-0,000000  	26,852430  	25,445984  	26,545649  	26,368645  	29,786137  	28,240709  	29,678512  	29,253679  	32,635282  	31,597891  	34,737710  	65,509192  	28,044761  	27,152571  	28,360980  	71,567346  	0,311069  	0,157621  	-5132,248938  	25504,074239  	-0,018517  	-0,049999  	0,279532  	0,141641  	-4,503335  	9225,682286  	103475,064871  	15,007789  	-0,047950  
136,556000  	23,922877  	31,648838  	25,942671  	57,696365  	80,205044  	72,604895  	0,008750  	0,008282  	0,003962  	0,004313  	0,004407  	0,000000  	-0,000000  	26,857013  	25,436961  	26,540843  	26,364355  	29,779142  	28,239399  	29,676616  	29,256715  	32,631823  	31,599893  	34,732475  	65,513774  	28,052335  	27,162103  	28,361636  	71,572353  	0,260296  	0,131894  	-4260,271196  	1717,413723  	-0,053762  	-0,050000  	0,348684  	0,176681  	-5,628430  	9209,841859  	103278,964187  	14,979347  	-0,047951  
137,558000  	23,947114  	31,622731  	25,943193  	1256,670793  	80,208168  	72,603835  	0,008755  	0,008309  	0,003964  	0,004349  	0,004314  	-0,000000  	-0,000000  	26,848813  	25,435260  	26,546245  	26,366597  	29,778153  	28,238310  	29,678045  	29,260027  	32,627594  	31,602950  	34,727953  	65,505363  	28,055862  	27,164933  	28,360011  	71,570145  	0,289058  	0,146468  	-4700,198642  	25505,689166  	-0,018518  	-0,050002  	0,274607  	0,139145  	-4,435118  	9268,617900  	103386,561127  	14,994953  	-0,047953  
138,556000  	23,921126  	31,610293  	25,943132  	1256,670793  	80,204544  	72,605145  	0,008753  	0,008286  	0,003965  	0,004335  	0,004319  	-0,000001  	-0,000000  	26,835815  	25,441668  	26,532173  	26,365681  	29,774981  	28,236919  	29,682664  	29,251725  	32,624100  	31,600773  	34,737586  	65,501310  	28,047396  	27,145466  	28,357011  	71,562982  	0,278020  	0,140875  	-4528,697603  	25508,434798  	-0,018520  	-0,050008  	0,278626  	0,141182  	-4,497121  	9219,430584  	103337,797217  	14,987880  	-0,047959  
139,558000  	23,931263  	31,617681  	25,944515  	1256,670793  	80,201107  	72,588530  	0,008761  	0,008299  	0,003961  	0,004347  	0,004349  	0,000001  	-0,000000  	26,841345  	25,438232  	26,534554  	26,366652  	29,781147  	28,237632  	29,683651  	29,242364  	32,621850  	31,596990  	34,731114  	65,495907  	28,046329  	27,135200  	28,355889  	71,569427  	0,287986  	0,145925  	-4689,361607  	25498,143860  	-0,018513  	-0,049986  	0,302538  	0,153298  	-4,891515  	9246,022777  	103501,099122  	15,011565  	-0,047939  
140,556000  	23,921249  	31,629504  	25,943900  	1256,670793  	80,197045  	72,582421  	0,008762  	0,008292  	0,003960  	0,004311  	0,004358  	0,000000  	-0,000000  	26,848456  	25,438564  	26,536701  	26,366588  	29,786007  	28,239214  	29,675604  	29,248623  	32,627576  	31,603381  	34,728154  	65,500103  	28,056819  	27,126547  	28,359754  	71,569966  	0,258862  	0,131167  	-4227,093603  	25503,008550  	-0,018516  	-0,049997  	0,309667  	0,156910  	-5,008120  	9231,128206  	103525,827070  	15,015152  	-0,047948  
141,559000  	23,876064  	31,625440  	25,944361  	1256,670793  	80,196077  	72,593611  	0,008752  	0,008304  	0,003962  	0,004318  	0,004345  	-0,000000  	-0,000000  	26,842522  	25,433840  	26,533561  	26,364581  	29,783041  	28,237206  	29,675391  	29,245959  	32,626322  	31,598468  	34,723241  	65,504185  	28,054635  	27,104002  	28,355060  	71,569936  	0,264458  	0,134003  	-4341,523273  	25506,344259  	-0,018519  	-0,050004  	0,299655  	0,151838  	-4,838478  	9256,315411  	103309,524599  	14,983780  	-0,047955  
142,557000  	23,859415  	31,624639  	25,944238  	1256,670793  	80,194889  	72,607514  	0,008757  	0,008280  	0,003962  	0,004337  	0,004346  	-0,000001  	-0,000000  	26,838019  	25,432171  	26,532903  	26,359131  	29,783597  	28,234126  	29,672186  	29,239219  	32,622425  	31,596639  	34,723840  	65,505095  	28,052257  	27,085452  	28,354853  	71,571417  	0,279480  	0,141615  	-4597,531069  	25508,951801  	-0,018521  	-0,050010  	0,300535  	0,152283  	-4,843054  	9204,850119  	103422,516214  	15,000168  	-0,047960  
143,557000  	23,868446  	31,617158  	25,943962  	1256,670793  	80,194952  	72,602651  	0,008754  	0,008284  	0,003961  	0,004341  	0,004374  	0,000000  	-0,000000  	26,839328  	25,440362  	26,539557  	26,357899  	29,785244  	28,234017  	29,671782  	29,242962  	32,625671  	31,608112  	34,731850  	65,503368  	28,058938  	27,077369  	28,361275  	71,579189  	0,283162  	0,143480  	-4648,189558  	25503,749901  	-0,018517  	-0,049998  	0,322148  	0,163235  	-5,194716  	9213,080548  	103355,103956  	14,990390  	-0,047950  
144,556000  	23,869122  	31,603489  	25,943408  	1256,670793  	80,193640  	72,599222  	0,008753  	0,008288  	0,003962  	0,004319  	0,004323  	-0,000000  	-0,000000  	26,840993  	25,450108  	26,543133  	26,364682  	29,783409  	28,236011  	29,678293  	29,250499  	32,627138  	31,607270  	34,735772  	65,500221  	28,062994  	27,063086  	28,363012  	71,574972  	0,264759  	0,134156  	-4338,061569  	25505,269439  	-0,018518  	-0,050001  	0,282332  	0,143060  	-4,553940  	9222,246220  	103340,233294  	14,988234  	-0,047953  
145,559000  	23,857480  	31,590096  	25,944884  	1256,670793  	80,196452  	72,589871  	0,008761  	0,008288  	0,003962  	0,004323  	0,004342  	-0,000000  	-0,000000  	26,842233  	25,454541  	26,544123  	26,367809  	29,785855  	28,238114  	29,684674  	29,256761  	32,629129  	31,599746  	34,738491  	65,503712  	28,063993  	27,044094  	28,364185  	71,576955  	0,268464  	0,136033  	-4397,764594  	25506,504770  	-0,018519  	-0,050004  	0,297318  	0,150653  	-4,803339  	9221,611641  	103513,505463  	15,013365  	-0,047955  
146,555000  	23,863992  	31,587202  	25,945498  	1256,670793  	80,197826  	72,589247  	0,008760  	0,008301  	0,003960  	0,004338  	0,004393  	0,000000  	-0,000000  	26,843975  	25,451895  	26,548284  	26,367143  	29,791566  	28,241969  	29,683269  	29,258577  	32,634366  	31,602255  	34,743301  	65,509734  	28,062172  	27,027058  	28,364020  	71,586444  	0,280757  	0,142262  	-4593,550045  	25502,411437  	-0,018516  	-0,049995  	0,337770  	0,171150  	-5,458286  	9250,004284  	103483,319289  	15,008987  	-0,047947  
147,556000  	23,850538  	31,581199  	25,945591  	1256,670793  	80,202950  	72,598006  	0,008747  	0,008261  	0,003962  	0,004323  	0,004361  	0,000000  	-0,000000  	26,841054  	25,445733  	26,546366  	26,367271  	29,789461  	28,245067  	29,677987  	29,251785  	32,629711  	31,597954  	34,738934  	65,507389  	28,049966  	27,006857  	28,355764  	71,574380  	0,268303  	0,135951  	-4394,013328  	25502,768916  	-0,018516  	-0,049996  	0,312282  	0,158235  	-5,043998  	9163,816828  	103195,212559  	14,967200  	-0,047948  
148,556000  	23,835179  	31,573810  	25,945037  	1256,670793  	80,202388  	72,604054  	0,008755  	0,008306  	0,003963  	0,004310  	0,004346  	0,000000  	-0,000000  	26,829833  	25,438112  	26,537311  	26,358288  	29,778816  	28,238791  	29,680684  	29,244296  	32,623126  	31,588135  	34,725284  	65,499028  	28,032992  	26,984856  	28,347697  	71,572903  	0,257578  	0,130516  	-4222,723747  	25502,663561  	-0,018516  	-0,049996  	0,300631  	0,152332  	-4,851598  	9261,761332  	103375,425783  	14,993338  	-0,047948  
149,558000  	23,872562  	31,571009  	25,945714  	1256,670793  	80,209199  	72,590120  	0,008762  	0,008299  	0,003963  	0,004361  	0,004353  	-0,000000  	-0,000000  	26,831815  	25,436381  	26,531597  	26,353310  	29,773883  	28,232998  	29,672548  	29,244083  	32,627439  	31,593726  	34,722892  	65,494819  	28,025727  	26,966459  	28,346919  	71,569639  	0,298943  	0,151477  	-4875,413957  	25506,617973  	-0,018519  	-0,050005  	0,306018  	0,155061  	-4,952007  	9246,706878  	103529,209334  	15,015642  	-0,047955  
150,557000  	23,901191  	31,567807  	25,945591  	657,183579  	80,211761  	72,582140  	0,008758  	0,008291  	0,003962  	0,004328  	0,004383  	0,000000  	-0,000000  	26,850149  	25,451253  	26,545493  	26,364886  	29,785311  	28,241485  	29,673251  	29,249287  	32,631801  	31,609591  	34,732677  	65,508497  	28,027846  	26,962778  	28,355548  	71,576534  	0,272049  	0,137849  	-4418,447125  	18411,883436  	-0,027545  	-0,049996  	0,329567  	0,166994  	-5,340461  	9229,051144  	103437,047944  	15,002275  	-0,047948  
151,556000  	23,924874  	31,567068  	25,945498  	657,183579  	80,206731  	72,590744  	0,008758  	0,008271  	0,003963  	0,004356  	0,004315  	0,000001  	-0,000000  	26,844560  	25,446532  	26,540813  	26,367043  	29,787883  	28,236252  	29,673335  	29,248139  	32,632480  	31,602430  	34,733417  	65,513444  	28,019336  	26,943660  	28,362401  	71,575872  	0,295036  	0,149497  	-4776,515755  	18410,559190  	-0,027543  	-0,049992  	0,275566  	0,139631  	-4,457423  	9186,576786  	103436,836111  	15,002245  	-0,047945  
152,557000  	23,956391  	31,574703  	25,945806  	57,696365  	80,205106  	72,599658  	0,008757  	0,008287  	0,003963  	0,004322  	0,004325  	0,000001  	-0,000000  	26,841839  	25,437868  	26,536576  	26,365680  	29,785312  	28,236846  	29,675288  	29,244611  	32,622148  	31,589998  	34,723441  	65,497320  	28,022177  	26,931510  	28,358508  	71,580892  	0,267238  	0,135412  	-4312,950895  	1716,890330  	-0,053751  	-0,049988  	0,283911  	0,143860  	-4,586057  	9220,043940  	103420,680330  	14,999902  	-0,047942  
153,557000  	23,964500  	31,586494  	25,946359  	57,696365  	80,209324  	72,599160  	0,008754  	0,008305  	0,003963  	0,004340  	0,004372  	0,000000  	-0,000000  	26,836002  	25,437004  	26,541171  	26,362618  	29,781902  	28,246001  	29,680379  	29,242330  	32,622814  	31,597102  	34,729737  	65,503142  	28,018245  	26,928542  	28,363242  	71,569628  	0,282050  	0,142917  	-4554,200265  	1717,152732  	-0,053760  	-0,049998  	0,321048  	0,162677  	-5,189151  	9258,812696  	103366,274606  	14,992011  	-0,047950  
154,555000  	23,974760  	31,602873  	25,945744  	657,183579  	80,211824  	72,601404  	0,008760  	0,008296  	0,003963  	0,004363  	0,004364  	0,000000  	-0,000000  	26,843790  	25,440873  	26,540873  	26,357952  	29,779511  	28,236762  	29,681239  	29,249972  	32,630872  	31,600087  	34,732419  	65,506452  	28,018055  	26,930691  	28,358600  	71,578896  	0,300403  	0,152216  	-4854,428967  	18411,953771  	-0,027545  	-0,049996  	0,314630  	0,159425  	-5,085592  	9239,676985  	103493,967417  	15,010531  	-0,047948  
155,558000  	23,962872  	31,619128  	25,945744  	657,183579  	80,207731  	72,599316  	0,008756  	0,008272  	0,003964  	0,004293  	0,004336  	-0,000001  	-0,000000  	26,835474  	25,441253  	26,540067  	26,348853  	29,777964  	28,235356  	29,681984  	29,251879  	32,617338  	31,602165  	34,725771  	65,505357  	28,028541  	26,936288  	28,353466  	71,579941  	0,243742  	0,123506  	-3953,344381  	18416,241637  	-0,027551  	-0,050009  	0,292487  	0,148205  	-4,726431  	9188,298709  	103401,022246  	14,997050  	-0,047960  
156,557000  	23,920236  	31,631566  	25,945867  	1256,670793  	80,203232  	72,599627  	0,008747  	0,008300  	0,003960  	0,004311  	0,004347  	0,000000  	-0,000000  	26,832111  	25,443197  	26,544673  	26,352797  	29,784981  	28,235088  	29,682598  	29,250519  	32,624776  	31,604988  	34,736658  	65,512587  	28,020067  	26,947476  	28,361108  	71,569332  	0,258361  	0,130914  	-4220,608448  	25501,969928  	-0,018516  	-0,049994  	0,300700  	0,152367  	-4,856079  	9248,605663  	103196,377640  	14,967369  	-0,047947  
157,556000  	23,911819  	31,638678  	25,944822  	57,696365  	80,199045  	72,606017  	0,008759  	0,008297  	0,003960  	0,004346  	0,004364  	0,000001  	-0,000000  	26,845953  	25,439765  	26,533630  	26,364558  	29,780860  	28,242472  	29,669305  	29,253518  	32,623415  	31,598124  	34,726147  	65,498028  	28,023749  	26,954386  	28,359731  	71,576944  	0,287044  	0,145447  	-4698,618600  	1717,050068  	-0,053754  	-0,049992  	0,314165  	0,159190  	-5,066479  	9242,456541  	103466,626864  	15,006565  	-0,047944  
158,555000  	23,929144  	31,636031  	25,944023  	1256,670793  	80,199857  	72,599970  	0,008752  	0,008291  	0,003963  	0,004289  	0,004378  	-0,000000  	-0,000000  	26,829011  	25,432983  	26,532565  	26,353762  	29,781782  	28,232618  	29,670266  	29,242310  	32,618398  	31,599705  	34,723736  	65,500181  	28,017790  	26,966103  	28,344944  	71,566634  	0,240455  	0,121840  	-3925,826344  	25505,057162  	-0,018518  	-0,050001  	0,326021  	0,165197  	-5,262415  	9228,313986  	103318,633409  	14,985101  	-0,047952  
159,558000  	23,960292  	31,625501  	25,943654  	357,439972  	80,202638  	72,600656  	0,008750  	0,008295  	0,003962  	0,004339  	0,004327  	0,000001  	-0,000000  	26,829517  	25,443035  	26,530240  	26,367350  	29,778701  	28,234686  	29,672571  	29,240202  	32,619503  	31,597711  	34,730695  	65,503893  	28,022530  	26,963112  	28,361373  	71,575999  	0,280929  	0,142349  	-4561,808587  	12447,204201  	-0,036424  	-0,049993  	0,285297  	0,144562  	-4,606343  	9237,300674  	103269,784766  	14,978016  	-0,047946  
160,556000  	23,962872  	31,619406  	25,942486  	-242,047242  	80,203450  	72,601653  	0,008763  	0,008291  	0,003963  	0,004342  	0,004386  	-0,000001  	-0,000000  	26,837514  	25,439053  	26,553341  	26,367751  	29,788120  	28,234891  	29,675384  	29,251372  	32,628475  	31,603777  	34,737476  	65,508873  	28,023301  	26,982191  	28,368452  	71,583874  	0,283493  	0,143648  	-4598,233280  	-27098,747698  	-0,102582  	-0,050009  	0,331743  	0,168097  	-5,356125  	9228,335916  	103560,115740  	15,020125  	-0,047959  
161,556000  	23,952827  	31,621992  	25,943193  	956,927186  	80,201888  	72,603025  	0,008758  	0,008291  	0,003964  	0,004330  	0,004385  	0,000001  	-0,000000  	26,837486  	25,446772  	26,553884  	26,366552  	29,785851  	28,247308  	29,677533  	29,248743  	32,630334  	31,600273  	34,737379  	65,514235  	28,019504  	26,990851  	28,367112  	71,582033  	0,274195  	0,138937  	-4454,765330  	22444,662858  	-0,022142  	-0,049988  	0,331068  	0,167755  	-5,343172  	9229,490468  	103440,154825  	15,002726  	-0,047941  
162,557000  	23,937100  	31,632952  	25,942824  	357,439972  	80,204075  	72,598038  	0,008756  	0,008284  	0,003960  	0,004317  	0,004331  	-0,000000  	-0,000000  	26,834320  	25,438031  	26,544363  	26,359536  	29,776911  	28,234396  	29,669231  	29,241342  	32,620941  	31,593402  	34,729888  	65,501695  	28,012886  	26,979290  	28,354574  	71,577922  	0,263762  	0,133650  	-4300,185623  	12449,931197  	-0,036432  	-0,050005  	0,288479  	0,146174  	-4,660206  	9213,962733  	103390,663622  	14,995548  	-0,047956  
163,557000  	23,902542  	31,638955  	25,943378  	1256,670793  	80,205481  	72,604490  	0,008762  	0,008278  	0,003962  	0,004308  	0,004284  	0,000001  	-0,000000  	26,836808  	25,436049  	26,535296  	26,356798  	29,778700  	28,228906  	29,667496  	29,242149  	32,620316  	31,594693  	34,730051  	65,503522  	28,013768  	26,965346  	28,358435  	71,579317  	0,255944  	0,129689  	-4194,726198  	25496,101932  	-0,018511  	-0,049981  	0,251292  	0,127331  	-4,056778  	9200,091129  	103521,124382  	15,014470  	-0,047935  
164,557000  	23,883190  	31,638032  	25,943747  	1256,670793  	80,202919  	72,604677  	0,008758  	0,008303  	0,003964  	0,004373  	0,004373  	0,000001  	-0,000000  	26,841651  	25,438907  	26,537061  	26,358232  	29,785640  	28,228224  	29,673264  	29,242531  	32,621302  	31,595515  	34,730061  	65,503746  	28,020843  	26,963808  	28,355520  	71,581045  	0,308745  	0,156443  	-5072,145578  	25500,861945  	-0,018515  	-0,049992  	0,321569  	0,162941  	-5,189439  	9255,109923  	103444,892819  	15,003413  	-0,047944  
165,556000  	23,879811  	31,631197  	25,943777  	956,927186  	80,203856  	72,599097  	0,008751  	0,008273  	0,003960  	0,004310  	0,004366  	0,000002  	-0,000000  	26,828170  	25,434050  	26,533252  	26,351547  	29,778490  	28,228227  	29,668334  	29,240340  	32,617414  	31,590807  	34,723708  	65,497663  	28,019032  	26,946164  	28,352550  	71,572407  	0,257426  	0,130440  	-4227,185319  	22441,049367  	-0,022139  	-0,049979  	0,316235  	0,160238  	-5,107727  	9190,003655  	103282,989010  	14,979931  	-0,047933  
166,560000  	23,864453  	31,616235  	25,943470  	357,439972  	80,207731  	72,597227  	0,008746  	0,008272  	0,003963  	0,004289  	0,004357  	-0,000000  	-0,000000  	26,829700  	25,433959  	26,540119  	26,361732  	29,777547  	28,233582  	29,670448  	29,248439  	32,618526  	31,594561  	34,728340  	65,504855  	28,020749  	26,938747  	28,362139  	71,573362  	0,240500  	0,121863  	-3949,439705  	12449,651959  	-0,036431  	-0,050004  	0,309283  	0,156716  	-4,999224  	9188,258385  	103175,568598  	14,964351  	-0,047955  
167,560000  	23,859292  	31,604043  	25,944115  	1256,670793  	80,208106  	72,606017  	0,008740  	0,008294  	0,003963  	0,004327  	0,004359  	0,000001  	-0,000000  	26,843865  	25,433617  	26,541810  	26,366795  	29,785984  	28,241767  	29,679807  	29,249409  	32,622295  	31,597646  	34,730668  	65,505282  	28,028115  	26,941811  	28,367268  	71,579938  	0,271515  	0,137579  	-4454,727776  	25496,106070  	-0,018511  	-0,049981  	0,310373  	0,157268  	-5,011293  	9235,689112  	103046,294101  	14,945601  	-0,047935  
168,556000  	23,866664  	31,595854  	25,944976  	57,696365  	80,209605  	72,607139  	0,008736  	0,008308  	0,003963  	0,004296  	0,004350  	0,000000  	-0,000000  	26,848317  	25,433703  	26,544423  	26,360508  	29,789251  	28,243840  	29,684541  	29,248303  	32,620314  	31,595002  	34,732180  	65,505366  	28,026048  	26,936261  	28,364687  	71,579574  	0,246710  	0,125010  	-4039,614378  	1717,161331  	-0,053758  	-0,049996  	0,303573  	0,153823  	-4,901750  	9265,532727  	102958,701239  	14,932897  	-0,047948  
169,556000  	23,875572  	31,590066  	25,946697  	57,696365  	80,217916  	72,600095  	0,008746  	0,008293  	0,003964  	0,004325  	0,004377  	0,000001  	-0,000000  	26,843881  	25,437091  	26,543133  	26,358665  	29,786678  	28,240072  	29,679547  	29,250480  	32,621412  	31,593590  	34,733457  	65,509539  	28,020157  	26,928909  	28,367646  	71,585453  	0,269674  	0,136646  	-4407,225636  	1716,624033  	-0,053744  	-0,049981  	0,325238  	0,164800  	-5,262167  	9233,573848  	103179,487505  	14,964919  	-0,047935  
170,560000  	23,868753  	31,588773  	25,947865  	1256,670793  	80,220228  	72,600594  	0,008743  	0,008298  	0,003963  	0,004340  	0,004289  	-0,000002  	-0,000000  	26,840505  	25,441015  	26,540395  	26,360903  	29,787917  	28,242441  	29,675961  	29,251719  	32,629133  	31,601538  	34,734019  	65,509230  	28,019729  	26,925275  	28,368653  	71,588581  	0,282275  	0,143031  	-4616,478298  	25513,916307  	-0,018524  	-0,050021  	0,255509  	0,129468  	-4,134973  	9245,016789  	103115,690526  	14,955666  	-0,047969  
171,561000  	23,881746  	31,588957  	25,947773  	1256,670793  	80,216292  	72,597227  	0,008755  	0,008289  	0,003961  	0,004347  	0,004373  	0,000001  	-0,000000  	26,842095  	25,442995  	26,548798  	26,366533  	29,788946  	28,244829  	29,679090  	29,250728  	32,633622  	31,607874  	34,739499  	65,511143  	28,023754  	26,932656  	28,368316  	71,579607  	0,288012  	0,145938  	-4702,477467  	25499,902340  	-0,018514  	-0,049990  	0,321417  	0,162864  	-5,201187  	9223,818873  	103380,530953  	14,994078  	-0,047943  
172,557000  	23,892436  	31,588649  	25,949494  	1256,670793  	80,212042  	72,601778  	0,008743  	0,008304  	0,003963  	0,004380  	0,004298  	-0,000000  	-0,000000  	26,846142  	25,442306  	26,549335  	26,365799  	29,785128  	28,238384  	29,678037  	29,248047  	32,627671  	31,603256  	34,742797  	65,513587  	28,020725  	26,948780  	28,369445  	71,573687  	0,314562  	0,159391  	-5128,632919  	25505,020086  	-0,018518  	-0,050001  	0,262193  	0,132855  	-4,237933  	9256,862267  	103117,476983  	14,955926  	-0,047953  
173,564000  	23,902174  	31,587787  	25,949494  	57,696365  	80,210886  	72,608106  	0,008754  	0,008295  	0,003961  	0,004348  	0,004296  	-0,000001  	-0,000000  	26,843866  	25,442794  	26,539133  	26,355844  	29,782149  	28,236084  	29,674416  	29,245205  	32,621704  	31,602785  	34,737689  	65,508821  	28,011637  	26,968527  	28,360636  	71,577494  	0,288938  	0,146407  	-4704,377994  	1717,445679  	-0,053774  	-0,050013  	0,260724  	0,132111  	-4,210046  	9237,858849  	103352,886773  	14,990069  	-0,047963  
174,557000  	23,927731  	31,591297  	25,951338  	1256,670793  	80,224696  	72,607794  	0,008762  	0,008292  	0,003963  	0,004342  	0,004362  	-0,000000  	-0,000000  	26,835367  	25,445646  	26,540394  	26,355926  	29,780467  	28,236941  	29,671451  	29,240875  	32,624717  	31,606900  	34,733724  	65,506871  	28,013830  	27,002107  	28,357826  	71,580845  	0,283994  	0,143902  	-4610,610197  	25505,724250  	-0,018518  	-0,050003  	0,312624  	0,158409  	-5,057471  	9232,303274  	103528,340820  	15,015516  	-0,047954  
175,556000  	23,959155  	31,598686  	25,951523  	357,439972  	80,231976  	72,603368  	0,008757  	0,008282  	0,003960  	0,004311  	0,004392  	-0,000001  	-0,000000  	26,836790  	25,446490  	26,543488  	26,360494  	29,783395  	28,236099  	29,666376  	29,241093  	32,624696  	31,603038  	34,737125  	65,508099  	28,016434  	27,034521  	28,368834  	71,574999  	0,258922  	0,131198  	-4190,377190  	12450,789110  	-0,036435  	-0,050011  	0,336433  	0,170473  	-5,451009  	9209,861668  	103411,091365  	14,998511  	-0,047961  
176,580000  	23,977033  	31,606136  	25,952752  	956,927186  	80,227290  	72,609664  	0,008757  	0,008321  	0,003965  	0,004309  	0,004345  	0,000000  	-0,000000  	26,845042  	25,448556  	26,547809  	26,373607  	29,791285  	28,247984  	29,679236  	29,249705  	32,633280  	31,603213  	34,742798  	65,509143  	28,019107  	27,077751  	28,371176  	71,584798  	0,257272  	0,130362  	-4157,984005  	22448,612595  	-0,022147  	-0,049999  	0,299188  	0,151601  	-4,840570  	9292,903111  	103431,462619  	15,001465  	-0,047950  
177,556000  	23,981242  	31,614941  	25,952967  	1256,670793  	80,222759  	72,613498  	0,008745  	0,008311  	0,003962  	0,004319  	0,004324  	0,000001  	-0,000000  	26,838040  	25,445676  	26,536071  	26,361793  	29,794774  	28,245884  	29,677305  	29,248509  	32,629230  	31,610548  	34,739035  	65,512140  	28,011143  	27,111162  	28,369294  	71,582670  	0,265155  	0,134356  	-4287,971689  	25497,567682  	-0,018512  	-0,049985  	0,282873  	0,143334  	-4,571587  	9272,119758  	103166,572765  	14,963046  	-0,047939  
178,560000  	23,986218  	31,627256  	25,953889  	1256,670793  	80,219635  	72,618610  	0,008763  	0,008244  	0,003963  	0,004384  	0,004369  	0,000001  	-0,000000  	26,832439  	25,441912  	26,538228  	26,359896  	29,775359  	28,235691  	29,669183  	29,243052  	32,627455  	31,607707  	34,730267  	65,515016  	28,017997  	27,133822  	28,362460  	71,578597  	0,317769  	0,161016  	-5143,756767  	25498,652831  	-0,018513  	-0,049988  	0,318214  	0,161242  	-5,137192  	9127,775985  	103548,210736  	15,018398  	-0,047941  
179,556000  	23,977648  	31,640833  	25,954535  	1256,670793  	80,217323  	72,620512  	0,008758  	0,008242  	0,003961  	0,004329  	0,004344  	0,000001  	-0,000000  	26,836654  	25,434152  	26,540005  	26,355260  	29,772474  	28,235485  	29,666084  	29,228062  	32,624714  	31,592365  	34,722310  	65,511759  	28,009961  	27,155696  	28,353103  	71,565945  	0,272824  	0,138242  	-4429,022097  	25497,014538  	-0,018512  	-0,049984  	0,298894  	0,151452  	-4,822616  	9123,857440  	103451,028909  	15,004303  	-0,047938  
180,560000  	23,956268  	31,648900  	25,956748  	1256,670793  	80,210199  	72,626372  	0,008762  	0,008332  	0,003961  	0,004302  	0,004343  	0,000001  	-0,000000  	26,828404  	25,443064  	26,533065  	26,363689  	29,783006  	28,236353  	29,672940  	29,234410  	32,621918  	31,601816  	34,729455  	65,510554  	28,008006  	27,185027  	28,351497  	71,576682  	0,251669  	0,127523  	-4101,302278  	25501,292685  	-0,018515  	-0,049994  	0,298185  	0,151092  	-4,802955  	9317,439465  	103518,532961  	15,014094  	-0,047946  
181,555000  	23,902112  	31,656720  	25,956502  	956,927186  	80,206200  	72,620605  	0,008756  	0,008293  	0,003962  	0,004347  	0,004310  	0,000000  	-0,000000  	26,847248  	25,445332  	26,554756  	26,368908  	29,796246  	28,243471  	29,684053  	29,244173  	32,632804  	31,614061  	34,742499  	65,522068  	28,017067  	27,215622  	28,362018  	71,583216  	0,287968  	0,145916  	-4730,674417  	22447,187757  	-0,022145  	-0,049996  	0,271449  	0,137545  	-4,373325  	9234,439054  	103398,812124  	14,996730  	-0,047948  
182,556000  	23,859476  	31,653579  	25,956563  	-242,047242  	80,209012  	72,606267  	0,008753  	0,008301  	0,003962  	0,004343  	0,004402  	-0,000000  	-0,000000  	26,832768  	25,444777  	26,536283  	26,356845  	29,779371  	28,227465  	29,672919  	29,240082  	32,615975  	31,589073  	34,721596  	65,505665  	28,020320  	27,206944  	28,359751  	71,576068  	0,284601  	0,144209  	-4699,179020  	-27095,353949  	-0,102563  	-0,050001  	0,344532  	0,174577  	-5,563311  	9250,070784  	103326,245268  	14,986205  	-0,047952  
183,558000  	23,815152  	31,642034  	25,956932  	657,183579  	80,217635  	72,611846  	0,008761  	0,008285  	0,003962  	0,004323  	0,004321  	-0,000000  	-0,000000  	26,836108  	25,437055  	26,536389  	26,366165  	29,785907  	28,228501  	29,669820  	29,245242  	32,614020  	31,594681  	34,726298  	65,495488  	27,996301  	27,227562  	28,361723  	71,565679  	0,268724  	0,136164  	-4455,696049  	18412,952594  	-0,027547  	-0,050001  	0,280547  	0,142155  	-4,531933  	9216,663763  	103502,447790  	15,011761  	-0,047952  
184,557000  	23,785111  	31,622207  	25,958223  	1256,670793  	80,217885  	72,607358  	0,008759  	0,008295  	0,003962  	0,004310  	0,004361  	0,000000  	-0,000000  	26,848635  	25,446057  	26,554202  	26,364963  	29,795509  	28,253154  	29,685842  	29,257937  	32,637227  	31,605367  	34,739670  	65,522575  	28,022785  	27,250309  	28,372305  	71,584787  	0,257724  	0,130591  	-4278,892285  	25503,642992  	-0,018517  	-0,049999  	0,312298  	0,158244  	-5,047982  	9238,003875  	103453,952202  	15,004727  	-0,047950  
185,558000  	23,803909  	31,598717  	25,958008  	-242,047242  	80,209262  	72,611441  	0,008753  	0,008281  	0,003963  	0,004327  	0,004304  	0,000001  	-0,000000  	26,829071  	25,435229  	26,541102  	26,365056  	29,782954  	28,246815  	29,661406  	29,235571  	32,621903  	31,598152  	34,735755  	65,516022  	28,004153  	27,234895  	28,359363  	71,576057  	0,271460  	0,137551  	-4482,631424  	-27089,232939  	-0,102540  	-0,049988  	0,266894  	0,135237  	-4,306862  	9208,521057  	103342,605821  	14,988578  	-0,047941  
186,558000  	23,825227  	31,572548  	25,958008  	357,439972  	80,205387  	72,602277  	0,008763  	0,008293  	0,003963  	0,004393  	0,004384  	-0,000000  	-0,000000  	26,839122  	25,439981  	26,536824  	26,364628  	29,779975  	28,241566  	29,676648  	29,236376  	32,629924  	31,597250  	34,743074  	65,507532  	28,002300  	27,227664  	28,349969  	71,581398  	0,325005  	0,164682  	-5334,115051  	12448,940607  	-0,036431  	-0,050004  	0,330427  	0,167430  	-5,335810  	9234,393070  	103559,988640  	15,020106  	-0,047955  
187,556000  	23,862364  	31,551398  	25,957455  	357,439972  	80,207231  	72,598505  	0,008760  	0,008287  	0,003963  	0,004349  	0,004376  	-0,000000  	-0,000000  	26,840788  	25,440044  	26,548574  	26,363968  	29,786647  	28,244277  	29,680817  	29,248124  	32,627921  	31,595850  	34,736556  	65,503374  	28,014951  	27,215382  	28,361705  	71,581971  	0,289626  	0,146756  	-4717,691267  	12449,186973  	-0,036431  	-0,050005  	0,323792  	0,164068  	-5,232518  	9220,326919  	103486,687430  	15,009475  	-0,047956  
188,560000  	23,923062  	31,543763  	25,957455  	956,927186  	80,212292  	72,600812  	0,008759  	0,008303  	0,003962  	0,004335  	0,004352  	0,000000  	-0,000000  	26,839242  	25,446096  	26,542089  	26,361316  	29,785619  	28,243911  	29,683648  	29,249411  	32,627336  	31,599299  	34,740206  	65,505446  	28,021199  	27,208745  	28,367804  	71,576521  	0,278106  	0,140919  	-4489,766939  	22448,356139  	-0,022146  	-0,049999  	0,305135  	0,154614  	-4,932803  	9255,775630  	103461,154517  	15,005772  	-0,047950  
189,556000  	23,957281  	31,547272  	25,957639  	1256,670793  	80,214386  	72,600500  	0,008764  	0,008285  	0,003963  	0,004325  	0,004360  	0,000001  	-0,000000  	26,838680  	25,442388  	26,544306  	26,367025  	29,781583  	28,245061  	29,679036  	29,247836  	32,625647  	31,598874  	34,733693  	65,512101  	28,025161  	27,214312  	28,353021  	71,576222  	0,269657  	0,136637  	-4335,803423  	25498,467942  	-0,018513  	-0,049988  	0,311711  	0,157946  	-5,040706  	9216,078705  	103563,893424  	15,020673  	-0,047941  
190,556000  	23,934796  	31,560695  	25,957393  	1256,670793  	80,218635  	72,602744  	0,008756  	0,008296  	0,003961  	0,004345  	0,004318  	0,000001  	-0,000000  	26,839823  	25,444750  	26,536626  	26,361114  	29,788972  	28,248355  	29,681058  	29,254402  	32,630928  	31,597503  	34,741940  	65,511743  	28,023635  	27,214276  	28,356186  	71,580108  	0,286449  	0,145146  	-4627,609506  	25499,435879  	-0,018514  	-0,049990  	0,277921  	0,140825  	-4,495467  	9240,298123  	103392,118207  	14,995759  	-0,047943  
191,560000  	23,924475  	31,583877  	25,957946  	1256,670793  	80,222947  	72,606454  	0,008756  	0,008291  	0,003962  	0,004332  	0,004365  	0,000002  	-0,000000  	26,826174  	25,442372  	26,536212  	26,357392  	29,777574  	28,240684  	29,672470  	29,247419  	32,626165  	31,596495  	34,733784  	65,506562  	28,025289  	27,204321  	28,346637  	71,579928  	0,275841  	0,139771  	-4475,808883  	25494,944928  	-0,018511  	-0,049980  	0,315408  	0,159820  	-5,102248  	9228,349358  	103395,599326  	14,996264  	-0,047934  
192,556000  	23,933198  	31,605244  	25,959053  	1256,670793  	80,217198  	72,618798  	0,008761  	0,008295  	0,003963  	0,004330  	0,004322  	-0,000001  	-0,000000  	26,826892  	25,433573  	26,535788  	26,350775  	29,776564  	28,229480  	29,668336  	29,242732  	32,619808  	31,590498  	34,724103  	65,503023  	28,020110  	27,188752  	28,346757  	71,580116  	0,273678  	0,138675  	-4448,036731  	25506,990975  	-0,018519  	-0,050006  	0,281280  	0,142527  	-4,539361  	9237,653690  	103503,273938  	15,011881  	-0,047957  
193,556000  	23,942199  	31,612201  	25,960221  	956,927186  	80,214042  	72,614808  	0,008756  	0,008192  	0,003961  	0,004345  	0,004358  	-0,000000  	-0,000000  	26,828016  	25,428860  	26,531334  	26,351158  	29,776367  	28,224284  	29,671441  	29,235698  	32,613758  	31,582819  	34,726277  	65,499455  	28,016474  	27,175474  	28,349193  	71,571342  	0,286052  	0,144944  	-4647,908140  	22451,239958  	-0,022149  	-0,050006  	0,309634  	0,156894  	-4,997487  	9015,273655  	103403,867867  	14,997463  	-0,047957  
194,557000  	23,971934  	31,612940  	25,960774  	357,439972  	80,213480  	72,602401  	0,008751  	0,008339  	0,003963  	0,004355  	0,004370  	0,000001  	-0,000000  	26,829102  	25,435425  	26,528694  	26,352498  	29,774800  	28,228237  	29,676253  	29,236850  	32,617032  	31,589856  	34,730286  	65,501861  	28,016277  	27,159844  	28,352343  	71,572242  	0,294404  	0,149177  	-4765,533112  	12445,936744  	-0,036422  	-0,049992  	0,319166  	0,161724  	-5,159359  	9333,260083  	103293,856033  	14,981507  	-0,047944  
195,555000  	24,011653  	31,617281  	25,961327  	1256,670793  	80,219604  	72,610974  	0,008754  	0,008309  	0,003961  	0,004283  	0,004365  	0,000001  	-0,000000  	26,833160  	25,439876  	26,537378  	26,350292  	29,773143  	28,228942  	29,669094  	29,240449  	32,622469  	31,601423  	34,730354  	65,507654  	28,021553  	27,146442  	28,347363  	71,578082  	0,236247  	0,119708  	-3806,426034  	25500,875474  	-0,018515  	-0,049993  	0,315735  	0,159985  	-5,102256  	9268,591017  	103359,298246  	14,990999  	-0,047945  
196,559000  	24,029040  	31,622885  	25,961266  	1256,670793  	80,220228  	72,604552  	0,008757  	0,008289  	0,003962  	0,004313  	0,004304  	0,000000  	-0,000000  	26,833259  	25,439533  	26,540597  	26,352959  	29,774037  	28,227496  	29,666658  	29,238256  	32,621712  	31,599235  	34,732507  	65,509549  	28,025154  	27,128721  	28,347320  	71,576430  	0,259848  	0,131667  	-4180,190904  	25503,034600  	-0,018516  	-0,049998  	0,266696  	0,135137  	-4,313782  	9224,653659  	103410,710066  	14,998455  	-0,047950  
197,556000  	24,001270  	31,637724  	25,963970  	57,696365  	80,213667  	72,608823  	0,008756  	0,008277  	0,003961  	0,004369  	0,004392  	-0,000000  	-0,000000  	26,836239  	25,440534  	26,537788  	26,361861  	29,784399  	28,235080  	29,673442  	29,241538  	32,622162  	31,595239  	34,737677  	65,514277  	28,025895  	27,113091  	28,356597  	71,579721  	0,305239  	0,154667  	-4937,956601  	1716,392082  	-0,053766  	-0,050006  	0,336492  	0,170503  	-5,434981  	9198,296338  	103408,189256  	14,998090  	-0,047956  
198,558000  	23,970920  	31,657058  	25,965261  	1256,670793  	80,209980  	72,614621  	0,008756  	0,008306  	0,003962  	0,004334  	0,004328  	0,000001  	-0,000000  	26,838813  	25,437228  	26,536080  	26,361572  	29,785783  	28,239252  	29,667007  	29,244889  	32,620263  	31,597354  	34,733098  	65,514340  	28,027156  	27,095789  	28,354307  	71,577259  	0,277011  	0,140364  	-4510,474859  	25497,390086  	-0,018512  	-0,049986  	0,286268  	0,145054  	-4,618012  	9261,800949  	103389,138426  	14,995327  	-0,047939  
199,556000  	23,942260  	31,672668  	25,966552  	1256,670793  	80,212511  	72,606204  	0,008755  	0,008297  	0,003962  	0,004336  	0,004372  	-0,000000  	-0,000000  	26,832003  	25,431460  	26,532704  	26,350041  	29,773930  	28,231347  	29,662337  	29,239702  	32,614763  	31,594186  	34,723668  	65,504693  	28,026913  	27,072617  	28,351222  	71,564508  	0,278715  	0,141227  	-4564,359087  	25504,615276  	-0,018518  	-0,050002  	0,320522  	0,162411  	-5,178037  	9241,439941  	103381,554812  	14,994227  	-0,047953  
200,559000  	23,925980  	31,673345  	25,967966  	57,696365  	80,210824  	72,609883  	0,008757  	0,008280  	0,003963  	0,004281  	0,004339  	0,000000  	-0,000000  	26,828074  	25,431067  	26,536723  	26,347499  	29,772205  	28,223670  	29,669441  	29,237828  	32,616559  	31,587769  	34,726779  	65,505162  	28,025554  	27,062786  	28,354720  	71,571637  	0,234446  	0,118795  	-3847,813904  	1715,901956  	-0,053757  	-0,049997  	0,295040  	0,149499  	-4,763013  	9204,932891  	103417,651121  	14,999462  	-0,047949  
201,561000  	23,958203  	31,661830  	25,969933  	1256,670793  	80,207356  	72,619359  	0,008761  	0,008300  	0,003964  	0,004354  	0,004303  	0,000000  	-0,000000  	26,831106  	25,432784  	26,529332  	26,349340  	29,770403  	28,220802  	29,666118  	29,237349  	32,615834  	31,586933  	34,728960  	65,504253  	28,013856  	27,036822  	28,350015  	71,581801  	0,293458  	0,148697  	-4789,148536  	25502,053603  	-0,018516  	-0,049996  	0,266015  	0,134792  	-4,287137  	9247,912366  	103509,226440  	15,012744  	-0,047948  
202,557000  	23,963978  	31,648099  	25,970671  	657,183579  	80,202794  	72,611441  	0,008742  	0,008289  	0,003963  	0,004341  	0,004366  	-0,000001  	-0,000000  	26,838598  	25,434974  	26,528056  	26,351713  	29,772272  	28,230933  	29,665598  	29,234808  	32,614730  	31,596006  	34,727852  	65,503329  	28,013459  	27,025872  	28,348349  	71,576527  	0,282992  	0,143394  	-4606,648918  	18416,418309  	-0,027553  	-0,050013  	0,316028  	0,160134  	-5,095408  	9223,834437  	103093,469266  	14,952444  	-0,047963  
203,556000  	23,916795  	31,640341  	25,971408  	657,183579  	80,207481  	72,606267  	0,008760  	0,008299  	0,003962  	0,004379  	0,004434  	-0,000000  	-0,000000  	26,832934  	25,433784  	26,524247  	26,357569  	29,774996  	28,230804  	29,666976  	29,237818  	32,620360  	31,592637  	34,721756  	65,510034  	28,015375  	27,012954  	28,352646  	71,566065  	0,313432  	0,158818  	-5128,351254  	18412,196452  	-0,027546  	-0,050001  	0,370372  	0,187670  	-5,979347  	9247,481531  	103486,348498  	15,009426  	-0,047952  
204,559000  	23,893818  	31,643604  	25,972638  	1256,670793  	80,216792  	72,611379  	0,008762  	0,008289  	0,003961  	0,004288  	0,004303  	-0,000000  	-0,000000  	26,829877  	25,441532  	26,537387  	26,353498  	29,784164  	28,233418  	29,678515  	29,245043  	32,621479  	31,588623  	34,731163  	65,501367  	28,007176  	26,996460  	28,355230  	71,570656  	0,239946  	0,121582  	-3939,330076  	25505,232504  	-0,018518  	-0,050003  	0,266496  	0,135035  	-4,304734  	9225,192026  	103522,353013  	15,014648  	-0,047954  
205,555000  	23,912433  	31,648038  	25,973621  	956,927186  	80,211355  	72,608293  	0,008751  	0,008294  	0,003965  	0,004316  	0,004397  	-0,000000  	-0,000000  	26,833373  	25,438725  	26,538220  	26,359280  	29,791002  	28,238344  	29,683930  	29,250809  	32,625605  	31,596164  	34,730738  	65,516140  	28,002250  	26,986583  	28,360873  	71,576874  	0,262704  	0,133114  	-4305,054399  	22450,259768  	-0,022149  	-0,050005  	0,340768  	0,172670  	-5,502758  	9235,573090  	103297,252419  	14,982000  	-0,047956  
206,556000  	23,949356  	31,635045  	25,975589  	357,439972  	80,199295  	72,617208  	0,008758  	0,008293  	0,003962  	0,004368  	0,004330  	0,000000  	-0,000000  	26,844447  	25,435482  	26,546156  	26,370663  	29,788883  	28,246497  	29,691466  	29,252402  	32,637159  	31,598377  	34,737892  	65,521881  	28,010554  	26,987086  	28,371786  	71,589053  	0,304450  	0,154267  	-4956,974939  	12446,591791  	-0,036426  	-0,049998  	0,287373  	0,145614  	-4,627730  	9233,519374  	103449,595507  	15,004095  	-0,047950  
207,558000  	23,941523  	31,622392  	25,977064  	1256,670793  	80,198951  	72,602370  	0,008765  	0,008291  	0,003962  	0,004325  	0,004404  	0,000000  	-0,000000  	26,837251  	25,436226  	26,541550  	26,364186  	29,780536  	28,231657  	29,676307  	29,247385  	32,623585  	31,595655  	34,729151  	65,503150  	27,986154  	26,963850  	28,349656  	71,572330  	0,270182  	0,136903  	-4396,268471  	25502,814434  	-0,018517  	-0,049998  	0,346193  	0,175418  	-5,585586  	9230,173861  	103590,118325  	15,024476  	-0,047950  
208,561000  	23,874682  	31,618697  	25,978416  	57,696365  	80,197764  	72,604615  	0,008757  	0,008287  	0,003961  	0,004341  	0,004334  	0,000002  	-0,000000  	26,830379  	25,431779  	26,534328  	26,368020  	29,774438  	28,228989  	29,665485  	29,245254  	32,612887  	31,587587  	34,728422  	65,500930  	27,976587  	26,957368  	28,343625  	71,578276  	0,282524  	0,143157  	-4634,910092  	1714,807109  	-0,053740  	-0,049981  	0,290711  	0,147306  	-4,688319  	9220,687009  	103429,986851  	15,001251  	-0,047935  
209,558000  	23,823998  	31,629504  	25,979430  	956,927186  	80,196045  	72,601996  	0,008753  	0,008300  	0,003962  	0,004360  	0,004351  	0,000000  	-0,000000  	26,837941  	25,444655  	26,543645  	26,368585  	29,789007  	28,241830  	29,689332  	29,251101  	32,631997  	31,607862  	34,742756  	65,513637  	28,003203  	26,974111  	28,358506  	71,582017  	0,298300  	0,151151  	-4932,584226  	22448,106754  	-0,022147  	-0,050000  	0,304309  	0,154195  	-4,908180  	9248,828509  	103340,572226  	14,988283  	-0,047951  
210,557000  	23,830817  	31,624824  	25,981643  	-242,047242  	80,201294  	72,598131  	0,008759  	0,008289  	0,003964  	0,004332  	0,004324  	0,000000  	-0,000000  	26,843147  	25,456286  	26,552541  	26,363772  	29,791264  	28,247250  	29,688571  	29,265268  	32,635787  	31,607034  	34,753059  	65,523735  	27,995245  	26,981173  	28,357392  	71,580934  	0,275744  	0,139721  	-4552,890185  	-27093,385762  	-0,102546  	-0,049996  	0,283170  	0,143484  	-4,572716  	9224,743505  	103466,245565  	15,006510  	-0,047948  
211,558000  	23,879566  	31,602288  	25,983488  	-242,047242  	80,204762  	72,591959  	0,008753  	0,008300  	0,003962  	0,004313  	0,004363  	0,000001  	-0,000000  	26,834600  	25,439723  	26,533053  	26,363419  	29,776418  	28,235973  	29,675785  	29,243937  	32,621677  	31,596092  	34,733406  	65,506945  	27,973433  	26,993434  	28,346874  	71,575225  	0,260081  	0,131785  	-4254,984719  	-27088,153853  	-0,102526  	-0,049985  	0,313633  	0,158920  	-5,071050  	9249,261466  	103339,294168  	14,988097  	-0,047939  
212,558000  	23,929205  	31,578028  	25,984840  	956,927186  	80,206012  	72,590775  	0,008755  	0,008307  	0,003964  	0,004322  	0,004353  	0,000001  	-0,000000  	26,846649  	25,435851  	26,544241  	26,366592  	29,781933  	28,241899  	29,684826  	29,255519  	32,618969  	31,596903  	34,735920  	65,503118  	27,980306  	26,990864  	28,351260  	71,582449  	0,267543  	0,135566  	-4335,164318  	22442,874713  	-0,022142  	-0,049987  	0,305587  	0,154843  	-4,942541  	9263,936729  	103374,260702  	14,993169  	-0,047941  
213,558000  	23,988030  	31,568823  	25,986315  	956,927186  	80,208043  	72,604739  	0,008760  	0,008283  	0,003961  	0,004327  	0,004375  	0,000000  	-0,000000  	26,840660  	25,451600  	26,551724  	26,376619  	29,793195  	28,239753  	29,678879  	29,259785  	32,636000  	31,599178  	34,737519  	65,517160  	27,976146  	27,007836  	28,356677  	71,580363  	0,271503  	0,137573  	-4360,189622  	22445,692375  	-0,022144  	-0,049995  	0,323354  	0,163846  	-5,221722  	9211,737815  	103484,449064  	15,009150  	-0,047947  
214,558000  	24,051618  	31,580891  	25,987668  	357,439972  	80,208855  	72,601747  	0,008750  	0,008301  	0,003962  	0,004365  	0,004286  	-0,000000  	-0,000000  	26,841614  	25,444551  	26,541605  	26,371290  	29,792071  	28,239381  	29,678251  	29,253662  	32,630886  	31,608033  	34,738015  	65,506928  	27,980583  	27,003178  	28,358427  	71,581135  	0,302202  	0,153128  	-4820,203669  	12447,247296  	-0,036429  	-0,050003  	0,253098  	0,128247  	-4,089230  	9251,305985  	103265,703454  	14,977424  	-0,047954  
215,556000  	24,070602  	31,602411  	25,988959  	357,439972  	80,211792  	72,603181  	0,008754  	0,008287  	0,003963  	0,004351  	0,004373  	-0,000000  	-0,000000  	26,837138  	25,445870  	26,538473  	26,360417  	29,785385  	28,242049  	29,677912  	29,255702  	32,625151  	31,604420  	34,740351  	65,502497  	27,970412  	26,991561  	28,360914  	71,582159  	0,290700  	0,147300  	-4638,295890  	12446,788267  	-0,036428  	-0,050002  	0,321437  	0,162875  	-5,194388  	9220,556131  	103359,686606  	14,991055  	-0,047953  
216,557000  	24,024094  	31,629812  	25,990434  	-242,047242  	80,213917  	72,616210  	0,008751  	0,008275  	0,003964  	0,004333  	0,004366  	-0,000000  	-0,000000  	26,850113  	25,453550  	26,547804  	26,371464  	29,798215  	28,248991  	29,689639  	29,264789  	32,637177  	31,617283  	34,743215  	65,517778  	27,987647  	26,998314  	28,370749  	71,592054  	0,276515  	0,140112  	-4455,275193  	-27097,164622  	-0,102557  	-0,050003  	0,316161  	0,160201  	-5,101822  	9195,640586  	103285,474515  	14,980292  	-0,047954  
217,557000  	23,933444  	31,671005  	25,992340  	1256,670793  	80,214479  	72,611846  	0,008753  	0,008297  	0,003963  	0,004309  	0,004359  	-0,000001  	-0,000000  	26,838839  	25,442861  	26,550282  	26,367695  	29,790407  	28,247427  	29,684863  	29,258089  	32,633797  	31,613853  	34,746002  	65,516029  	27,984278  	26,993910  	28,365781  	71,591032  	0,256616  	0,130029  	-4206,354109  	25506,816962  	-0,018520  	-0,050008  	0,310238  	0,157200  	-5,009484  	9243,122248  	103345,331403  	14,988973  	-0,047959  
218,557000  	23,929942  	31,689539  	25,993385  	1256,670793  	80,213980  	72,611410  	0,008764  	0,008294  	0,003964  	0,004347  	0,004313  	0,000000  	-0,000000  	26,833763  	25,435565  	26,540379  	26,353883  	29,780314  	28,238458  	29,676126  	29,246373  	32,629739  	31,604657  	34,736838  	65,508911  	27,980356  	26,979302  	28,358107  	71,581057  	0,287847  	0,145854  	-4731,709902  	25502,489568  	-0,018517  	-0,049999  	0,274184  	0,138931  	-4,427263  	9236,568467  	103573,722466  	15,022098  	-0,047950  
219,557000  	23,939342  	31,683166  	25,994122  	1256,670793  	80,209043  	72,612594  	0,008756  	0,008286  	0,003961  	0,004332  	0,004348  	-0,000000  	-0,000000  	26,842025  	25,445193  	26,539839  	26,361968  	29,787326  	28,239700  	29,678799  	29,250246  	32,629588  	31,608384  	34,730024  	65,515405  	27,982524  	26,983433  	28,360413  	71,578547  	0,275396  	0,139545  	-4517,845142  	25504,910336  	-0,018518  	-0,050004  	0,301547  	0,152796  	-4,865190  	9218,868165  	103401,332934  	14,997095  	-0,047955  
220,558000  	23,906105  	31,661245  	25,994430  	57,696365  	80,204044  	72,613280  	0,008749  	0,008304  	0,003962  	0,004341  	0,004377  	0,000000  	-0,000000  	26,848485  	25,449023  	26,545103  	26,375489  	29,788826  	28,249609  	29,684617  	29,256066  	32,631872  	31,610322  	34,733614  	65,515877  	27,991270  	27,010458  	28,363325  	71,586162  	0,282735  	0,143264  	-4645,020413  	1714,481423  	-0,053757  	-0,050000  	0,325134  	0,164748  	-5,241807  	9256,722900  	103249,590039  	14,975087  	-0,047951  
221,556000  	23,855575  	31,648130  	25,995843  	57,696365  	80,202919  	72,624252  	0,008757  	0,008277  	0,003961  	0,004324  	0,004329  	0,000001  	-0,000000  	26,844112  	25,445844  	26,545966  	26,370132  	29,780850  	28,245932  	29,684022  	29,251891  	32,633288  	31,600498  	34,731291  	65,509585  	27,985804  	27,022135  	28,353842  	71,583350  	0,269147  	0,136379  	-4443,138437  	1713,862204  	-0,053740  	-0,049982  	0,287199  	0,145526  	-4,622854  	9199,620678  	103428,016806  	15,000966  	-0,047936  
222,558000  	23,770920  	31,640310  	25,995290  	1256,670793  	80,204794  	72,610038  	0,008752  	0,008293  	0,003963  	0,004341  	0,004335  	0,000000  	-0,000000  	26,844811  	25,442449  	26,545788  	26,365089  	29,778138  	28,238462  	29,679538  	29,252265  	32,630803  	31,598891  	34,729026  	65,506289  	27,981537  	27,026814  	28,350238  	71,573935  	0,283291  	0,143546  	-4722,760749  	25500,455715  	-0,018515  	-0,049995  	0,291738  	0,147826  	-4,705878  	9233,612050  	103304,341756  	14,983028  	-0,047947  
223,560000  	23,697109  	31,625347  	25,996028  	1256,670793  	80,201607  	72,600656  	0,008757  	0,008295  	0,003963  	0,004338  	0,004374  	-0,000002  	-0,000000  	26,850497  	25,443928  	26,547668  	26,368222  	29,785394  	28,243810  	29,678053  	29,256841  	32,631628  	31,606868  	34,736102  	65,504838  	27,990241  	27,047221  	28,363069  	71,580201  	0,280585  	0,142174  	-4712,642786  	25512,767117  	-0,018524  	-0,050022  	0,322673  	0,163501  	-5,209104  	9237,865216  	103412,517706  	14,998718  	-0,047970  
224,564000  	23,711546  	31,599794  	25,996089  	1256,670793  	80,190796  	72,603461  	0,008765  	0,008288  	0,003964  	0,004330  	0,004307  	0,000000  	-0,000000  	26,845538  	25,448572  	26,549667  	26,372673  	29,799971  	28,247761  	29,685839  	29,254443  	32,639955  	31,611426  	34,740133  	65,506136  	27,994077  	27,056696  	28,365340  	71,590951  	0,273676  	0,138673  	-4573,412218  	25501,610145  	-0,018516  	-0,049997  	0,269705  	0,136662  	-4,346217  	9222,020545  	103584,935483  	15,023725  	-0,047949  
225,557000  	23,770306  	31,550936  	25,995567  	-242,047242  	80,187266  	72,595482  	0,008757  	0,008294  	0,003962  	0,004331  	0,004361  	-0,000001  	-0,000000  	26,837630  	25,445136  	26,546633  	26,377075  	29,800776  	28,243699  	29,690574  	29,251500  	32,640428  	31,610964  	34,734275  	65,507384  	27,994227  	27,047564  	28,352025  	71,586183  	0,275013  	0,139351  	-4533,041740  	-27100,564398  	-0,102568  	-0,050010  	0,312192  	0,158190  	-5,033819  	9235,953696  	103423,582439  	15,000322  	-0,047960  
226,559000  	23,820189  	31,511222  	25,995690  	-242,047242  	80,186016  	72,585507  	0,008754  	0,008297  	0,003963  	0,004317  	0,004313  	0,000001  	-0,000000  	26,841742  	25,442245  	26,540880  	26,373311  	29,786003  	28,241772  	29,686224  	29,250319  	32,629871  	31,604505  	34,728530  	65,505481  	27,992788  	27,042219  	28,350733  	71,577621  	0,263305  	0,133419  	-4290,077597  	-27091,810656  	-0,102535  	-0,049992  	0,274501  	0,139092  	-4,431177  	9241,921005  	103354,475519  	14,990299  	-0,047945  
227,557000  	23,878245  	31,495244  	25,994675  	-242,047242  	80,187360  	72,586286  	0,008760  	0,008309  	0,003962  	0,004360  	0,004346  	-0,000000  	-0,000000  	26,855806  	25,443536  	26,542290  	26,375348  	29,794564  	28,241809  	29,692011  	29,251046  	32,631484  	31,606431  	34,730238  	65,504126  	27,998453  	27,034206  	28,358715  	71,577709  	0,297906  	0,150951  	-4807,094859  	-27095,869229  	-0,102551  	-0,050001  	0,299911  	0,151967  	-4,841722  	9268,932713  	103476,533578  	15,008002  	-0,047952  
228,559000  	23,917072  	31,499554  	25,994614  	-242,047242  	80,190546  	72,590899  	0,008751  	0,008293  	0,003965  	0,004345  	0,004363  	-0,000000  	-0,000000  	26,844435  	25,444599  	26,545737  	26,373709  	29,799102  	28,244305  	29,680945  	29,257682  	32,634417  	31,607716  	34,725356  	65,505040  	27,997790  	27,018513  	28,358328  	71,582865  	0,286141  	0,144990  	-4596,321444  	-27095,613982  	-0,102550  	-0,050000  	0,313757  	0,158983  	-5,064298  	9233,904225  	103300,380483  	14,982453  	-0,047951  
229,556000  	23,922324  	31,523844  	25,993600  	57,696365  	80,193702  	72,584852  	0,008755  	0,008300  	0,003964  	0,004305  	0,004366  	-0,000000  	-0,000000  	26,839281  	25,451299  	26,553770  	26,373920  	29,792856  	28,246433  	29,684697  	29,256927  	32,635515  	31,604598  	34,739420  	65,515474  	27,996074  	27,004685  	28,357265  	71,585643  	0,253908  	0,128657  	-4088,787745  	1714,546660  	-0,053758  	-0,050000  	0,316207  	0,160225  	-5,110023  	9248,082153  	103384,372188  	14,994635  	-0,047952  
230,557000  	23,948373  	31,552968  	25,992432  	1256,670793  	80,201451  	72,584915  	0,008751  	0,008289  	0,003963  	0,004339  	0,004387  	-0,000001  	-0,000000  	26,833996  	25,443609  	26,542102  	26,360038  	29,784603  	28,238948  	29,680050  	29,247200  	32,628787  	31,603328  	34,735940  	65,514966  	27,989002  	26,992339  	28,353285  	71,583131  	0,281220  	0,142496  	-4530,437388  	25506,756081  	-0,018520  	-0,050008  	0,332397  	0,168428  	-5,377081  	9224,113878  	103286,293602  	14,980410  	-0,047958  
231,556000  	23,975559  	31,579290  	25,991971  	357,439972  	80,208762  	72,585663  	0,008755  	0,008277  	0,003963  	0,004287  	0,004354  	0,000001  	-0,000000  	26,841164  	25,442652  	26,543386  	26,362401  	29,779133  	28,242133  	29,677224  	29,237647  	32,624348  	31,606834  	34,734573  	65,507739  	27,990414  	26,980851  	28,354697  	71,578973  	0,239170  	0,121189  	-3852,573008  	12444,536298  	-0,036421  	-0,049992  	0,306350  	0,155230  	-4,959991  	9199,934784  	103373,681693  	14,993085  	-0,047945  
232,559000  	23,965667  	31,593452  	25,990741  	956,927186  	80,208762  	72,583294  	0,008760  	0,008283  	0,003961  	0,004353  	0,004286  	-0,000000  	-0,000000  	26,839124  	25,438507  	26,545454  	26,358001  	29,772304  	28,231560  	29,683567  	29,242393  	32,622356  	31,607627  	34,726140  	65,509616  	27,983251  	26,967622  	28,356366  	71,577948  	0,292725  	0,148326  	-4730,156524  	22447,905275  	-0,022147  	-0,050000  	0,253064  	0,128230  	-4,098540  	9211,643017  	103479,626337  	15,008451  	-0,047952  
233,558000  	23,971442  	31,614695  	25,988836  	-242,047242  	80,201576  	72,594515  	0,008760  	0,008321  	0,003963  	0,004316  	0,004407  	-0,000001  	-0,000000  	26,837901  	25,445582  	26,546680  	26,357237  	29,784989  	28,223761  	29,676532  	29,244232  	32,620936  	31,601164  	34,730172  	65,508040  	27,979415  	26,954959  	28,356431  	71,586399  	0,262999  	0,133264  	-4258,426785  	-27099,510660  	-0,102567  	-0,050008  	0,348486  	0,176580  	-5,630338  	9294,644843  	103496,099868  	15,010840  	-0,047959  
234,560000  	23,967941  	31,627934  	25,987360  	357,439972  	80,198576  	72,601934  	0,008749  	0,008299  	0,003961  	0,004356  	0,004370  	-0,000000  	-0,000000  	26,828018  	25,431260  	26,537073  	26,350724  	29,771663  	28,233760  	29,669101  	29,234208  	32,608746  	31,589402  	34,715925  	65,499882  	27,968611  	26,950996  	28,347838  	71,586628  	0,295315  	0,149638  	-4792,159071  	12446,836975  	-0,036428  	-0,050002  	0,319606  	0,161947  	-5,156669  	9246,926186  	103250,811608  	14,975264  	-0,047953  
235,560000  	23,972272  	31,634307  	25,985516  	357,439972  	80,199357  	72,608324  	0,008761  	0,008276  	0,003962  	0,004345  	0,004324  	-0,000001  	-0,000000  	26,838069  	25,439941  	26,542104  	26,361054  	29,783108  	28,234599  	29,677747  	29,238077  	32,624511  	31,603578  	34,726048  	65,515406  	27,987079  	26,941854  	28,362851  	71,594526  	0,286552  	0,145198  	-4651,200088  	12450,288572  	-0,036437  	-0,050017  	0,282812  	0,143303  	-4,559661  	9196,172585  	103506,995135  	15,012420  	-0,047966  
236,558000  	23,965882  	31,639356  	25,984656  	-242,047242  	80,202607  	72,610070  	0,008759  	0,008290  	0,003960  	0,004343  	0,004343  	-0,000000  	-0,000000  	26,832474  	25,435888  	26,533518  	26,351361  	29,785350  	28,237842  	29,671285  	29,251127  	32,626747  	31,605155  	34,716185  	65,515630  	27,977373  	26,942527  	28,362198  	71,579927  	0,284361  	0,144088  	-4622,519682  	-27095,446035  	-0,102553  	-0,050000  	0,298094  	0,151047  	-4,806998  	9226,568008  	103464,120176  	15,006202  	-0,047952  
237,557000  	23,950185  	31,643574  	25,983119  	956,927186  	80,201763  	72,600126  	0,008757  	0,008297  	0,003965  	0,004348  	0,004332  	-0,000000  	-0,000000  	26,838486  	25,436669  	26,545734  	26,364593  	29,781078  	28,239348  	29,662244  	29,248994  	32,619116  	31,595802  	34,728135  	65,516420  	27,973115  	26,941874  	28,358107  	71,591010  	0,288946  	0,146411  	-4709,244078  	22449,273304  	-0,022148  	-0,050003  	0,289423  	0,146653  	-4,672751  	9242,706977  	103413,979352  	14,998930  	-0,047954  
238,561000  	23,956513  	31,648746  	25,980476  	357,439972  	80,200451  	72,602744  	0,008753  	0,008295  	0,003962  	0,004304  	0,004375  	0,000000  	-0,000000  	26,832638  	25,442121  	26,550252  	26,361906  	29,792398  	28,224383  	29,672487  	29,247730  	32,619835  	31,601821  	34,731969  	65,515053  	27,964626  	26,921092  	28,359315  	71,590002  	0,252860  	0,128126  	-4120,502044  	12446,211390  	-0,036425  	-0,049997  	0,323116  	0,163725  	-5,214037  	9237,338876  	103338,404471  	14,987968  	-0,047949  
239,563000  	23,949970  	31,645236  	25,978263  	1256,670793  	80,198451  	72,606423  	0,008758  	0,008277  	0,003965  	0,004325  	0,004342  	-0,000000  	-0,000000  	26,822491  	25,435115  	26,532596  	26,353314  	29,779590  	28,228323  	29,670332  	29,237039  	32,614508  	31,596462  	34,720136  	65,506841  	27,960308  	26,907901  	28,356709  	71,582847  	0,269837  	0,136728  	-4398,880305  	25505,029828  	-0,018518  	-0,050003  	0,297334  	0,150661  	-4,794418  	9198,930918  	103452,031584  	15,004449  	-0,047954  
240,559000  	23,924536  	31,642527  	25,976849  	1256,670793  	80,192327  	72,593206  	0,008746  	0,008302  	0,003963  	0,004321  	0,004361  	-0,000000  	-0,000000  	26,823604  	25,433388  	26,528962  	26,359152  	29,773910  	28,230317  	29,668648  	29,237420  	32,613276  	31,600767  	34,716265  	65,501291  	27,949309  	26,900502  	28,350203  	71,583963  	0,266368  	0,134971  	-4355,159563  	25504,967288  	-0,018518  	-0,050003  	0,312027  	0,158106  	-5,036020  	9252,868026  	103180,214797  	14,965025  	-0,047954  
241,559000  	23,881439  	31,646221  	25,973806  	-242,047242  	80,191359  	72,597788  	0,008761  	0,008300  	0,003962  	0,004329  	0,004364  	0,000000  	-0,000000  	26,829009  	25,427153  	26,536502  	26,361579  	29,779168  	28,229268  	29,665570  	29,232141  	32,623907  	31,594188  	34,722587  	65,504136  	27,940178  	26,895054  	28,349518  	71,581613  	0,273112  	0,138388  	-4492,517328  	-27092,781442  	-0,102547  	-0,049995  	0,314270  	0,159243  	-5,068532  	9248,994759  	103503,393977  	15,011898  	-0,047947  
242,556000  	23,868599  	31,643142  	25,972576  	357,439972  	80,198170  	72,594920  	0,008762  	0,008287  	0,003963  	0,004297  	0,004322  	-0,000000  	-0,000000  	26,829422  	25,434759  	26,540023  	26,359075  	29,778710  	28,232439  	29,669398  	29,239016  	32,624605  	31,594282  	34,720738  	65,502753  	27,944886  	26,881476  	28,350251  	71,576472  	0,247583  	0,125452  	-4077,696394  	12447,936969  	-0,036429  	-0,050003  	0,281248  	0,142510  	-4,541725  	9220,070823  	103522,720189  	15,014701  	-0,047954  
243,556000  	23,882883  	31,631782  	25,971562  	1256,670793  	80,200013  	72,598723  	0,008756  	0,008300  	0,003963  	0,004330  	0,004367  	-0,000001  	-0,000000  	26,834860  	25,433361  	26,537772  	26,358786  	29,778863  	28,226381  	29,676448  	29,233012  	32,622137  	31,595892  	34,716313  	65,500899  	27,940553  	26,868785  	28,344099  	71,576580  	0,273677  	0,138674  	-4492,603895  	25506,895907  	-0,018519  	-0,050007  	0,316712  	0,160480  	-5,113101  	9249,334333  	103391,871069  	14,995723  	-0,047957  
244,559000  	23,921219  	31,614603  	25,969165  	1256,670793  	80,197701  	72,600968  	0,008757  	0,008300  	0,003962  	0,004334  	0,004347  	-0,000000  	-0,000000  	26,843921  	25,436827  	26,545492  	26,360167  	29,781416  	28,232855  	29,681076  	29,237845  	32,622778  	31,598074  	34,718093  	65,511031  	27,941313  	26,862326  	28,354572  	71,585627  	0,277544  	0,140634  	-4523,431103  	25506,560796  	-0,018519  	-0,050006  	0,300861  	0,152448  	-4,854283  	9248,452147  	103414,445385  	14,998997  	-0,047957  
245,556000  	23,954056  	31,596161  	25,968028  	57,696365  	80,193827  	72,597102  	0,008753  	0,008281  	0,003963  	0,004353  	0,004359  	-0,000000  	-0,000000  	26,835080  	25,432429  	26,544197  	26,357435  	29,778720  	28,235063  	29,676282  	29,248022  	32,617616  	31,593924  	34,718862  	65,505897  	27,943412  	26,848870  	28,354241  	71,573839  	0,292706  	0,148316  	-4738,726444  	1715,996488  	-0,053760  	-0,050000  	0,310231  	0,157196  	-5,005466  	9206,896761  	103337,627750  	14,987856  	-0,047952  
246,558000  	23,977279  	31,597085  	25,967536  	657,183579  	80,195139  	72,602214  	0,008752  	0,008292  	0,003963  	0,004314  	0,004345  	-0,000000  	-0,000000  	26,826564  	25,424972  	26,538260  	26,356491  	29,775868  	28,229705  	29,665584  	29,247191  	32,615065  	31,590161  	34,721483  	65,497480  	27,944283  	26,834306  	28,347902  	71,560471  	0,261205  	0,132354  	-4216,396800  	18412,904229  	-0,027547  	-0,050002  	0,299425  	0,151721  	-4,828706  	9230,292005  	103320,998876  	14,985444  	-0,047953  
247,557000  	23,991655  	31,609277  	25,966890  	-242,047242  	80,197639  	72,592551  	0,008762  	0,008255  	0,003963  	0,004376  	0,004350  	-0,000000  	-0,000000  	26,829474  	25,429020  	26,538498  	26,357264  	29,780799  	28,227635  	29,667256  	29,246464  	32,617244  	31,594607  	34,718352  	65,503408  	27,944454  	26,822752  	28,347051  	71,574852  	0,310938  	0,157554  	-5017,750289  	-27097,051397  	-0,102566  	-0,050004  	0,303322  	0,153695  	-4,899364  	9152,073930  	103519,599186  	15,014248  	-0,047955  
248,564000  	23,982194  	31,623870  	25,965354  	956,927186  	80,200013  	72,601466  	0,008754  	0,008303  	0,003961  	0,004326  	0,004370  	-0,000000  	-0,000000  	26,839140  	25,436706  	26,539764  	26,358861  	29,785037  	28,235301  	29,676344  	29,244749  	32,623339  	31,607090  	34,719109  	65,511247  	27,946320  	26,813125  	28,351676  	71,587302  	0,270924  	0,137279  	-4385,845992  	22449,126511  	-0,022147  	-0,050001  	0,319437  	0,161861  	-5,155232  	9254,901226  	103359,382979  	14,991011  	-0,047952  
249,555000  	23,925734  	31,639787  	25,963387  	1256,670793  	80,201763  	72,606516  	0,008760  	0,008289  	0,003963  	0,004337  	0,004332  	0,000000  	-0,000000  	26,839901  	25,440567  	26,535995  	26,358161  	29,785670  	28,239289  	29,680566  	29,240043  	32,628230  	31,607254  	34,719294  	65,511204  	27,945392  	26,805998  	28,357389  	71,581145  	0,279645  	0,141698  	-4569,902931  	25502,605478  	-0,018516  	-0,049997  	0,288905  	0,146390  	-4,660481  	9225,429020  	103484,187803  	15,009112  	-0,047949  
250,559000  	23,872961  	31,649331  	25,961850  	1256,670793  	80,198326  	72,595918  	0,008759  	0,008291  	0,003960  	0,004305  	0,004366  	-0,000000  	-0,000000  	26,832876  	25,439675  	26,537162  	26,356342  	29,786448  	28,234610  	29,681110  	29,245325  	32,627522  	31,600952  	34,712805  	65,508429  	27,943021  	26,800400  	28,359047  	71,582633  	0,253499  	0,128450  	-4176,123450  	25504,168031  	-0,018517  	-0,050000  	0,315861  	0,160049  	-5,100115  	9228,779485  	103458,323018  	15,005361  	-0,047952  
251,556000  	23,847527  	31,647483  	25,960559  	357,439972  	80,194639  	72,598723  	0,008756  	0,008288  	0,003964  	0,004367  	0,004284  	0,000001  	-0,000000  	26,837291  	25,435602  	26,544804  	26,357765  	29,785993  	28,232618  	29,678735  	29,247074  	32,625171  	31,604871  	34,718043  	65,507245  	27,942578  	26,793325  	28,359515  	71,590528  	0,304169  	0,154125  	-5026,054799  	12445,641191  	-0,036421  	-0,049990  	0,250924  	0,127145  	-4,048127  	9222,558911  	103410,145179  	14,998374  	-0,047943  
252,556000  	23,858033  	31,633013  	25,958776  	-242,047242  	80,195577  	72,595357  	0,008760  	0,008308  	0,003959  	0,004299  	0,004346  	0,000000  	-0,000000  	26,843064  	25,437988  	26,548925  	26,363214  	29,789440  	28,232569  	29,681038  	29,239937  	32,628462  	31,605304  	34,726638  	65,513448  	27,943648  	26,788132  	28,359407  	71,592213  	0,248851  	0,126095  	-4098,823880  	-27094,391711  	-0,102559  	-0,049999  	0,300296  	0,152162  	-4,847399  	9265,915455  	103476,526517  	15,008001  	-0,047951  
253,557000  	23,946868  	31,606998  	25,957670  	1256,670793  	80,193046  	72,589497  	0,008762  	0,008275  	0,003962  	0,004308  	0,004360  	0,000002  	-0,000000  	26,846922  	25,445153  	26,558039  	26,375408  	29,792731  	28,242327  	29,686723  	29,248339  	32,642627  	31,613514  	34,732307  	65,523396  	27,952417  	26,792407  	28,363298  	71,592652  	0,256362  	0,129900  	-4160,127085  	25495,200412  	-0,018511  	-0,049980  	0,310989  	0,157581  	-5,022197  	9194,752033  	103524,428974  	15,014949  	-0,047935  
254,555000  	23,999703  	31,587972  	25,956871  	1256,670793  	80,194108  	72,594484  	0,008753  	0,008290  	0,003962  	0,004342  	0,004354  	0,000000  	-0,000000  	26,845227  	25,446942  	26,550539  	26,367464  	29,788064  	28,241849  	29,678750  	29,245214  	32,634785  	31,603849  	34,727380  	65,509748  	27,932387  	26,785895  	28,363583  	71,579180  	0,284077  	0,143944  	-4566,613171  	25501,757487  	-0,018516  	-0,049995  	0,306645  	0,155379  	-4,949491  	9226,897678  	103336,180226  	14,987646  	-0,047947  
255,561000  	23,997860  	31,588526  	25,955487  	1256,670793  	80,201419  	72,595014  	0,008760  	0,008282  	0,003964  	0,004323  	0,004352  	-0,000001  	-0,000000  	26,837172  	25,437567  	26,549825  	26,364769  	29,786581  	28,238211  	29,671571  	29,251936  	32,627379  	31,612362  	34,727474  	65,506901  	27,930366  	26,779764  	28,352237  	71,584554  	0,268108  	0,135852  	-4311,280110  	25509,388718  	-0,018521  	-0,050011  	0,305410  	0,154754  	-4,933962  	9210,748805  	103489,158813  	15,009833  	-0,047961  
256,558000  	23,989013  	31,611247  	25,954381  	1256,670793  	80,200420  	72,597570  	0,008756  	0,008291  	0,003962  	0,004310  	0,004350  	-0,000000  	-0,000000  	26,843408  	25,438979  	26,541270  	26,362256  	29,789624  	28,238441  	29,681244  	29,252702  	32,628033  	31,609276  	34,728081  	65,509682  	27,934362  	26,779195  	28,353693  	71,582534  	0,257872  	0,130666  	-4163,923756  	25506,535273  	-0,018519  	-0,050005  	0,303226  	0,153647  	-4,896391  	9230,128585  	103402,872253  	14,997319  	-0,047956  
257,561000  	23,958479  	31,641172  	25,954658  	-242,047242  	80,200045  	72,597352  	0,008760  	0,008308  	0,003961  	0,004359  	0,004382  	0,000000  	-0,000000  	26,845975  	25,434135  	26,540505  	26,361464  	29,787595  	28,232589  	29,673801  	29,255110  	32,634555  	31,603371  	34,712816  	65,505904  	27,925376  	26,762214  	28,357430  	71,583325  	0,297211  	0,150599  	-4837,214707  	-27093,149894  	-0,102556  	-0,049997  	0,328561  	0,166484  	-5,305376  	9266,125567  	103483,707649  	15,009043  	-0,047949  
258,556000  	23,934028  	31,650408  	25,953182  	-242,047242  	80,204731  	72,602464  	0,008753  	0,008289  	0,003963  	0,004315  	0,004373  	0,000001  	-0,000000  	26,835681  	25,434709  	26,544396  	26,367199  	29,783759  	28,234523  	29,669560  	29,238278  	32,622284  	31,601412  	34,719458  	65,504043  	27,925932  	26,759620  	28,350518  	71,571638  	0,261855  	0,132684  	-4280,474372  	-27090,008297  	-0,102545  	-0,049990  	0,321389  	0,162850  	-5,189276  	9224,859526  	103330,347763  	14,986800  	-0,047943  
259,558000  	23,947114  	31,652256  	25,952445  	657,183579  	80,205512  	72,601248  	0,008747  	0,008296  	0,003962  	0,004337  	0,004361  	-0,000001  	-0,000000  	26,846936  	25,444817  	26,540242  	26,370544  	29,797160  	28,232564  	29,682329  	29,265011  	32,629256  	31,606648  	34,731634  	65,523794  	27,932823  	26,767762  	28,356091  	71,585011  	0,279960  	0,141858  	-4569,761417  	18415,930170  	-0,027551  	-0,050009  	0,311801  	0,157992  	-5,035789  	9240,946144  	103214,715299  	14,970029  	-0,047959  
260,556000  	23,976234  	31,645482  	25,952322  	1256,670793  	80,207949  	72,600064  	0,008757  	0,008305  	0,003962  	0,004359  	0,004328  	-0,000001  	-0,000000  	26,845943  	25,436297  	26,538881  	26,376260  	29,780813  	28,229585  	29,672740  	29,248876  	32,621307  	31,602433  	34,714059  	65,501190  	27,913368  	26,752708  	28,355848  	71,568017  	0,297258  	0,150623  	-4829,512604  	25508,787133  	-0,018521  	-0,050010  	0,286425  	0,145134  	-4,628152  	9258,727095  	103431,229603  	15,001432  	-0,047960  
261,558000  	23,984559  	31,638955  	25,951830  	1256,670793  	80,210761  	72,606236  	0,008751  	0,008272  	0,003963  	0,004311  	0,004345  	-0,000000  	-0,000000  	26,833048  	25,439294  	26,542157  	26,367788  	29,796709  	28,243842  	29,676874  	29,255820  	32,627541  	31,601568  	34,712752  	65,510438  	27,926544  	26,760832  	28,361431  	71,563157  	0,258371  	0,130919  	-4189,594028  	25505,196584  	-0,018518  	-0,050002  	0,299801  	0,151911  	-4,842153  	9187,313237  	103294,992869  	14,981672  	-0,047953  
262,557000  	23,961951  	31,643142  	25,952691  	1256,670793  	80,205012  	72,608355  	0,008755  	0,008312  	0,003963  	0,004338  	0,004355  	0,000000  	-0,000000  	26,843100  	25,440506  	26,557389  	26,376609  	29,795141  	28,246596  	29,687119  	29,260868  	32,634552  	31,607924  	34,722796  	65,506948  	27,933340  	26,751055  	28,349682  	71,576214  	0,280639  	0,142202  	-4566,611765  	25503,323459  	-0,018517  	-0,049998  	0,307791  	0,155960  	-4,966060  	9275,318830  	103388,538233  	14,995240  	-0,047950  
263,556000  	23,935318  	31,652009  	25,952506  	1256,670793  	80,202607  	72,613561  	0,008755  	0,008295  	0,003963  	0,004320  	0,004337  	-0,000000  	-0,000000  	26,845187  	25,443712  	26,549055  	26,367159  	29,788458  	28,239280  	29,681393  	29,255937  	32,629087  	31,614869  	34,721499  	65,507183  	27,922374  	26,750827  	28,360794  	71,568284  	0,266067  	0,134818  	-4349,498318  	25506,773415  	-0,018519  	-0,050005  	0,293044  	0,148488  	-4,723394  	9238,356891  	103388,255789  	14,995199  	-0,047956  
264,558000  	23,902081  	31,655334  	25,952998  	1256,670793  	80,198107  	72,615244  	0,008757  	0,008282  	0,003964  	0,004304  	0,004370  	0,000001  	-0,000000  	26,844625  	25,439219  	26,554233  	26,368817  	29,787154  	28,241772  	29,685608  	29,249909  	32,625239  	31,606049  	34,717730  	65,509385  	27,925849  	26,749221  	28,357959  	71,576606  	0,253059  	0,128227  	-4156,466728  	25501,203040  	-0,018515  	-0,049993  	0,319244  	0,161763  	-5,141495  	9209,970615  	103418,321925  	14,999559  	-0,047946  
265,559000  	23,864514  	31,654657  	25,954873  	956,927186  	80,196264  	72,611379  	0,008764  	0,008305  	0,003963  	0,004365  	0,004318  	-0,000000  	-0,000000  	26,848333  	25,441217  	26,560797  	26,376654  	29,795489  	28,248704  	29,682721  	29,254306  	32,632233  	31,612609  	34,728553  	65,504400  	27,938232  	26,750730  	28,356265  	71,569372  	0,302028  	0,153040  	-4984,391573  	22451,188057  	-0,022149  	-0,050005  	0,277865  	0,140796  	-4,476276  	9259,815147  	103563,328537  	15,020591  	-0,047956  
266,558000  	23,865006  	31,646960  	25,955733  	357,439972  	80,199201  	72,608511  	0,008751  	0,008276  	0,003963  	0,004293  	0,004375  	0,000001  	-0,000000  	26,850768  	25,442143  	26,556847  	26,367323  	29,795189  	28,241900  	29,677690  	29,251543  	32,641277  	31,611649  	34,728719  	65,509152  	27,940682  	26,750530  	28,360295  	71,571719  	0,244299  	0,123788  	-4027,453464  	12446,530816  	-0,036423  	-0,049993  	0,322865  	0,163598  	-5,205185  	9196,983318  	103291,900110  	14,981224  	-0,047945  
267,556000  	23,889242  	31,627564  	25,955549  	1256,670793  	80,201232  	72,610350  	0,008755  	0,008291  	0,003963  	0,004353  	0,004351  	0,000000  	-0,000000  	26,845159  	25,442512  	26,550919  	26,374321  	29,793899  	28,237531  	29,679481  	29,257649  	32,635758  	31,608481  	34,724912  	65,514498  	27,937577  	26,744962  	28,354883  	71,574911  	0,292746  	0,148337  	-4799,069878  	25503,776265  	-0,018517  	-0,049999  	0,304371  	0,154227  	-4,907145  	9229,304410  	103386,575249  	14,994955  	-0,047951  
268,558000  	23,897412  	31,605705  	25,955180  	1256,670793  	80,200170  	72,590401  	0,008761  	0,008304  	0,003962  	0,004314  	0,004370  	-0,000001  	-0,000000  	26,838452  	25,439614  	26,543984  	26,372748  	29,781749  	28,237456  	29,674280  	29,251614  	32,639525  	31,605705  	34,720881  	65,504740  	27,935066  	26,745211  	28,344702  	71,578161  	0,261090  	0,132296  	-4263,511604  	25507,704700  	-0,018520  	-0,050008  	0,319182  	0,161732  	-5,158718  	9257,926266  	103504,078903  	15,011997  	-0,047958  
269,557000  	23,877507  	31,595700  	25,956256  	57,696365  	80,196108  	72,584135  	0,008743  	0,008293  	0,003963  	0,004374  	0,004304  	-0,000000  	-0,000000  	26,842226  	25,440340  	26,552082  	26,380230  	29,781382  	28,240848  	29,677842  	29,259067  	32,632289  	31,608567  	34,719917  	65,505229  	27,940932  	26,742260  	28,345802  	71,571891  	0,309986  	0,157072  	-5068,471503  	1716,802483  	-0,053765  	-0,050005  	0,266962  	0,135272  	-4,315966  	9232,786460  	103112,724867  	14,955236  	-0,047956  
270,555000  	23,880088  	31,599394  	25,956502  	1256,670793  	80,192484  	72,592489  	0,008733  	0,008310  	0,003964  	0,004363  	0,004379  	-0,000001  	-0,000000  	26,842439  	25,444538  	26,549460  	26,380704  	29,783470  	28,245918  	29,680700  	29,262406  	32,625944  	31,615492  	34,728024  	65,506150  	27,951004  	26,742690  	28,357195  	71,570161  	0,300388  	0,152209  	-4912,252548  	25507,925241  	-0,018520  	-0,050008  	0,326701  	0,165542  	-5,273464  	9271,147727  	102895,744531  	14,923766  	-0,047958  
271,557000  	23,892068  	31,598009  	25,956225  	357,439972  	80,189422  	72,590650  	0,008736  	0,008282  	0,003962  	0,004311  	0,004352  	0,000000  	-0,000000  	26,840294  	25,441477  	26,545701  	26,371609  	29,785179  	28,242478  	29,674868  	29,255128  	32,623004  	31,608671  	34,731077  	65,496588  	27,947839  	26,739549  	28,352183  	71,570492  	0,258333  	0,130899  	-4217,201654  	12447,222787  	-0,036425  	-0,049996  	0,305168  	0,154631  	-4,925092  	9209,205865  	102958,581200  	14,932880  	-0,047948  
272,556000  	23,901528  	31,595854  	25,957639  	-242,047242  	80,181923  	72,582982  	0,008718  	0,008296  	0,003961  	0,004306  	0,004398  	0,000000  	-0,000000  	26,843467  	25,439692  	26,543397  	26,368678  	29,786023  	28,243421  	29,674891  	29,250900  	32,627877  	31,603572  	34,727333  	65,496395  	27,941716  	26,740935  	28,346007  	71,571624  	0,254691  	0,129054  	-4151,474413  	-27093,056704  	-0,102554  	-0,049996  	0,341402  	0,172991  	-5,509995  	9240,547852  	102589,596708  	14,879363  	-0,047948  
273,557000  	23,919744  	31,602319  	25,958161  	1256,670793  	80,183329  	72,588717  	0,008731  	0,008293  	0,003961  	0,004336  	0,004349  	0,000000  	-0,000000  	26,848215  	25,441883  	26,547827  	26,374058  	29,791064  	28,246360  	29,677321  	29,255429  	32,632107  	31,606816  	34,727520  	65,504813  	27,944333  	26,741188  	28,351915  	71,572711  	0,278513  	0,141125  	-4532,841005  	25503,510511  	-0,018517  	-0,049999  	0,303026  	0,153545  	-4,887844  	9234,466645  	102862,126666  	14,918890  	-0,047950  
274,557000  	23,886016  	31,609646  	25,957362  	657,183579  	80,185391  	72,599752  	0,008731  	0,008303  	0,003960  	0,004329  	0,004360  	0,000001  	-0,000000  	26,848512  	25,446718  	26,551481  	26,375391  	29,790188  	28,246877  	29,680703  	29,256207  	32,630244  	31,608913  	34,731978  	65,509505  	27,950696  	26,739931  	28,355406  	71,573531  	0,273550  	0,138610  	-4475,870441  	18408,252857  	-0,027540  	-0,049987  	0,311230  	0,157702  	-5,014246  	9255,880332  	102864,944042  	14,919299  	-0,047940  
275,562000  	23,873483  	31,615557  	25,957731  	657,183579  	80,183641  	72,587689  	0,008731  	0,008284  	0,003961  	0,004321  	0,004327  	0,000002  	-0,000000  	26,842874  	25,448349  	26,549088  	26,368823  	29,785313  	28,244908  	29,684367  	29,256365  	32,627324  	31,611775  	34,732491  	65,510107  	27,956181  	26,738413  	28,351250  	71,574508  	0,266686  	0,135132  	-4373,978769  	18404,279801  	-0,027534  	-0,049975  	0,285494  	0,144662  	-4,605857  	9213,586372  	102854,825495  	14,917831  	-0,047930  
276,558000  	23,882637  	31,621037  	25,957178  	1256,670793  	80,181517  	72,589684  	0,008740  	0,008273  	0,003962  	0,004297  	0,004360  	-0,000000  	-0,000000  	26,843064  	25,447248  	26,551442  	26,369611  	29,791132  	28,247452  	29,686632  	29,264208  	32,632834  	31,614246  	34,730757  	65,510253  	27,964078  	26,740240  	28,354895  	71,579757  	0,247132  	0,125224  	-4051,353768  	25504,926293  	-0,018518  	-0,050002  	0,311166  	0,157670  	-5,017303  	9189,381810  	103063,643208  	14,948118  	-0,047953  
277,556000  	23,890624  	31,614049  	25,957116  	57,696365  	80,180986  	72,600687  	0,008740  	0,008274  	0,003962  	0,004352  	0,004342  	0,000000  	-0,000000  	26,848983  	25,449661  	26,555362  	26,373780  	29,793882  	28,249941  	29,687520  	29,262025  	32,638875  	31,611766  	34,732372  	65,508825  	27,972548  	26,743442  	28,362618  	71,582869  	0,291651  	0,147782  	-4771,907843  	1716,516368  	-0,053758  	-0,049997  	0,296782  	0,150382  	-4,778123  	9193,083875  	103062,139195  	14,947900  	-0,047949  
278,558000  	23,917717  	31,608692  	25,957547  	1256,670793  	80,182485  	72,603742  	0,008729  	0,008288  	0,003962  	0,004358  	0,004329  	-0,000001  	-0,000000  	26,846057  	25,447617  	26,551228  	26,365517  	29,790128  	28,240176  	29,677107  	29,250551  	32,627656  	31,608018  	34,729749  	65,504462  	27,972485  	26,731146  	28,354976  	71,574428  	0,296620  	0,150300  	-4832,818774  	25507,536543  	-0,018520  	-0,050007  	0,286705  	0,145276  	-4,614938  	9222,261076  	102828,035707  	14,913946  	-0,047958  
279,556000  	23,912188  	31,605367  	25,957362  	1256,670793  	80,181861  	72,590182  	0,008732  	0,008287  	0,003963  	0,004328  	0,004307  	-0,000000  	-0,000000  	26,842169  	25,442137  	26,536690  	26,360855  	29,791332  	28,245574  	29,669279  	29,248447  	32,620741  	31,599740  	34,720084  	65,501996  	27,966743  	26,726308  	28,345989  	71,571195  	0,272402  	0,138028  	-4439,503106  	25505,443266  	-0,018518  	-0,050003  	0,269532  	0,136574  	-4,345906  	9221,581928  	102891,444325  	14,923142  	-0,047954  
280,557000  	23,898487  	31,604443  	25,957793  	1256,670793  	80,185172  	72,588063  	0,008731  	0,008316  	0,003962  	0,004329  	0,004336  	0,000001  	-0,000000  	26,830814  	25,435747  	26,536284  	26,355086  	29,787400  	28,244333  	29,673000  	29,245284  	32,622425  	31,598894  	34,719479  	65,497801  	27,968231  	26,729402  	28,346042  	71,567703  	0,273121  	0,138392  	-4458,615972  	25499,224972  	-0,018514  	-0,049989  	0,292444  	0,148183  	-4,718704  	9282,986131  	102861,385251  	14,918783  	-0,047942  
281,557000  	23,912403  	31,613587  	25,957332  	1256,670793  	80,189828  	72,592707  	0,008737  	0,008284  	0,003963  	0,004320  	0,004335  	-0,000001  	-0,000000  	26,844643  	25,452794  	26,563037  	26,372777  	29,804667  	28,254731  	29,684441  	29,258085  	32,645874  	31,627712  	34,735891  	65,512777  	27,987738  	26,744998  	28,370316  	71,586306  	0,265891  	0,134729  	-4337,894520  	25507,394098  	-0,018520  	-0,050007  	0,291229  	0,147568  	-4,699111  	9213,026782  	102995,581329  	14,938246  	-0,047957  
282,558000  	23,901037  	31,614326  	25,957086  	1256,670793  	80,192577  	72,591024  	0,008732  	0,008277  	0,003962  	0,004340  	0,004354  	0,000001  	-0,000000  	26,844310  	25,451539  	26,558062  	26,374214  	29,794232  	28,247298  	29,681280  	29,258966  	32,638839  	31,620046  	34,734500  	65,516145  	27,983762  	26,745807  	28,372484  	71,585660  	0,282073  	0,142928  	-4609,131847  	25500,919413  	-0,018515  	-0,049993  	0,306455  	0,155283  	-4,947670  	9199,332039  	102872,322884  	14,920369  	-0,047945  
283,558000  	23,876617  	31,615157  	25,956164  	357,439972  	80,193890  	72,593424  	0,008736  	0,008313  	0,003964  	0,004278  	0,004351  	0,000001  	-0,000000  	26,827415  	25,428313  	26,541989  	26,358774  	29,779256  	28,230922  	29,665780  	29,238717  	32,619781  	31,602152  	34,721365  	65,496011  	27,969163  	26,737187  	28,347323  	71,568045  	0,231619  	0,117363  	-3797,109144  	12445,467441  	-0,036420  	-0,049988  	0,304200  	0,154140  	-4,910564  	9275,603223  	102975,436030  	14,935324  	-0,047941  
284,621000  	23,865681  	31,618544  	25,955795  	956,927186  	80,195889  	72,588936  	0,008731  	0,008287  	0,003963  	0,004318  	0,004364  	0,000001  	-0,000000  	26,833031  	25,431429  	26,540957  	26,362994  	29,783958  	28,230994  	29,670775  	29,235812  	32,619909  	31,599365  	34,715347  	65,502371  	27,973374  	26,751002  	28,342722  	71,573611  	0,264285  	0,133915  	-4340,651556  	22443,661170  	-0,022142  	-0,049987  	0,314705  	0,159463  	-5,084483  	9220,181892  	102854,677212  	14,917810  	-0,047940  
285,558000  	23,913078  	31,613618  	25,956717  	1256,670793  	80,200388  	72,581112  	0,008737  	0,008291  	0,003962  	0,004305  	0,004355  	-0,000000  	-0,000000  	26,824030  	25,435088  	26,543354  	26,355854  	29,780552  	28,229887  	29,670865  	29,231256  	32,619919  	31,595790  	34,719458  	65,498093  	27,967455  	26,757843  	28,345046  	71,555973  	0,254078  	0,128743  	-4144,834362  	25504,946825  	-0,018518  	-0,050002  	0,307616  	0,155871  	-4,977992  	9229,731000  	102995,362435  	14,938214  	-0,047953  
286,562000  	23,938758  	31,608384  	25,956348  	1256,670793  	80,198951  	72,588468  	0,008740  	0,008303  	0,003962  	0,004363  	0,004330  	0,000001  	-0,000000  	26,838731  	25,438298  	26,543158  	26,355658  	29,788292  	28,230661  	29,680015  	29,246939  	32,633574  	31,604397  	34,718265  	65,505312  	27,963605  	26,760399  	28,346053  	71,568554  	0,301006  	0,152522  	-4890,652082  	25499,712506  	-0,018514  	-0,049990  	0,287487  	0,145672  	-4,646896  	9255,898018  	103062,012095  	14,947881  	-0,047943  
287,560000  	23,969446  	31,605428  	25,956348  	1256,670793  	80,193108  	72,600375  	0,008729  	0,008286  	0,003961  	0,004353  	0,004373  	0,000001  	-0,000000  	26,829598  	25,436993  	26,552345  	26,359779  	29,776555  	28,233728  	29,674122  	29,247143  	32,626220  	31,601620  	34,714012  	65,500919  	27,965535  	26,755884  	28,357870  	71,567523  	0,292885  	0,148407  	-4737,830537  	25500,924618  	-0,018515  	-0,049993  	0,321446  	0,162879  	-5,183692  	9218,201750  	102814,294819  	14,911953  	-0,047945  
288,559000  	23,999243  	31,614726  	25,955119  	1256,670793  	80,185610  	72,601061  	0,008734  	0,008290  	0,003959  	0,004309  	0,004352  	-0,000001  	-0,000000  	26,828503  	25,429256  	26,520395  	26,354804  	29,776226  	28,231531  	29,665534  	29,234904  	32,608964  	31,590289  	34,710183  	65,501898  	27,952187  	26,748268  	28,342761  	71,576235  	0,256936  	0,130192  	-4145,137696  	25507,962561  	-0,018520  	-0,050008  	0,304868  	0,154479  	-4,911052  	9226,375583  	102930,054383  	14,928742  	-0,047958  
289,561000  	23,979429  	31,629873  	25,954135  	956,927186  	80,183423  	72,601965  	0,008743  	0,008293  	0,003962  	0,004337  	0,004365  	0,000000  	-0,000000  	26,826589  	25,419002  	26,524612  	26,346158  	29,768434  	28,218995  	29,663946  	29,244366  	32,614182  	31,584793  	34,711791  	65,496457  	27,941136  	26,747825  	28,325717  	71,551152  	0,279907  	0,141831  	-4536,451194  	22447,401208  	-0,022145  	-0,049996  	0,315189  	0,159709  	-5,075240  	9234,473012  	103122,031388  	14,956586  	-0,047948  
290,558000  	23,932738  	31,648038  	25,953213  	-242,047242  	80,182423  	72,607202  	0,008729  	0,008288  	0,003962  	0,004343  	0,004357  	-0,000000  	-0,000000  	26,827239  	25,429503  	26,528089  	26,349433  	29,770541  	28,236937  	29,664448  	29,250646  	32,613645  	31,601659  	34,718424  	65,495037  	27,955650  	26,761434  	28,336473  	71,558040  	0,284844  	0,144333  	-4655,628627  	-27095,713326  	-0,102566  	-0,050002  	0,308650  	0,156395  	-4,965858  	9221,995784  	102825,507836  	14,913579  	-0,047953  
291,557000  	23,901221  	31,660507  	25,952844  	657,183579  	80,184204  	72,596635  	0,008734  	0,008295  	0,003960  	0,004344  	0,004342  	0,000001  	-0,000000  	26,824855  	25,440756  	26,535810  	26,360003  	29,781490  	28,232018  	29,679404  	29,249802  	32,631160  	31,596855  	34,716195  	65,496185  	27,954814  	26,787235  	28,349102  	71,564880  	0,285187  	0,144507  	-4687,817577  	18410,602001  	-0,027543  	-0,049993  	0,297122  	0,150554  	-4,788170  	9238,042077  	102927,385290  	14,928355  	-0,047946  
292,557000  	23,927393  	31,662846  	25,951922  	1256,670793  	80,186391  	72,593206  	0,008742  	0,008287  	0,003963  	0,004350  	0,004308  	-0,000000  	-0,000000  	26,834994  	25,430913  	26,540774  	26,363088  	29,781186  	28,244314  	29,675369  	29,250490  	32,625250  	31,606747  	34,721566  	65,493492  	27,958968  	26,802963  	28,350570  	71,570175  	0,290470  	0,147183  	-4759,976853  	25505,802459  	-0,018518  	-0,050003  	0,270415  	0,137021  	-4,361005  	9219,985930  	103088,837189  	14,951772  	-0,047954  
293,562000  	23,973685  	31,648099  	25,949801  	1256,670793  	80,191921  	72,580800  	0,008730  	0,008294  	0,003963  	0,004348  	0,004382  	0,000000  	-0,000000  	26,834761  	25,434913  	26,543876  	26,365941  	29,789440  	28,240144  	29,680024  	29,255559  	32,626521  	31,609669  	34,730807  	65,502739  	27,965325  	26,817238  	28,350347  	71,575590  	0,288808  	0,146341  	-4695,385908  	25504,195827  	-0,018517  	-0,050000  	0,328780  	0,166595  	-5,314776  	9235,550452  	102848,795321  	14,916957  	-0,047951  
294,557000  	23,965575  	31,636462  	25,948756  	657,183579  	80,195296  	72,575501  	0,008734  	0,008277  	0,003963  	0,004331  	0,004345  	-0,000001  	-0,000000  	26,829125  	25,429049  	26,539535  	26,356237  	29,782247  	28,235344  	29,682615  	29,249079  	32,631713  	31,605349  	34,723749  	65,506897  	27,961368  	26,809464  	28,352187  	71,573781  	0,274735  	0,139210  	-4464,539292  	18416,632867  	-0,027552  	-0,050011  	0,299769  	0,151895  	-4,851331  	9199,806736  	102915,741547  	14,926666  	-0,047961  
295,558000  	23,957281  	31,639971  	25,947742  	657,183579  	80,196670  	72,591554  	0,008740  	0,008296  	0,003961  	0,004323  	0,004372  	-0,000000  	-0,000000  	26,828638  	25,434168  	26,540194  	26,362287  	29,780975  	28,238729  	29,676691  	29,243892  	32,626084  	31,599871  	34,720145  	65,504332  	27,958661  	26,811230  	28,359257  	71,572177  	0,267967  	0,135781  	-4361,261749  	18413,954905  	-0,027548  	-0,050003  	0,320852  	0,162578  	-5,182539  	9240,276192  	103045,178449  	14,945440  	-0,047954  
296,556000  	23,949295  	31,651609  	25,947496  	1256,670793  	80,197108  	72,603586  	0,008733  	0,008305  	0,003962  	0,004288  	0,004312  	-0,000000  	-0,000000  	26,839098  	25,441101  	26,543688  	26,371825  	29,789895  	28,237034  	29,680804  	29,248993  	32,635200  	31,603127  	34,721669  	65,498514  	27,956515  	26,811808  	28,354316  	71,575889  	0,239914  	0,121566  	-3914,661819  	25507,142963  	-0,018519  	-0,050006  	0,273059  	0,138361  	-4,403853  	9258,759638  	102908,482743  	14,925614  	-0,047956  
297,558000  	23,917594  	31,656997  	25,945867  	-242,047242  	80,198295  	72,609041  	0,008734  	0,008284  	0,003960  	0,004339  	0,004380  	0,000000  	-0,000000  	26,834287  	25,437030  	26,540453  	26,361845  	29,790418  	28,236479  	29,678017  	29,244472  	32,629099  	31,597900  	34,725940  	65,500065  	27,946487  	26,802212  	28,350693  	71,570967  	0,281377  	0,142576  	-4613,332480  	-27092,158817  	-0,102556  	-0,049995  	0,327417  	0,165905  	-5,277565  	9214,547084  	102924,003026  	14,927865  	-0,047947  
298,556000  	23,893757  	31,656874  	25,944761  	357,439972  	80,197983  	72,596822  	0,008737  	0,008293  	0,003963  	0,004339  	0,004339  	0,000001  	-0,000000  	26,833771  	25,441493  	26,542795  	26,363653  	29,789740  	28,244518  	29,675775  	29,245282  	32,633864  	31,603110  	34,726965  	65,513687  	27,944004  	26,804442  	28,357702  	71,569876  	0,281589  	0,142683  	-4630,948157  	12447,009554  	-0,036423  	-0,049993  	0,294516  	0,149234  	-4,754686  	9233,652374  	102989,106307  	14,937307  	-0,047945  
299,557000  	23,890900  	31,653641  	25,943839  	1256,670793  	80,200545  	72,601622  	0,008734  	0,008288  	0,003963  	0,004358  	0,004337  	0,000000  	-0,000000  	26,838101  	25,446991  	26,548576  	26,365021  	29,793133  	28,243370  	29,678533  	29,250460  	32,639630  	31,612164  	34,729061  	65,511440  	27,948542  	26,803468  	28,356197  	71,573674  	0,296428  	0,150202  	-4874,759373  	25502,821904  	-0,018516  	-0,049996  	0,293312  	0,148623  	-4,733850  	9222,734358  	102930,626332  	14,928825  	-0,047948  
300,557000  	23,873637  	31,644713  	25,943224  	1256,670793  	80,199732  	72,599129  	0,008735  	0,008271  	0,003963  	0,004348  	0,004346  	-0,000000  	-0,000000  	26,839460  	25,439277  	26,544904  	26,358695  	29,791126  	28,234793  	29,680439  	29,250878  	32,633121  	31,607410  	34,732799  	65,504244  	27,948109  	26,796734  	28,350797  	71,569493  	0,288763  	0,146318  	-4753,815259  	25505,759143  	-0,018518  	-0,050003  	0,300593  	0,152313  	-4,852435  	9184,981495  	102940,172930  	14,930210  	-0,047954  
301,567000  	23,868692  	31,633167  	25,942425  	1256,670793  	80,195827  	72,606423  	0,008759  	0,008298  	0,003963  	0,004334  	0,004352  	-0,000002  	-0,000000  	26,840862  	25,432731  	26,538846  	26,362385  	29,787126  	28,235457  	29,679853  	29,253382  	32,633052  	31,603747  	34,733753  	65,507374  	27,945536  	26,791431  	28,350000  	71,565405  	0,277607  	0,140665  	-4566,267619  	25513,563969  	-0,018524  	-0,050020  	0,304773  	0,154431  	-4,912668  	9243,773099  	103454,185218  	15,004761  	-0,047968  
302,556000  	23,859845  	31,622207  	25,941380  	1256,670793  	80,198639  	72,600375  	0,008739  	0,008282  	0,003962  	0,004336  	0,004345  	0,000001  	-0,000000  	26,842140  	25,436040  	26,539690  	26,368499  	29,788830  	28,238389  	29,679878  	29,256116  	32,631271  	31,606034  	34,735413  	65,506080  	27,949120  	26,786012  	28,353141  	71,568605  	0,279252  	0,141499  	-4592,087828  	25499,089546  	-0,018513  	-0,049988  	0,299255  	0,151635  	-4,829349  	9210,030040  	103042,057445  	14,944987  	-0,047941  
