06/23/2020 11:40:52
Tempo T_f_e T_f_s AR AR T_q_e T_q_s Corrente_P_f Corrente_P_q Corrente_P_RESERVA Corrente_eletromag_f Corrente_eletromag_q AR AR T_1 T_2 T_3 T_4 T_5 T_6 T_7 T_8 T_9 T_10 T_11 T_12 T_13 T_14 T_15 T_16 Velocidade_f_(m/s) Vazao_f_(L/s) q_f_(W) AR AR AR Velocidade_q_(m/s) Vazao_q_(L/s) q_q_(W) DeltaP_q_(Pa) DeltaP_f_(Pa) DeltaP_f_(Psi) AR
0,009000  	23,951844  	30,115364  	24,368591  	956,927186  	80,035361  	69,823203  	0,009835  	0,006339  	0,003962  	0,004360  	0,004236  	0,000001  	-0,000001  	26,249173  	25,234533  	26,237473  	25,951061  	28,571524  	27,450885  	28,847299  	28,275391  	30,629281  	30,246282  	33,308147  	62,469506  	26,643492  	25,680629  	27,979326  	68,467203  	0,298433  	0,151218  	-3896,667588  	22503,227665  	-0,022166  	-0,049990  	0,212995  	0,107926  	-4,617840  	5018,929504  	126644,870435  	18,368286  	-0,047943  
2,552000  	23,987600  	30,115240  	24,369451  	357,439972  	80,033986  	69,837530  	0,009832  	0,006359  	0,003964  	0,004414  	0,004230  	-0,000001  	-0,000000  	26,256005  	25,232738  	26,248765  	25,948861  	28,570874  	27,460140  	28,852570  	28,295712  	30,639646  	30,254447  	33,320716  	62,470843  	26,651940  	25,674258  	27,991075  	68,478209  	0,341819  	0,173202  	-4437,161208  	12530,480130  	-0,036499  	-0,050014  	0,208759  	0,105780  	-4,519055  	5063,295574  	126577,034512  	18,358447  	-0,047964  
3,550000  	24,002069  	30,125026  	24,370188  	1256,670793  	80,035798  	69,834665  	0,009825  	0,006294  	0,003960  	0,004388  	0,004221  	0,000002  	-0,000001  	26,254040  	25,238685  	26,253827  	25,955482  	28,575639  	27,455737  	28,862597  	28,292679  	30,637895  	30,253448  	33,313705  	62,470529  	26,656786  	25,659828  	27,978913  	68,479123  	0,320986  	0,162646  	-4163,541146  	25544,329997  	-0,018525  	-0,049975  	0,201529  	0,102116  	-4,364539  	4923,313206  	126429,987244  	18,337119  	-0,047930  
4,553000  	24,003973  	30,140659  	24,372523  	1256,670793  	80,040235  	69,845129  	0,009837  	0,006359  	0,003958  	0,004452  	0,004210  	0,000001  	-0,000000  	26,250251  	25,238859  	26,249358  	25,962148  	28,574840  	27,452744  	28,851776  	28,291733  	30,643356  	30,246866  	33,315052  	62,472262  	26,658382  	25,664468  	27,982457  	68,479152  	0,372569  	0,188783  	-4843,467810  	25550,998911  	-0,018530  	-0,049990  	0,192665  	0,097625  	-4,170114  	5062,815218  	126687,710089  	18,374499  	-0,047943  
5,551000  	23,985173  	30,159493  	24,372062  	956,927186  	80,043702  	69,850549  	0,009833  	0,006311  	0,003959  	0,004397  	0,004246  	0,000001  	-0,000000  	26,249493  	25,230020  	26,236619  	25,952834  	28,563205  	27,450385  	28,846248  	28,284427  	30,631524  	30,239739  	33,298941  	62,470199  	26,654632  	25,653219  	27,972033  	68,469328  	0,328428  	0,166417  	-4295,820677  	22503,281318  	-0,022166  	-0,049990  	0,221275  	0,112121  	-4,788439  	4959,653299  	126613,441509  	18,363727  	-0,047943  
6,552000  	23,986402  	30,167001  	24,372738  	357,439972  	80,048951  	69,860017  	0,009833  	0,006226  	0,003963  	0,004392  	0,004254  	-0,000001  	-0,000000  	26,252112  	25,233231  	26,239664  	25,957171  	28,568928  	27,450276  	28,843382  	28,281211  	30,623800  	30,240753  	33,308149  	62,470898  	26,659477  	25,662605  	27,979742  	68,470742  	0,324311  	0,164331  	-4246,285606  	12528,737784  	-0,036495  	-0,050007  	0,227650  	0,115352  	-4,924367  	4775,645850  	126613,483876  	18,363733  	-0,047958  
7,553000  	23,988983  	30,167648  	24,373844  	1256,670793  	80,052732  	69,845036  	0,009834  	0,006357  	0,003964  	0,004371  	0,004226  	0,000001  	-0,000000  	26,253126  	25,241109  	26,246261  	25,949989  	28,567594  	27,440372  	28,844945  	28,279711  	30,631370  	30,245847  	33,303307  	62,465974  	26,663402  	25,682595  	27,974231  	68,475721  	0,307077  	0,155598  	-4019,374552  	25549,702230  	-0,018529  	-0,049987  	0,205050  	0,103900  	-4,443663  	5059,599168  	126635,655709  	18,366949  	-0,047941  
8,555000  	23,988000  	30,163770  	24,374643  	57,696365  	80,058418  	69,843354  	0,009834  	0,006337  	0,003960  	0,004343  	0,004155  	0,000001  	-0,000000  	26,249892  	25,237374  	26,243814  	25,952242  	28,561455  	27,451612  	28,845084  	28,277268  	30,624968  	30,242527  	33,308767  	62,470032  	26,651817  	25,704967  	27,973591  	68,472412  	0,284889  	0,144356  	-3727,208392  	1805,936241  	-0,053879  	-0,049982  	0,148832  	0,075414  	-3,227673  	5016,066469  	126624,979336  	18,365401  	-0,047936  
9,550000  	23,999150  	30,164447  	24,374797  	-242,047242  	80,061823  	69,824823  	0,009829  	0,006325  	0,003962  	0,004435  	0,004209  	0,000002  	-0,000000  	26,248843  	25,237708  	26,244955  	25,953171  	28,561113  	27,453547  	28,840443  	28,287623  	30,632070  	30,243251  	33,313703  	62,459872  	26,656683  	25,741480  	27,976326  	68,480483  	0,359338  	0,182079  	-4693,249745  	-27047,997182  	-0,103002  	-0,049971  	0,191477  	0,097023  	-4,161410  	4988,655761  	126518,032016  	18,349889  	-0,047927  
10,554000  	23,986556  	30,163586  	24,375902  	357,439972  	80,063073  	69,827750  	0,009835  	0,006230  	0,003957  	0,004375  	0,004222  	-0,000000  	-0,000001  	26,258988  	25,231849  	26,249161  	25,952363  	28,564059  	27,458305  	28,845415  	28,299621  	30,635744  	30,248249  	33,315799  	62,471899  	26,661003  	25,776856  	27,984394  	68,478879  	0,310459  	0,157312  	-4062,561094  	12527,018140  	-0,036490  	-0,050000  	0,202070  	0,102390  	-4,390926  	4785,124921  	126640,104197  	18,367594  	-0,047952  
11,554000  	23,953012  	30,167278  	24,376824  	1256,670793  	80,062511  	69,834571  	0,009828  	0,006293  	0,003961  	0,004382  	0,004229  	-0,000001  	-0,000001  	26,260771  	25,234105  	26,250232  	25,955343  	28,571887  	27,460721  	28,851744  	28,294564  	30,635930  	30,254494  	33,320495  	62,474160  	26,666143  	25,816517  	27,988838  	68,472834  	0,315768  	0,160002  	-4156,958188  	25559,263960  	-0,018536  	-0,050009  	0,207286  	0,105033  	-4,501026  	4919,887044  	126506,282357  	18,348185  	-0,047959  
12,555000  	23,947298  	30,172325  	24,376947  	1256,670793  	80,064948  	69,838059  	0,009821  	0,006336  	0,003960  	0,004343  	0,004204  	0,000001  	-0,000000  	26,247154  	25,226821  	26,238986  	25,947099  	28,561328  	27,446291  	28,841783  	28,283873  	30,626897  	30,242942  	33,316301  	62,463377  	26,654626  	25,851290  	27,983390  	68,463931  	0,284828  	0,144324  	-3756,132281  	25551,546024  	-0,018530  	-0,049992  	0,188155  	0,095340  	-4,085198  	5014,107551  	126351,517314  	18,325738  	-0,047944  
13,551000  	23,935257  	30,159985  	24,377162  	1256,670793  	80,069978  	69,822954  	0,009838  	0,006346  	0,003958  	0,004410  	0,004211  	0,000001  	-0,000001  	26,249364  	25,240360  	26,240491  	25,952845  	28,566048  	27,450063  	28,847885  	28,289174  	30,634911  	30,247324  	33,323428  	62,474746  	26,668947  	25,897932  	27,993736  	68,471674  	0,339195  	0,171873  	-4472,886448  	25548,168643  	-0,018528  	-0,049984  	0,193646  	0,098122  	-4,212674  	5035,191568  	126717,225459  	18,378780  	-0,047938  
14,555000  	23,940724  	30,143798  	24,378268  	1256,670793  	80,070103  	69,803582  	0,009825  	0,006343  	0,003961  	0,004357  	0,004233  	0,000000  	-0,000000  	26,258493  	25,250715  	26,247936  	25,965712  	28,578993  	27,463490  	28,856440  	28,299364  	30,644308  	30,256173  	33,332293  	62,482680  	26,687928  	25,935732  	27,996905  	68,479272  	0,295945  	0,149958  	-3888,981709  	25552,590478  	-0,018531  	-0,049994  	0,210463  	0,106643  	-4,587231  	5028,390181  	126438,467617  	18,338349  	-0,047946  
15,551000  	23,975467  	30,138721  	24,378729  	1256,670793  	80,069509  	69,822051  	0,009823  	0,006343  	0,003957  	0,004414  	0,004247  	-0,000001  	-0,000000  	26,259019  	25,246002  	26,252018  	25,964328  	28,572170  	27,460637  	28,854188  	28,296962  	30,639158  	30,253959  	33,330166  	62,479044  	26,678897  	25,951565  	27,990728  	68,478113  	0,342205  	0,173398  	-4467,993428  	25559,641962  	-0,018536  	-0,050009  	0,222090  	0,112535  	-4,831669  	5028,864877  	126378,907295  	18,329711  	-0,047960  
16,552000  	23,973132  	30,137982  	24,378790  	57,696365  	80,073008  	69,838059  	0,009836  	0,006341  	0,003958  	0,004431  	0,004200  	0,000000  	-0,000000  	26,263469  	25,256267  	26,261265  	25,964397  	28,571447  	27,464750  	28,861330  	28,298540  	30,640952  	30,258692  	33,328052  	62,480757  	26,676327  	25,972131  	27,997399  	68,484571  	0,355781  	0,180277  	-4646,464327  	1806,263069  	-0,053895  	-0,050000  	0,185001  	0,093741  	-4,019874  	5024,577754  	126679,667503  	18,373332  	-0,047951  
17,556000  	23,940479  	30,145614  	24,378637  	1256,670793  	80,075758  	69,848337  	0,009832  	0,006275  	0,003960  	0,004424  	0,004219  	0,000001  	-0,000000  	26,267793  	25,255228  	26,259501  	25,962273  	28,582266  	27,469705  	28,864238  	28,305029  	30,644922  	30,257513  	33,320446  	62,475564  	26,673979  	25,980096  	27,993122  	68,478392  	0,349808  	0,177250  	-4598,313441  	25550,018441  	-0,018529  	-0,049988  	0,199937  	0,101310  	-4,341232  	4882,252324  	126578,439670  	18,358651  	-0,047941  
18,551000  	23,930096  	30,159770  	24,378821  	657,183579  	80,074445  	69,846531  	0,009827  	0,006339  	0,003958  	0,004359  	0,004205  	0,000000  	-0,000000  	26,262297  	25,245815  	26,255490  	25,956860  	28,581869  	27,456409  	28,856989  	28,297347  	30,643277  	30,254912  	33,315161  	62,469812  	26,663723  	25,964081  	27,985234  	68,464410  	0,297386  	0,150688  	-3924,675100  	18479,191247  	-0,027581  	-0,049998  	0,188466  	0,095497  	-4,092353  	5019,073115  	126466,563707  	18,342424  	-0,047950  
19,551000  	23,909269  	30,157831  	24,378176  	657,183579  	80,071009  	69,857338  	0,009836  	0,006330  	0,003961  	0,004288  	0,004186  	0,000001  	-0,000000  	26,252888  	25,239478  	26,262122  	25,964738  	28,572983  	27,457311  	28,849488  	28,297739  	30,637474  	30,255056  	33,318014  	62,466006  	26,663342  	25,945799  	27,984992  	68,465374  	0,239926  	0,121572  	-3175,968934  	18473,798874  	-0,027573  	-0,049982  	0,173945  	0,088139  	-3,771793  	5000,653340  	126664,196648  	18,371089  	-0,047936  
20,562000  	23,909085  	30,146937  	24,377684  	57,696365  	80,072696  	69,864128  	0,009827  	0,006347  	0,003959  	0,004394  	0,004272  	-0,000001  	-0,000000  	26,263669  	25,240473  	26,258586  	25,962861  	28,581703  	27,462059  	28,858974  	28,296087  	30,646177  	30,258254  	33,325589  	62,473806  	26,667318  	25,921459  	27,985208  	68,464564  	0,325763  	0,165067  	-4304,823510  	1806,566271  	-0,053903  	-0,050007  	0,241704  	0,122473  	-5,238458  	5036,105589  	126481,406125  	18,344577  	-0,047957  
21,552000  	23,886907  	30,130750  	24,377561  	57,696365  	80,071821  	69,859082  	0,009832  	0,006329  	0,003956  	0,004389  	0,004264  	-0,000000  	-0,000000  	26,262428  	25,247201  	26,248873  	25,953938  	28,564737  	27,451284  	28,851513  	28,286263  	30,635265  	30,253370  	33,324606  	62,463971  	26,661621  	25,904502  	27,982067  	68,462437  	0,321698  	0,163007  	-4255,193168  	1806,371414  	-0,053897  	-0,050001  	0,235070  	0,119112  	-5,096748  	4998,781438  	126589,949252  	18,360320  	-0,047952  
22,555000  	23,870565  	30,121641  	24,378053  	1256,670793  	80,069509  	69,860889  	0,009832  	0,006226  	0,003959  	0,004428  	0,004257  	-0,000001  	-0,000000  	26,265851  	25,236865  	26,247824  	25,962180  	28,563875  	27,460631  	28,855442  	28,292464  	30,631761  	30,254381  	33,322500  	62,475254  	26,657622  	25,887447  	27,981753  	68,456401  	0,353036  	0,178886  	-4675,124611  	25559,130533  	-0,018536  	-0,050008  	0,229772  	0,116427  	-4,979888  	4775,221383  	126593,472737  	18,360831  	-0,047959  
23,553000  	23,903832  	30,117672  	24,377039  	357,439972  	80,067510  	69,865623  	0,009834  	0,006363  	0,003959  	0,004427  	0,004268  	-0,000001  	-0,000001  	26,273859  	25,249031  	26,248769  	25,972943  	28,574804  	27,466227  	28,858052  	28,293408  	30,645808  	30,251522  	33,320551  	62,474555  	26,656766  	25,890878  	27,993678  	68,458256  	0,352186  	0,178455  	-4636,081700  	12530,982902  	-0,036502  	-0,050018  	0,238694  	0,120948  	-5,169842  	5072,413140  	126623,658911  	18,365209  	-0,047967  
24,552000  	23,937929  	30,107639  	24,376855  	-242,047242  	80,066635  	69,863443  	0,009830  	0,006333  	0,003966  	0,004384  	0,004176  	-0,000001  	-0,000000  	26,265394  	25,247199  	26,255851  	25,976542  	28,576225  	27,467585  	28,854609  	28,297882  	30,651355  	30,269594  	33,327343  	62,472510  	26,666181  	25,886231  	27,995868  	68,466441  	0,317900  	0,161082  	-4155,012592  	-27065,473427  	-0,103067  	-0,050007  	0,165871  	0,084048  	-3,593026  	5007,383983  	126539,688389  	18,353030  	-0,047957  
25,555000  	23,978938  	30,096130  	24,377531  	1256,670793  	80,068947  	69,842357  	0,009822  	0,006333  	0,003963  	0,004386  	0,004181  	0,000000  	-0,000000  	26,260499  	25,246524  	26,264471  	25,965853  	28,573654  	27,467951  	28,855949  	28,308951  	30,642393  	30,254037  	33,330066  	62,464227  	26,670137  	25,873192  	27,980443  	68,470869  	0,319417  	0,161851  	-4139,296442  	25554,583107  	-0,018533  	-0,049998  	0,169239  	0,085755  	-3,674383  	5006,504627  	126372,834754  	18,328830  	-0,047950  
26,552000  	23,975559  	30,099700  	24,376855  	657,183579  	80,069009  	69,838682  	0,009829  	0,006330  	0,003962  	0,004425  	0,004219  	0,000000  	-0,000000  	26,263191  	25,253868  	26,258029  	25,953878  	28,573184  	27,459595  	28,855767  	28,295677  	30,630250  	30,250923  	33,323343  	62,472061  	26,651874  	25,859119  	27,979647  	68,462142  	0,351310  	0,178011  	-4557,768099  	18479,712018  	-0,027582  	-0,050000  	0,199809  	0,101245  	-4,339684  	5000,418468  	126513,329328  	18,349207  	-0,047951  
27,554000  	23,955838  	30,116133  	24,376025  	657,183579  	80,068447  	69,852573  	0,009829  	0,006360  	0,003962  	0,004421  	0,004176  	0,000001  	-0,000000  	26,265032  	25,252482  	26,260793  	25,956874  	28,579850  	27,459822  	28,857604  	28,295447  	30,643787  	30,253448  	33,326086  	62,478787  	26,669375  	25,841370  	27,979415  	68,465050  	0,347997  	0,176333  	-4541,444931  	18476,281587  	-0,027577  	-0,049989  	0,165764  	0,083994  	-3,595171  	5064,813046  	126522,508749  	18,350538  	-0,047942  
28,557000  	23,964131  	30,137305  	24,376148  	1256,670793  	80,066072  	69,853819  	0,009832  	0,006285  	0,003960  	0,004393  	0,004205  	-0,000001  	-0,000000  	26,255619  	25,235534  	26,246210  	25,947154  	28,565961  	27,452629  	28,856818  	28,288177  	30,635651  	30,252801  	33,326296  	62,466291  	26,662511  	25,799321  	27,980951  	68,447846  	0,324983  	0,164671  	-4249,972857  	25562,300725  	-0,018538  	-0,050015  	0,188359  	0,095443  	-4,083776  	4902,917533  	126574,513702  	18,358081  	-0,047964  
29,552000  	23,988030  	30,145306  	24,376916  	57,696365  	80,061511  	69,858584  	0,009832  	0,006241  	0,003966  	0,004401  	0,004202  	0,000002  	-0,000000  	26,260524  	25,249040  	26,261427  	25,961306  	28,579058  	27,459314  	28,866932  	28,300918  	30,635029  	30,260304  	33,332571  	62,469847  	26,669590  	25,796034  	27,987101  	68,469737  	0,331440  	0,167943  	-4323,246272  	1805,551110  	-0,053871  	-0,049974  	0,186331  	0,094415  	-4,036129  	4808,195447  	126575,918859  	18,358285  	-0,047929  
30,553000  	23,987047  	30,144691  	24,376855  	1256,670793  	80,056450  	69,868115  	0,009836  	0,006314  	0,003964  	0,004378  	0,004208  	-0,000000  	-0,000000  	26,265052  	25,255768  	26,267814  	25,968598  	28,579582  	27,460137  	28,866412  	28,299971  	30,650292  	30,252216  	33,341092  	62,476241  	26,681094  	25,793386  	28,000099  	68,477930  	0,312751  	0,158473  	-4079,709013  	25555,626814  	-0,018533  	-0,050001  	0,191233  	0,096899  	-4,136378  	4966,310367  	126666,103143  	18,371365  	-0,047952  
31,552000  	23,989075  	30,151522  	24,376486  	1256,670793  	80,052138  	69,856840  	0,009836  	0,006334  	0,003963  	0,004416  	0,004221  	0,000000  	-0,000000  	26,264036  	25,241191  	26,244618  	25,956180  	28,573236  	27,460337  	28,849981  	28,292658  	30,634570  	30,244393  	33,325284  	62,470116  	26,666734  	25,772736  	27,982114  	68,468832  	0,343704  	0,174158  	-4486,984092  	25553,776716  	-0,018532  	-0,049996  	0,200924  	0,101810  	-4,348968  	5009,422843  	126675,713291  	18,372759  	-0,047948  
32,551000  	23,982440  	30,160878  	24,377039  	57,696365  	80,048201  	69,846873  	0,009826  	0,006329  	0,003961  	0,004438  	0,004177  	0,000002  	-0,000000  	26,247035  	25,237974  	26,250767  	25,952376  	28,571685  	27,456206  	28,849349  	28,289304  	30,630452  	30,243505  	33,317702  	62,470436  	26,652140  	25,759125  	27,980234  	68,465534  	0,361571  	0,183211  	-4732,478277  	1805,608403  	-0,053873  	-0,049976  	0,166226  	0,084228  	-3,600057  	4997,232838  	126445,281572  	18,339338  	-0,047931  
33,552000  	23,969415  	30,161093  	24,377346  	-242,047242  	80,045827  	69,825415  	0,009836  	0,006337  	0,003956  	0,004434  	0,004178  	0,000001  	-0,000000  	26,255973  	25,243839  	26,253958  	25,956249  	28,573682  	27,464065  	28,855360  	28,297353  	30,635492  	30,256672  	33,327578  	62,474095  	26,662382  	25,743211  	27,985431  	68,476253  	0,358573  	0,181691  	-4703,297155  	-27056,678782  	-0,103034  	-0,049989  	0,167258  	0,084751  	-3,629173  	5015,287571  	126663,525844  	18,370991  	-0,047942  
34,554000  	23,949571  	30,159185  	24,376855  	357,439972  	80,051513  	69,830086  	0,009836  	0,006344  	0,003960  	0,004402  	0,004146  	0,000000  	-0,000000  	26,267042  	25,243684  	26,260901  	25,963361  	28,572501  	27,459879  	28,855702  	28,295565  	30,641416  	30,254997  	33,331150  	62,475227  	26,667138  	25,735579  	27,983391  	68,477115  	0,332143  	0,168299  	-4369,248950  	12526,099021  	-0,036487  	-0,049996  	0,142111  	0,072009  	-3,083843  	5030,617222  	126670,954114  	18,372069  	-0,047948  
35,553000  	23,935011  	30,159462  	24,377316  	1256,670793  	80,052857  	69,847092  	0,009831  	0,006348  	0,003960  	0,004421  	0,004234  	0,000001  	-0,000000  	26,264992  	25,240968  	26,262834  	25,964593  	28,571082  	27,462434  	28,856847  	28,298588  	30,638477  	30,253287  	33,324612  	62,476292  	26,658246  	25,725601  	27,982754  	68,473306  	0,348061  	0,176365  	-4589,598483  	25549,323937  	-0,018529  	-0,049987  	0,211903  	0,107373  	-4,591316  	5039,055639  	126559,967849  	18,355971  	-0,047940  
36,551000  	23,931632  	30,158354  	24,377992  	57,696365  	80,049482  	69,846655  	0,009828  	0,006290  	0,003962  	0,004411  	0,004187  	0,000001  	-0,000000  	26,255264  	25,239643  	26,255793  	25,960058  	28,570824  	27,456104  	28,851334  	28,297374  	30,639321  	30,250092  	33,318642  	62,471376  	26,652239  	25,722170  	27,982274  	68,465604  	0,339650  	0,172103  	-4480,319840  	1805,968344  	-0,053885  	-0,049989  	0,174329  	0,088334  	-3,776099  	4914,549363  	126494,568003  	18,346486  	-0,047942  
37,555000  	23,929205  	30,148291  	24,377101  	1256,670793  	80,048358  	69,853725  	0,009837  	0,006250  	0,003961  	0,004353  	0,004248  	-0,000000  	-0,000000  	26,262790  	25,253513  	26,264428  	25,963275  	28,582006  	27,466604  	28,865985  	28,306296  	30,646213  	30,252800  	33,331634  	62,481038  	26,663074  	25,724385  	27,990971  	68,469851  	0,292849  	0,148389  	-3858,227682  	25557,724179  	-0,018535  	-0,050005  	0,222879  	0,112934  	-4,823852  	4828,439019  	126693,217741  	18,375298  	-0,047956  
38,554000  	23,934366  	30,136720  	24,376548  	1256,670793  	80,046858  	69,861200  	0,009835  	0,006311  	0,003956  	0,004369  	0,004266  	0,000002  	-0,000000  	26,264417  	25,250511  	26,262631  	25,966289  	28,578870  	27,473162  	28,864592  	28,303103  	30,639779  	30,250881  	33,334254  	62,480394  	26,655393  	25,715222  	27,987863  	68,463852  	0,305899  	0,155001  	-4019,313067  	25543,871219  	-0,018525  	-0,049975  	0,236841  	0,120009  	-5,121537  	4958,960002  	126641,763554  	18,367835  	-0,047930  
39,553000  	23,946346  	30,136443  	24,377008  	1256,670793  	80,043890  	69,861730  	0,009832  	0,006340  	0,003957  	0,004319  	0,004258  	-0,000001  	-0,000000  	26,254074  	25,239725  	26,254144  	25,966640  	28,574899  	27,467508  	28,850065  	28,294569  	30,635247  	30,253048  	33,323667  	62,469160  	26,646416  	25,696270  	27,981464  	68,455618  	0,264747  	0,134149  	-3471,726155  	25560,234857  	-0,018537  	-0,050011  	0,230331  	0,116710  	-4,979053  	5021,836400  	126573,200338  	18,357891  	-0,047961  
40,552000  	23,979030  	30,130104  	24,376763  	57,696365  	80,041266  	69,834447  	0,009828  	0,006345  	0,003964  	0,004329  	0,004276  	0,000000  	-0,000000  	26,252089  	25,240615  	26,250789  	25,961182  	28,577399  	27,460333  	28,850290  	28,293428  	30,637192  	30,254113  	33,321964  	62,468459  	26,648682  	25,680060  	27,979090  	68,458573  	0,273527  	0,138598  	-3564,251007  	1806,336346  	-0,053894  	-0,049998  	0,245067  	0,124177  	-5,310418  	5032,545012  	126489,215694  	18,345710  	-0,047950  
41,552000  	24,000932  	30,123026  	24,375902  	956,927186  	80,040828  	69,814545  	0,009836  	0,006339  	0,003963  	0,004322  	0,004256  	-0,000001  	-0,000000  	26,259491  	25,244067  	26,249287  	25,954444  	28,572176  	27,457527  	28,854264  	28,294991  	30,636292  	30,248586  	33,323097  	62,474243  	26,650328  	25,671861  	27,978811  	68,459313  	0,267225  	0,135405  	-3465,719430  	22511,908442  	-0,022175  	-0,050012  	0,228862  	0,115966  	-4,968704  	5020,253843  	126663,003323  	18,370915  	-0,047962  
42,551000  	23,991532  	30,129365  	24,375104  	-242,047242  	80,044577  	69,820400  	0,009827  	0,006343  	0,003967  	0,004313  	0,004295  	-0,000000  	-0,000000  	26,262209  	25,242692  	26,252234  	25,956101  	28,569470  	27,458199  	28,853776  	28,295872  	30,638015  	30,247904  	33,320776  	62,471699  	26,650535  	25,667900  	27,980104  	68,453855  	0,260160  	0,131825  	-3382,765472  	-27062,878518  	-0,103058  	-0,050002  	0,260050  	0,131769  	-5,644658  	5029,380606  	126485,812247  	18,345216  	-0,047953  
43,553000  	23,982317  	30,149399  	24,374735  	657,183579  	80,043296  	69,836689  	0,009839  	0,006339  	0,003961  	0,004338  	0,004264  	0,000000  	-0,000000  	26,255621  	25,237482  	26,250679  	25,956675  	28,567477  	27,454435  	28,853492  	28,294044  	30,636577  	30,245556  	33,323081  	62,461042  	26,647991  	25,659324  	27,978419  	68,451704  	0,280436  	0,142099  	-3663,789002  	18479,842820  	-0,027582  	-0,050000  	0,235319  	0,119238  	-5,099070  	5020,110231  	126734,616931  	18,381302  	-0,047951  
44,551000  	23,994665  	30,165155  	24,375902  	1256,670793  	80,042734  	69,852448  	0,009834  	0,006305  	0,003957  	0,004349  	0,004248  	0,000001  	-0,000000  	26,253257  	25,238289  	26,247880  	25,956014  	28,565200  	27,457597  	28,853119  	28,295960  	30,631588  	30,244605  	33,327506  	62,457915  	26,655318  	25,651462  	27,983234  	68,457609  	0,289177  	0,146528  	-3780,065182  	25551,435793  	-0,018530  	-0,049991  	0,222420  	0,112702  	-4,811875  	4947,333125  	126619,422255  	18,364595  	-0,047944  
45,554000  	23,985143  	30,169217  	24,375780  	57,696365  	80,043952  	69,861263  	0,009819  	0,006318  	0,003958  	0,004279  	0,004225  	0,000001  	-0,000000  	26,258334  	25,242319  	26,257330  	25,963300  	28,575521  	27,463460  	28,852696  	28,296203  	30,633362  	30,251172  	33,330313  	62,462441  	26,664489  	25,649310  	27,984371  	68,458376  	0,232610  	0,117865  	-3047,330325  	1805,973913  	-0,053882  	-0,049985  	0,204490  	0,103617  	-4,420680  	4973,669222  	126302,259127  	18,318594  	-0,047939  
46,552000  	23,988460  	30,170448  	24,375165  	1256,670793  	80,044390  	69,866869  	0,009829  	0,006376  	0,003962  	0,004364  	0,004223  	-0,000000  	-0,000000  	26,259471  	25,243402  	26,266889  	25,967331  	28,570604  	27,459460  	28,855265  	28,301053  	30,633521  	30,250174  	33,332446  	62,470667  	26,664205  	25,635415  	27,986129  	68,452564  	0,301190  	0,152615  	-3944,440363  	25555,436454  	-0,018533  	-0,050000  	0,203091  	0,102908  	-4,388205  	5100,435081  	126524,620016  	18,350845  	-0,047951  
47,554000  	23,995096  	30,174049  	24,375626  	1256,670793  	80,043671  	69,868052  	0,009825  	0,006332  	0,003959  	0,004421  	0,004242  	-0,000001  	-0,000000  	26,267816  	25,239542  	26,262868  	25,965493  	28,579024  	27,466699  	28,856612  	28,298714  	30,641585  	30,250878  	33,332923  	62,471268  	26,657646  	25,634955  	27,990380  	68,452842  	0,347431  	0,176046  	-4547,781493  	25562,858505  	-0,018539  	-0,050016  	0,217604  	0,110262  	-4,700929  	5004,436055  	126438,863038  	18,338407  	-0,047965  
48,647000  	23,974699  	30,175957  	24,375933  	1256,670793  	80,042859  	69,868675  	0,009828  	0,006333  	0,003963  	0,004418  	0,004243  	0,000000  	-0,000000  	26,262503  	25,239685  	26,257394  	25,963521  	28,575328  	27,460804  	28,856460  	28,296120  	30,637455  	30,250236  	33,330121  	62,471429  	26,647936  	25,623354  	27,981124  	68,449170  	0,345537  	0,175086  	-4539,329066  	25554,724739  	-0,018533  	-0,049999  	0,218647  	0,110790  	-4,722782  	5006,904334  	126494,080788  	18,346415  	-0,047950  
49,554000  	23,920358  	30,178234  	24,375565  	1256,670793  	80,044171  	69,852916  	0,009841  	0,006341  	0,003960  	0,004413  	0,004199  	-0,000001  	-0,000001  	26,262696  	25,245882  	26,255133  	25,962697  	28,571581  	27,460305  	28,861478  	28,302582  	30,644839  	30,254070  	33,322696  	62,475724  	26,655056  	25,615847  	27,989146  	68,460256  	0,341239  	0,172908  	-4523,797248  	25559,935479  	-0,018537  	-0,050010  	0,184062  	0,093266  	-3,982411  	5024,676796  	126784,884855  	18,388593  	-0,047960  
50,552000  	23,909546  	30,177311  	24,375565  	657,183579  	80,049732  	69,859892  	0,009830  	0,006343  	0,003961  	0,004399  	0,004256  	-0,000002  	-0,000000  	26,264967  	25,251588  	26,265221  	25,968916  	28,586760  	27,472405  	28,863983  	28,308255  	30,652335  	30,257675  	33,329551  	62,475857  	26,651360  	25,628487  	27,995225  	68,451988  	0,330127  	0,167278  	-4383,415503  	18486,071823  	-0,027591  	-0,050019  	0,228879  	0,115975  	-4,951395  	5027,808660  	126532,387219  	18,351971  	-0,047968  
51,553000  	23,932861  	30,163093  	24,375472  	657,183579  	80,057043  	69,856061  	0,009836  	0,006327  	0,003958  	0,004400  	0,004222  	0,000001  	-0,000001  	26,267444  	25,244491  	26,270394  	25,971861  	28,580861  	27,466889  	28,868696  	28,309537  	30,644896  	30,261103  	33,335074  	62,477601  	26,658558  	25,653829  	27,989064  	68,465416  	0,330734  	0,167585  	-4365,166216  	18477,029115  	-0,027578  	-0,049991  	0,201863  	0,102285  	-4,371722  	4993,560485  	126664,246075  	18,371096  	-0,047944  
52,552000  	23,950738  	30,145429  	24,374674  	1256,670793  	80,062417  	69,859612  	0,009827  	0,006299  	0,003963  	0,004361  	0,004250  	-0,000001  	-0,000000  	26,265599  	25,241981  	26,255537  	25,964521  	28,564491  	27,466372  	28,854722  	28,298020  	30,641994  	30,255556  	33,342186  	62,470793  	26,664389  	25,672501  	27,994447  	68,447442  	0,298728  	0,151368  	-3920,241486  	25560,905698  	-0,018537  	-0,050012  	0,223920  	0,113462  	-4,850291  	4932,812792  	126474,133199  	18,343522  	-0,047962  
53,553000  	23,965821  	30,133612  	24,373199  	1256,670793  	80,066072  	69,870980  	0,009836  	0,006350  	0,003959  	0,004397  	0,004288  	-0,000001  	-0,000000  	26,268685  	25,244148  	26,273201  	25,965137  	28,579128  	27,472906  	28,866304  	28,306912  	30,646507  	30,260989  	33,336337  	62,477394  	26,658272  	25,703951  	27,994778  	68,460974  	0,328591  	0,166500  	-4293,411726  	25560,805687  	-0,018537  	-0,050012  	0,254253  	0,128832  	-5,503153  	5044,269517  	126666,971657  	18,371491  	-0,047961  
54,552000  	23,958694  	30,138721  	24,373015  	657,183579  	80,066635  	69,876337  	0,009828  	0,006338  	0,003961  	0,004351  	0,004231  	0,000000  	-0,000000  	26,259065  	25,248244  	26,256329  	25,958879  	28,572665  	27,466611  	28,851633  	28,298902  	30,648867  	30,258062  	33,334140  	62,469429  	26,650977  	25,721875  	27,991466  	68,451732  	0,290674  	0,147287  	-3805,515597  	18479,116241  	-0,027581  	-0,049997  	0,209232  	0,106020  	-4,526590  	5018,391845  	126493,981932  	18,346401  	-0,047949  
55,554000  	23,952704  	30,147399  	24,372001  	657,183579  	80,066697  	69,851763  	0,009829  	0,006309  	0,003960  	0,004321  	0,004182  	0,000001  	-0,000000  	26,271119  	25,253880  	26,258016  	25,965673  	28,569704  	27,464393  	28,850971  	28,306665  	30,631081  	30,254197  	33,327286  	62,471755  	26,650859  	25,756101  	27,995534  	68,455235  	0,266967  	0,135274  	-3503,446766  	18477,900826  	-0,027579  	-0,049994  	0,170413  	0,086350  	-3,695668  	4954,038299  	126514,642691  	18,349398  	-0,047946  
56,551000  	23,954977  	30,147953  	24,372001  	1256,670793  	80,066947  	69,848773  	0,009831  	0,006343  	0,003961  	0,004434  	0,004209  	0,000003  	-0,000000  	26,265220  	25,243916  	26,256959  	25,967455  	28,568208  	27,457653  	28,865439  	28,298822  	30,645428  	30,257459  	33,330524  	62,460146  	26,646822  	25,791262  	27,980517  	68,465819  	0,358467  	0,181638  	-4702,899390  	25536,171731  	-0,018519  	-0,049958  	0,191752  	0,097162  	-4,159739  	5028,434750  	126551,529843  	18,354748  	-0,047915  
57,554000  	23,933260  	30,145860  	24,371110  	1256,670793  	80,065791  	69,852106  	0,009827  	0,006258  	0,003956  	0,004405  	0,004218  	0,000000  	-0,000000  	26,261418  	25,249907  	26,252078  	25,962517  	28,572800  	27,455651  	28,848354  	28,288321  	30,645606  	30,255764  	33,328002  	62,466850  	26,645914  	25,812535  	27,979611  	68,455399  	0,334946  	0,169720  	-4408,247180  	25554,559265  	-0,018533  	-0,049998  	0,199011  	0,100840  	-4,315330  	4845,675944  	126474,853431  	18,343627  	-0,047950  
58,552000  	23,931663  	30,149184  	24,370434  	1256,670793  	80,065166  	69,854161  	0,009831  	0,006298  	0,003962  	0,004422  	0,004221  	0,000000  	-0,000000  	26,262767  	25,241591  	26,252277  	25,963380  	28,570203  	27,456961  	28,846611  	28,288005  	30,640444  	30,251114  	33,329446  	62,468803  	26,641803  	25,832354  	27,983344  	68,448680  	0,348299  	0,176486  	-4587,614396  	25554,463283  	-0,018533  	-0,049998  	0,201194  	0,101946  	-4,361517  	4930,924619  	126564,804698  	18,356673  	-0,047949  
59,553000  	23,953319  	30,142444  	24,369881  	357,439972  	80,064479  	69,856373  	0,009834  	0,006344  	0,003961  	0,004338  	0,004213  	-0,000001  	-0,000000  	26,268910  	25,248339  	26,260214  	25,956792  	28,567015  	27,468428  	28,852390  	28,297417  	30,633106  	30,257691  	33,331044  	62,469454  	26,651518  	25,858799  	27,995806  	68,451864  	0,280566  	0,142165  	-3678,587434  	12531,448448  	-0,036502  	-0,050019  	0,194787  	0,098700  	-4,221430  	5030,517472  	126617,360416  	18,364296  	-0,047967  
60,552000  	23,932983  	30,132412  	24,369328  	956,927186  	80,067541  	69,844102  	0,009820  	0,006333  	0,003965  	0,004385  	0,004247  	-0,000000  	-0,000000  	26,265816  	25,244024  	26,256783  	25,961325  	28,571536  	27,470363  	28,855811  	28,300726  	30,639050  	30,259891  	33,329692  	62,465869  	26,652037  	25,878567  	27,994944  	68,451240  	0,318683  	0,161479  	-4185,320709  	22509,053310  	-0,022172  	-0,050004  	0,221743  	0,112359  	-4,812838  	5005,827601  	126330,404645  	18,322676  	-0,047955  
61,552000  	23,886600  	30,129273  	24,367516  	1256,670793  	80,068728  	69,842669  	0,009838  	0,006339  	0,003960  	0,004355  	0,004210  	-0,000000  	-0,000000  	26,265066  	25,252562  	26,266022  	25,967007  	28,580378  	27,467303  	28,857950  	28,296444  	30,649525  	30,264881  	33,335455  	62,472682  	26,657229  	25,901425  	27,997452  	68,459189  	0,294403  	0,149176  	-3893,421680  	25558,079960  	-0,018535  	-0,050005  	0,192298  	0,097439  	-4,174816  	5020,638694  	126703,195066  	18,376745  	-0,047956  
62,556000  	23,888197  	30,125211  	24,367147  	1256,670793  	80,065041  	69,844849  	0,009835  	0,006337  	0,003961  	0,004344  	0,004282  	0,000001  	-0,000000  	26,262428  	25,252062  	26,260356  	25,969157  	28,578843  	27,464447  	28,852965  	28,299619  	30,643002  	30,261660  	33,334255  	62,473156  	26,664643  	25,918579  	27,992271  	68,461596  	0,285688  	0,144760  	-3774,741446  	25552,221231  	-0,018531  	-0,049992  	0,249579  	0,126464  	-5,415283  	5016,375623  	126645,894294  	18,368434  	-0,047945  
63,552000  	23,899716  	30,114502  	24,367055  	1256,670793  	80,059980  	69,856124  	0,009831  	0,006349  	0,003957  	0,004392  	0,004271  	-0,000001  	-0,000000  	26,261769  	25,245480  	26,251347  	25,963464  	28,575896  	27,461856  	28,852418  	28,301885  	30,638601  	30,255054  	33,332840  	62,470425  	26,662584  	25,925839  	27,987813  	68,456612  	0,323987  	0,164166  	-4265,521021  	25560,114182  	-0,018537  	-0,050010  	0,240978  	0,122105  	-5,220295  	5042,336067  	126557,531772  	18,355618  	-0,047960  
64,554000  	23,913539  	30,107363  	24,367116  	1256,670793  	80,060042  	69,862477  	0,009832  	0,006338  	0,003959  	0,004342  	0,004251  	0,000001  	-0,000000  	26,262785  	25,252069  	26,247828  	25,958893  	28,574941  	27,465669  	28,855858  	28,300525  	30,640841  	30,259572  	33,334842  	62,472601  	26,670972  	25,936777  	27,991481  	68,456260  	0,283724  	0,143765  	-3722,834218  	25551,097496  	-0,018530  	-0,049990  	0,224988  	0,114003  	-4,870915  	5016,662846  	126590,019863  	18,360330  	-0,047943  
65,551000  	23,945824  	30,103300  	24,367024  	956,927186  	80,063667  	69,860422  	0,009829  	0,006323  	0,003959  	0,004317  	0,004238  	0,000001  	-0,000000  	26,269314  	25,249352  	26,253098  	25,957049  	28,572301  	27,465306  	28,854640  	28,297544  	30,640996  	30,254779  	33,331598  	62,465494  	26,679324  	25,943033  	27,984264  	68,458881  	0,263729  	0,133633  	-3440,150825  	22503,329777  	-0,022166  	-0,049990  	0,214584  	0,108731  	-4,648247  	4985,112871  	126512,361958  	18,349067  	-0,047943  
66,555000  	23,972057  	30,108101  	24,367761  	357,439972  	80,063542  	69,852012  	0,009831  	0,006363  	0,003961  	0,004384  	0,004318  	-0,000000  	-0,000000  	26,271931  	25,243448  	26,257817  	25,953915  	28,573478  	27,458419  	28,854382  	28,296404  	30,640740  	30,247912  	33,330539  	62,467686  	26,678922  	25,949268  	27,985960  	68,460209  	0,317817  	0,161040  	-4131,260854  	12528,499669  	-0,036493  	-0,050005  	0,278410  	0,141072  	-6,035721  	5072,448512  	126559,981972  	18,355973  	-0,047956  
67,552000  	23,983484  	30,119456  	24,368499  	1256,670793  	80,057387  	69,865872  	0,009834  	0,006301  	0,003964  	0,004351  	0,004276  	-0,000001  	-0,000000  	26,269147  	25,247377  	26,253310  	25,956532  	28,576999  	27,458916  	28,850264  	28,297654  	30,640115  	30,250225  	33,332497  	62,475058  	26,679722  	25,958346  	27,990017  	68,459778  	0,290733  	0,147317  	-3779,149332  	25559,812834  	-0,018536  	-0,050009  	0,245005  	0,124146  	-5,301125  	4936,857262  	126635,175554  	18,366879  	-0,047959  
68,554000  	23,994358  	30,133797  	24,368007  	1256,670793  	80,051888  	69,886926  	0,009837  	0,006245  	0,003962  	0,004373  	0,004206  	-0,000001  	-0,000001  	26,268338  	25,248228  	26,254610  	25,962810  	28,578278  	27,462802  	28,849364  	28,300589  	30,640932  	30,250088  	33,326662  	62,471995  	26,679764  	25,959900  	27,980545  	68,464583  	0,309204  	0,156676  	-4021,522853  	25562,329009  	-0,018538  	-0,050015  	0,189190  	0,095864  	-4,082822  	4817,679470  	126682,661407  	18,373767  	-0,047964  
69,552000  	23,955070  	30,147983  	24,366932  	956,927186  	80,045671  	69,885431  	0,009827  	0,006299  	0,003959  	0,004373  	0,004278  	0,000001  	-0,000001  	26,261619  	25,248226  	26,260168  	25,962728  	28,575631  	27,463050  	28,860174  	28,302991  	30,642475  	30,249703  	33,325589  	62,475599  	26,675286  	25,965733  	27,986285  	68,470331  	0,309039  	0,156592  	-4054,388921  	22503,694123  	-0,022166  	-0,049991  	0,246283  	0,124793  	-5,312439  	4933,584616  	126469,324595  	18,342825  	-0,047944  
70,556000  	23,907273  	30,164478  	24,368284  	357,439972  	80,039985  	69,865311  	0,009836  	0,006344  	0,003955  	0,004421  	0,004150  	0,000001  	-0,000001  	26,257255  	25,245925  	26,255924  	25,962245  	28,568013  	27,462079  	28,855968  	28,299123  	30,639791  	30,247165  	33,334974  	62,474103  	26,670433  	25,978428  	27,990639  	68,463178  	0,347353  	0,176007  	-4604,372228  	12525,870949  	-0,036486  	-0,049993  	0,144662  	0,073302  	-3,124864  	5030,888881  	126661,040339  	18,370631  	-0,047946  
71,552000  	23,888750  	30,162078  	24,368376  	1256,670793  	80,036892  	69,848711  	0,009834  	0,006319  	0,003959  	0,004359  	0,004224  	0,000001  	-0,000000  	26,262303  	25,239696  	26,252511  	25,962269  	28,567301  	27,453626  	28,849549  	28,296627  	30,639218  	30,246785  	33,334358  	62,468414  	26,668699  	25,987394  	27,983441  	68,459924  	0,297272  	0,150630  	-3950,668693  	25549,875784  	-0,018529  	-0,049987  	0,203430  	0,103080  	-4,400139  	4977,318229  	126630,953020  	18,366267  	-0,047941  
72,554000  	23,875296  	30,139675  	24,369420  	1256,670793  	80,030955  	69,833076  	0,009833  	0,006273  	0,003962  	0,004383  	0,004235  	-0,000001  	-0,000000  	26,258647  	25,238472  	26,247448  	25,956264  	28,567436  	27,455828  	28,855720  	28,299355  	30,633571  	30,251216  	33,332422  	62,464687  	26,662383  	26,000322  	27,983261  	68,458352  	0,317104  	0,160679  	-4208,227256  	25563,611882  	-0,018539  	-0,050018  	0,212180  	0,107513  	-4,593748  	4876,700994  	126615,298577  	18,363996  	-0,047966  
73,551000  	23,903648  	30,110963  	24,370987  	1256,670793  	80,028112  	69,822580  	0,009830  	0,006305  	0,003960  	0,004377  	0,004231  	-0,000002  	-0,000000  	26,259920  	25,245428  	26,255699  	25,954635  	28,569985  	27,466406  	28,856043  	28,310092  	30,642659  	30,253927  	33,331085  	62,473055  	26,676155  	26,010765  	27,982414  	68,466089  	0,312303  	0,158246  	-4106,749242  	25564,992695  	-0,018540  	-0,050021  	0,209014  	0,105909  	-4,528595  	4947,338077  	126533,573483  	18,352143  	-0,047969  
74,552000  	23,910160  	30,100746  	24,371171  	1256,670793  	80,025176  	69,825508  	0,009824  	0,006326  	0,003966  	0,004345  	0,004210  	0,000001  	-0,000000  	26,266554  	25,253729  	26,263827  	25,963430  	28,570703  	27,464344  	28,859867  	28,306579  	30,647781  	30,258793  	33,341050  	62,484075  	26,673765  	26,020172  	27,996147  	68,470859  	0,286323  	0,145082  	-3754,971840  	25550,398970  	-0,018530  	-0,049989  	0,192536  	0,097560  	-4,169184  	4991,370232  	126419,988736  	18,335669  	-0,047942  
75,553000  	23,903525  	30,098438  	24,372462  	1256,670793  	80,020552  	69,827719  	0,009827  	0,006324  	0,003963  	0,004363  	0,004267  	-0,000001  	-0,000000  	26,270942  	25,253832  	26,253438  	25,967804  	28,577384  	27,462347  	28,862424  	28,303825  	30,640270  	30,271578  	33,338078  	62,484473  	26,669724  	26,028379  	27,988247  	68,466984  	0,300457  	0,152244  	-3943,081174  	25558,958183  	-0,018536  	-0,050008  	0,237488  	0,120337  	-5,139116  	4987,716273  	126478,511077  	18,344157  	-0,047958  
76,553000  	23,909423  	30,099854  	24,373138  	1256,670793  	80,014241  	69,811213  	0,009832  	0,006334  	0,003961  	0,004401  	0,004234  	0,000001  	-0,000000  	26,268265  	25,248386  	26,259430  	25,964396  	28,574848  	27,457483  	28,861684  	28,309162  	30,647504  	30,260288  	33,343253  	62,485902  	26,669626  	26,040743  	27,998969  	68,477761  	0,331610  	0,168029  	-4348,779793  	25549,564197  	-0,018529  	-0,049987  	0,211189  	0,107011  	-4,574593  	5008,570370  	126585,020608  	18,359605  	-0,047940  
77,552000  	23,913662  	30,098254  	24,374182  	1256,670793  	80,006899  	69,806292  	0,009825  	0,006336  	0,003959  	0,004377  	0,004180  	0,000000  	-0,000000  	26,257490  	25,240524  	26,247825  	25,954438  	28,558937  	27,454359  	28,847533  	28,283708  	30,639131  	30,245623  	33,328196  	62,468305  	26,649462  	26,028807  	27,989392  	68,467185  	0,311754  	0,157968  	-4084,518158  	25553,344278  	-0,018532  	-0,049995  	0,168573  	0,085417  	-3,650606  	5012,237771  	126434,174472  	18,337727  	-0,047947  
78,552000  	23,930925  	30,099669  	24,375288  	1256,670793  	80,006649  	69,826972  	0,009829  	0,006342  	0,003957  	0,004379  	0,004182  	0,000002  	-0,000000  	26,264839  	25,241681  	26,245674  	25,956268  	28,569591  	27,467224  	28,854423  	28,293924  	30,642495  	30,250091  	33,326180  	62,477308  	26,649202  	26,032971  	27,993770  	68,456186  	0,313702  	0,158955  	-4099,503566  	25544,467857  	-0,018525  	-0,049976  	0,170694  	0,086492  	-3,688973  	5026,285529  	126527,649225  	18,351284  	-0,047931  
79,552000  	23,937376  	30,102346  	24,375196  	357,439972  	80,011554  	69,824761  	0,009832  	0,006332  	0,003962  	0,004415  	0,004205  	-0,000000  	-0,000000  	26,267834  	25,243296  	26,260981  	25,963514  	28,573600  	27,471136  	28,863616  	28,295634  	30,651315  	30,251110  	33,335829  	62,477794  	26,649931  	26,038770  	27,995648  	68,468089  	0,342728  	0,173663  	-4476,083538  	12527,145224  	-0,036490  	-0,050001  	0,188406  	0,095467  	-4,074589  	5003,627444  	126591,756891  	18,360582  	-0,047952  
80,556000  	23,930557  	30,108255  	24,376240  	-242,047242  	80,018427  	69,823079  	0,009830  	0,006280  	0,003961  	0,004406  	0,004176  	0,000001  	-0,000000  	26,257143  	25,246762  	26,249157  	25,951244  	28,567761  	27,451841  	28,849641  	28,291559  	30,648791  	30,247483  	33,324099  	62,467806  	26,640779  	26,022534  	27,992027  	68,469079  	0,335264  	0,169881  	-4387,648128  	-27055,863051  	-0,103031  	-0,049987  	0,166040  	0,084133  	-3,593898  	4892,955277  	126549,390332  	18,354437  	-0,047940  
81,552000  	23,919529  	30,118718  	24,376640  	1256,670793  	80,026988  	69,833543  	0,009836  	0,006301  	0,003967  	0,004361  	0,004203  	0,000001  	-0,000000  	26,265516  	25,244702  	26,251457  	25,959675  	28,577706  	27,454976  	28,857645  	28,295658  	30,644712  	30,247158  	33,327879  	62,471986  	26,651262  	26,014708  	27,996802  	68,470001  	0,298978  	0,151495  	-3926,385646  	25552,166065  	-0,018531  	-0,049993  	0,186925  	0,094716  	-4,045219  	4938,013229  	126670,212699  	18,371961  	-0,047945  
82,555000  	23,912833  	30,120380  	24,376640  	1256,670793  	80,030299  	69,832298  	0,009828  	0,006350  	0,003959  	0,004372  	0,004197  	0,000002  	-0,000000  	26,251425  	25,231667  	26,245312  	25,946965  	28,562306  	27,442907  	28,850446  	28,285404  	30,639015  	30,243001  	33,324961  	62,466992  	26,636940  	25,992321  	27,986233  	68,454251  	0,307999  	0,156066  	-4050,308441  	25546,665990  	-0,018527  	-0,049981  	0,182038  	0,092240  	-3,941214  	5043,885374  	126496,608659  	18,346782  	-0,047935  
83,553000  	23,925642  	30,116871  	24,376916  	357,439972  	80,031768  	69,824698  	0,009826  	0,006331  	0,003960  	0,004386  	0,004268  	0,000001  	-0,000000  	26,245624  	25,232143  	26,238087  	25,943029  	28,558379  	27,447303  	28,838068  	28,281669  	30,632728  	30,239383  	33,328814  	62,465951  	26,638026  	25,972778  	27,990216  	68,457053  	0,319466  	0,161876  	-4190,056393  	12524,412624  	-0,036482  	-0,049989  	0,238406  	0,120802  	-5,166185  	5003,108886  	126453,069958  	18,340467  	-0,047942  
84,552000  	23,957343  	30,105732  	24,376978  	956,927186  	80,034330  	69,825321  	0,009838  	0,006331  	0,003955  	0,004349  	0,004239  	0,000000  	-0,000000  	26,260960  	25,243472  	26,256434  	25,953895  	28,565799  	27,458424  	28,848807  	28,289532  	30,634443  	30,247452  	33,328036  	62,475988  	26,645313  	25,954186  	27,996647  	68,470405  	0,289299  	0,146590  	-3768,129894  	22505,571198  	-0,022168  	-0,049996  	0,215667  	0,109280  	-4,674326  	5002,803269  	126707,947182  	18,377434  	-0,047948  
85,551000  	23,999089  	30,103516  	24,376548  	-242,047242  	80,038235  	69,820307  	0,009834  	0,006332  	0,003962  	0,004384  	0,004265  	0,000002  	-0,000000  	26,251288  	25,237231  	26,247100  	25,958423  	28,564550  	27,452666  	28,854970  	28,288072  	30,633178  	30,252365  	33,324949  	62,474004  	26,638853  	25,935536  	27,992496  	68,471899  	0,317539  	0,160899  	-4106,369695  	-27051,477909  	-0,103014  	-0,049978  	0,236524  	0,119849  	-5,130864  	5004,973006  	126624,280287  	18,365299  	-0,047933  
86,555000  	23,985941  	30,116687  	24,375012  	-242,047242  	80,038298  	69,822362  	0,009833  	0,006331  	0,003960  	0,004370  	0,004256  	-0,000000  	-0,000000  	26,258697  	25,240165  	26,247731  	25,964419  	28,573621  	27,458300  	28,858997  	28,299518  	30,643443  	30,260320  	33,327467  	62,477009  	26,650120  	25,922640  	27,995137  	68,471783  	0,306125  	0,155116  	-3975,835565  	-27062,725986  	-0,103058  	-0,050001  	0,228642  	0,115855  	-4,958910  	5001,872977  	126609,755618  	18,363193  	-0,047953  
87,552000  	23,942445  	30,136166  	24,375196  	-242,047242  	80,035798  	69,836035  	0,009838  	0,006330  	0,003965  	0,004338  	0,004244  	-0,000001  	-0,000000  	26,263947  	25,242938  	26,251472  	25,957321  	28,576784  	27,459530  	28,852761  	28,296767  	30,639120  	30,249367  	33,330989  	62,474648  	26,655691  	25,908036  	27,989522  	68,467097  	0,280659  	0,142212  	-3682,552301  	-27069,192280  	-0,103082  	-0,050015  	0,219316  	0,111129  	-4,749123  	5001,308435  	126702,453651  	18,376637  	-0,047964  
88,554000  	23,893665  	30,150138  	24,374643  	956,927186  	80,031174  	69,838464  	0,009829  	0,006343  	0,003962  	0,004368  	0,004258  	-0,000001  	-0,000000  	26,258290  	25,245171  	26,251279  	25,957423  	28,569971  	27,456751  	28,849177  	28,289511  	30,637019  	30,248514  	33,330939  	62,470509  	26,659105  	25,884018  	27,989104  	68,468625  	0,305188  	0,154641  	-4044,980866  	22509,912673  	-0,022173  	-0,050007  	0,230278  	0,116683  	-4,983043  	5027,952979  	126508,421868  	18,348495  	-0,047957  
89,552000  	23,871118  	30,148599  	24,373813  	57,696365  	80,031174  	69,844288  	0,009832  	0,006326  	0,003960  	0,004375  	0,004247  	0,000002  	-0,000000  	26,252881  	25,243687  	26,249792  	25,954719  	28,568873  	27,454083  	28,850125  	28,286261  	30,642421  	30,250338  	33,322935  	62,472380  	26,662242  	25,875625  	27,988208  	68,467833  	0,310319  	0,157241  	-4126,800570  	1805,678529  	-0,053870  	-0,049973  	0,221615  	0,112294  	-4,792844  	4991,755083  	126590,252879  	18,360364  	-0,047928  
90,553000  	23,905153  	30,134874  	24,373383  	657,183579  	80,038173  	69,853383  	0,009828  	0,006344  	0,003958  	0,004349  	0,004239  	-0,000001  	-0,000000  	26,256679  	25,239113  	26,254257  	25,959941  	28,572924  	27,455575  	28,854262  	28,293237  	30,640590  	30,247184  	33,324123  	62,472288  	26,663566  	25,861629  	27,993137  	68,463711  	0,289458  	0,146671  	-3820,084156  	18482,290234  	-0,027585  	-0,050007  	0,215750  	0,109322  	-4,665065  	5030,868365  	126503,196659  	18,347737  	-0,047957  
91,551000  	23,973439  	30,115117  	24,373107  	657,183579  	80,045046  	69,870482  	0,009823  	0,006297  	0,003961  	0,004315  	0,004252  	-0,000000  	-0,000000  	26,256075  	25,232697  	26,249047  	25,955651  	28,568350  	27,453425  	28,854018  	28,298532  	30,637631  	30,250201  	33,328437  	62,469752  	26,659857  	25,840050  	27,991898  	68,464323  	0,261481  	0,132494  	-3402,071430  	18480,534617  	-0,027583  	-0,050002  	0,225718  	0,114373  	-4,875695  	4928,366493  	126387,027552  	18,330889  	-0,047953  
92,553000  	23,984928  	30,101885  	24,372124  	1256,670793  	80,046983  	69,860951  	0,009832  	0,006310  	0,003962  	0,004375  	0,004253  	-0,000001  	-0,000000  	26,256258  	25,233876  	26,248265  	25,952989  	28,565253  	27,453498  	28,850892  	28,296648  	30,635752  	30,252507  	33,327107  	62,471785  	26,662056  	25,822780  	27,989015  	68,466353  	0,310754  	0,157461  	-4026,880798  	25563,804895  	-0,018539  	-0,050018  	0,226541  	0,114790  	-4,898985  	4957,422014  	126582,902280  	18,359298  	-0,047967  
93,552000  	23,939680  	30,120780  	24,371018  	1256,670793  	80,044983  	69,843479  	0,009834  	0,006325  	0,003960  	0,004401  	0,004304  	-0,000001  	-0,000000  	26,259809  	25,238234  	26,255197  	25,957572  	28,573788  	27,459079  	28,852210  	28,293799  	30,637314  	30,253133  	33,324655  	62,476110  	26,662757  	25,805347  	27,993690  	68,473241  	0,331507  	0,167977  	-4340,866806  	25560,657481  	-0,018537  	-0,050011  	0,267214  	0,135399  	-5,787313  	4989,759377  	126622,613869  	18,365057  	-0,047961  
94,554000  	23,945762  	30,138013  	24,370588  	1256,670793  	80,042609  	69,850268  	0,009830  	0,006335  	0,003963  	0,004358  	0,004163  	-0,000000  	-0,000001  	26,259129  	25,234029  	26,248244  	25,951188  	28,572938  	27,456227  	28,852358  	28,289545  	30,637254  	30,250815  	33,321056  	62,473140  	26,655377  	25,789793  	27,990460  	68,477279  	0,297059  	0,150522  	-3896,808233  	25558,302208  	-0,018535  	-0,050006  	0,155173  	0,078627  	-3,357709  	5011,525372  	126549,291476  	18,354423  	-0,047957  
95,553000  	23,978200  	30,138197  	24,370496  	1256,670793  	80,045671  	69,849583  	0,009832  	0,006332  	0,003960  	0,004375  	0,004142  	0,000002  	-0,000000  	26,256473  	25,224867  	26,236471  	25,950584  	28,560997  	27,448272  	28,846565  	28,284610  	30,627402  	30,240849  	33,318386  	62,464308  	26,658245  	25,773441  	27,984354  	68,467332  	0,310792  	0,157480  	-4055,705012  	25545,134108  	-0,018526  	-0,049977  	0,139079  	0,070472  	-3,010572  	5004,463645  	126577,048634  	18,358449  	-0,047932  
96,553000  	23,963517  	30,125519  	24,370127  	1256,670793  	80,052732  	69,836253  	0,009833  	0,006342  	0,003960  	0,004422  	0,004212  	0,000002  	-0,000000  	26,249152  	25,223590  	26,234946  	25,952968  	28,561021  	27,448986  	28,845071  	28,285590  	30,628674  	30,240065  	33,320183  	62,464060  	26,664770  	25,750469  	27,986455  	68,470237  	0,348611  	0,176644  	-4550,722487  	25541,451864  	-0,018523  	-0,049969  	0,194067  	0,098335  	-4,209252  	5025,428104  	126594,313007  	18,360953  	-0,047925  
97,551000  	23,929512  	30,130258  	24,370311  	1256,670793  	80,056793  	69,845254  	0,009823  	0,006280  	0,003956  	0,004363  	0,004200  	0,000001  	-0,000000  	26,251295  	25,239147  	26,246061  	25,952480  	28,562879  	27,452277  	28,853791  	28,290548  	30,632272  	30,244114  	33,322322  	62,470918  	26,668773  	25,731730  	27,986616  	68,481006  	0,301084  	0,152562  	-3955,030472  	25549,803675  	-0,018529  	-0,049987  	0,184365  	0,093419  	-3,996910  	4892,235097  	126382,797957  	18,330275  	-0,047941  
98,553000  	23,935226  	30,147860  	24,368960  	657,183579  	80,052294  	69,840395  	0,009838  	0,006248  	0,003959  	0,004413  	0,004189  	0,000001  	-0,000000  	26,257222  	25,239047  	26,246298  	25,958192  	28,567142  	27,448587  	28,857663  	28,285266  	30,624798  	30,248812  	33,319961  	62,474525  	26,674523  	25,719064  	27,988660  	68,469294  	0,341214  	0,172895  	-4490,759872  	18477,694619  	-0,027578  	-0,049993  	0,175547  	0,088951  	-3,805859  	4823,182694  	126709,521806  	18,377662  	-0,047945  
99,550000  	23,987662  	30,146845  	24,368407  	-242,047242  	80,044609  	69,849241  	0,009833  	0,006279  	0,003960  	0,004275  	0,004189  	0,000001  	-0,000000  	26,256285  	25,240776  	26,252052  	25,957578  	28,571220  	27,454261  	28,854945  	28,293989  	30,637972  	30,244877  	33,327997  	62,482273  	26,679634  	25,697118  	27,990904  	68,474308  	0,229334  	0,116205  	-2992,325235  	-27058,222637  	-0,103043  	-0,049992  	0,176202  	0,089283  	-3,813882  	4890,116296  	126595,887631  	18,361181  	-0,047945  
100,554000  	24,010639  	30,139767  	24,368161  	956,927186  	80,040047  	69,848929  	0,009830  	0,006337  	0,003959  	0,004399  	0,004259  	0,000001  	-0,000001  	26,244192  	25,232508  	26,239895  	25,947557  	28,561554  	27,440745  	28,848030  	28,285792  	30,630087  	30,244811  	33,317135  	62,471773  	26,666235  	25,677805  	27,988193  	68,467442  	0,330199  	0,167314  	-4287,356620  	22503,093493  	-0,022166  	-0,049989  	0,231045  	0,117072  	-4,998879  	5015,620071  	126545,252531  	18,353837  	-0,047942  
101,551000  	24,017797  	30,139582  	24,368898  	956,927186  	80,041672  	69,822861  	0,009833  	0,006268  	0,003959  	0,004367  	0,004248  	-0,000001  	-0,000001  	26,237149  	25,228946  	26,237373  	25,947081  	28,554927  	27,441194  	28,845665  	28,280516  	30,617857  	30,242106  	33,312164  	62,466069  	26,665931  	25,662786  	27,980051  	68,462553  	0,303789  	0,153932  	-3939,724896  	22509,962454  	-0,022173  	-0,050007  	0,222472  	0,112728  	-4,826457  	4866,111940  	126598,874474  	18,361614  	-0,047957  
102,550000  	23,997031  	30,148691  	24,368099  	357,439972  	80,039235  	69,816881  	0,009829  	0,006330  	0,003964  	0,004317  	0,004234  	0,000000  	-0,000000  	26,249441  	25,233077  	26,248653  	25,962290  	28,562063  	27,450987  	28,849470  	28,283993  	30,630613  	30,234963  	33,322541  	62,472326  	26,671841  	25,665308  	27,991934  	68,466024  	0,263158  	0,133344  	-3429,449992  	12527,205776  	-0,036490  	-0,049999  	0,211916  	0,107380  	-4,599040  	4999,429458  	126515,687733  	18,349549  	-0,047951  
103,551000  	23,971688  	30,155431  	24,367639  	357,439972  	80,037267  	69,812271  	0,009833  	0,006317  	0,003964  	0,004284  	0,004233  	0,000000  	-0,000000  	26,250576  	25,238105  	26,246402  	25,962804  	28,566226  	27,460332  	28,848561  	28,294696  	30,652499  	30,249154  	33,316315  	62,475087  	26,673092  	25,644394  	27,990506  	68,464992  	0,236421  	0,119796  	-3097,098389  	12527,299467  	-0,036490  	-0,050000  	0,210634  	0,106730  	-4,572387  	4971,237730  	126612,918988  	18,363651  	-0,047951  
104,550000  	23,986003  	30,162262  	24,367884  	956,927186  	80,037204  	69,807039  	0,009824  	0,006348  	0,003961  	0,004386  	0,004286  	0,000002  	-0,000000  	26,257469  	25,241684  	26,243525  	25,949970  	28,569976  	27,455950  	28,852127  	28,292928  	30,641043  	30,250474  	33,325798  	62,469310  	26,659642  	25,643546  	27,994076  	68,482007  	0,319123  	0,161702  	-4175,415061  	22498,447485  	-0,022161  	-0,049978  	0,252498  	0,127943  	-5,483931  	5039,712857  	126405,527616  	18,333572  	-0,047932  
105,551000  	24,005847  	30,153646  	24,367915  	956,927186  	80,037110  	69,813766  	0,009836  	0,006345  	0,003960  	0,004372  	0,004242  	-0,000000  	-0,000000  	26,242276  	25,227630  	26,237894  	25,953787  	28,560909  	27,438703  	28,850531  	28,285929  	30,624194  	30,240045  	33,309866  	62,457287  	26,647986  	25,622427  	27,979444  	68,466422  	0,307653  	0,155890  	-4006,785700  	22507,442249  	-0,022170  	-0,050000  	0,218209  	0,110568  	-4,736059  	5032,132571  	126663,596455  	18,371001  	-0,047952  
106,552000  	23,998290  	30,158077  	24,367669  	357,439972  	80,033049  	69,836502  	0,009829  	0,006331  	0,003960  	0,004368  	0,004231  	-0,000001  	-0,000000  	26,247128  	25,225402  	26,243752  	25,952345  	28,571609  	27,445758  	28,850958  	28,283387  	30,636855  	30,246542  	33,312380  	62,464917  	26,648525  	25,632040  	27,978216  	68,465656  	0,304896  	0,154493  	-3978,635430  	12530,676627  	-0,036500  	-0,050015  	0,208869  	0,105835  	-4,521473  	5001,486004  	126523,186614  	18,350637  	-0,047964  
107,551000  	23,976542  	30,170448  	24,367854  	1256,670793  	80,025676  	69,850362  	0,009823  	0,006334  	0,003962  	0,004394  	0,004259  	-0,000002  	-0,000000  	26,250239  	25,233524  	26,249847  	25,957290  	28,559916  	27,441548  	28,846055  	28,289544  	30,630756  	30,238283  	33,317536  	62,465439  	26,655326  	25,628409  	27,986627  	68,465829  	0,326019  	0,165196  	-4277,842657  	25564,357009  	-0,018540  	-0,050019  	0,231025  	0,117062  	-4,990691  	5008,472742  	126395,748002  	18,332153  	-0,047968  
108,552000  	23,963701  	30,180296  	24,367239  	57,696365  	80,020989  	69,850299  	0,009838  	0,006335  	0,003962  	0,004375  	0,004206  	-0,000001  	-0,000000  	26,251189  	25,237778  	26,252913  	25,960689  	28,571528  	27,448131  	28,849356  	28,287178  	30,639793  	30,239079  	33,321239  	62,463722  	26,660011  	25,622624  	27,980928  	68,464509  	0,310818  	0,157494  	-4093,325369  	1807,202777  	-0,053905  	-0,050008  	0,189665  	0,096105  	-4,095349  	5011,267155  	126718,510578  	18,378966  	-0,047959  
109,551000  	23,971903  	30,176264  	24,367546  	1256,670793  	80,024957  	69,865093  	0,009830  	0,006336  	0,003964  	0,004350  	0,004217  	-0,000001  	-0,000001  	26,247242  	25,241188  	26,242726  	25,953846  	28,568535  	27,448910  	28,850272  	28,290172  	30,630420  	30,242289  	33,328231  	62,465191  	26,666190  	25,629639  	27,986438  	68,466593  	0,290007  	0,146949  	-3811,732667  	25558,574893  	-0,018535  	-0,050006  	0,198210  	0,100434  	-4,275308  	5014,174051  	126531,469277  	18,351838  	-0,047957  
110,552000  	23,976695  	30,171648  	24,367546  	1256,670793  	80,034392  	69,854878  	0,009827  	0,006337  	0,003957  	0,004413  	0,004228  	-0,000001  	-0,000000  	26,251375  	25,245177  	26,252431  	25,955146  	28,569023  	27,454143  	28,854874  	28,294229  	30,636927  	30,250671  	33,326050  	62,466462  	26,676339  	25,624897  	27,987521  	68,474060  	0,341389  	0,172984  	-4480,265494  	25559,974724  	-0,018536  	-0,050009  	0,206643  	0,104708  	-4,465835  	5015,903049  	126475,623090  	18,343738  	-0,047959  
111,551000  	23,980105  	30,165555  	24,367731  	1256,670793  	80,042234  	69,853570  	0,009826  	0,006334  	0,003961  	0,004362  	0,004237  	0,000003  	-0,000001  	26,252386  	25,237933  	26,252353  	25,954386  	28,571612  	27,458743  	28,857886  	28,291733  	30,636069  	30,252072  	33,321848  	62,459843  	26,679618  	25,614892  	27,985874  	68,467271  	0,299913  	0,151968  	-3929,916838  	25540,694872  	-0,018523  	-0,049967  	0,213724  	0,108296  	-4,623014  	5007,947110  	126461,218459  	18,341649  	-0,047923  
112,553000  	23,987047  	30,163893  	24,366502  	1256,670793  	80,049170  	69,857681  	0,009833  	0,006332  	0,003958  	0,004365  	0,004235  	0,000001  	-0,000000  	26,260767  	25,240179  	26,258138  	25,970791  	28,577053  	27,462088  	28,860289  	28,295078  	30,636709  	30,252491  	33,328444  	62,470826  	26,678684  	25,621757  	27,993386  	68,471091  	0,301996  	0,153023  	-3951,700640  	25549,214169  	-0,018529  	-0,049986  	0,212050  	0,107447  	-4,588064  	5005,434261  	126609,868596  	18,363209  	-0,047939  
113,551000  	23,957496  	30,163186  	24,367024  	956,927186  	80,056325  	69,847216  	0,009837  	0,006332  	0,003958  	0,004362  	0,004188  	-0,000000  	-0,000000  	26,256089  	25,240035  	26,252167  	25,967345  	28,576108  	27,460508  	28,856018  	28,298694  	30,640941  	30,250409  	33,336901  	62,469417  	26,678074  	25,621110  	27,990753  	68,469397  	0,299860  	0,151941  	-3942,086009  	22507,524461  	-0,022170  	-0,050000  	0,175287  	0,088819  	-3,799181  	5004,063938  	126686,869818  	18,374377  	-0,047952  
114,552000  	23,919222  	30,169525  	24,365918  	357,439972  	80,064010  	69,855438  	0,009838  	0,006341  	0,003960  	0,004391  	0,004270  	-0,000001  	-0,000000  	26,260457  	25,243079  	26,251713  	25,958852  	28,580436  	27,459496  	28,852359  	28,298167  	30,642397  	30,245696  	33,339414  	62,464130  	26,684141  	25,620323  	27,985478  	68,468775  	0,323670  	0,164006  	-4285,692957  	12530,174377  	-0,036498  	-0,050012  	0,240282  	0,121753  	-5,207642  	5023,929733  	126707,587066  	18,377382  	-0,047962  
115,554000  	23,905399  	30,168048  	24,366471  	1256,670793  	80,065760  	69,874281  	0,009833  	0,006326  	0,003956  	0,004322  	0,004231  	-0,000001  	-0,000000  	26,263494  	25,248775  	26,255481  	25,962898  	28,575423  	27,457780  	28,850784  	28,296078  	30,642763  	30,253388  	33,330315  	62,464228  	26,688138  	25,622139  	27,989139  	68,473038  	0,267559  	0,135574  	-3549,742288  	25562,386321  	-0,018538  	-0,050015  	0,209246  	0,106027  	-4,527417  	4991,877471  	126608,632905  	18,363030  	-0,047964  
116,551000  	23,918485  	30,155061  	24,366840  	1256,670793  	80,061261  	69,872973  	0,009837  	0,006335  	0,003959  	0,004378  	0,004279  	-0,000000  	-0,000000  	26,263255  	25,250953  	26,255521  	25,963048  	28,576695  	27,460837  	28,854094  	28,297056  	30,641463  	30,257596  	33,331320  	62,469895  	26,690182  	25,633460  	27,992284  	68,470600  	0,312491  	0,158341  	-4128,586639  	25556,900419  	-0,018534  	-0,050003  	0,247012  	0,125163  	-5,342861  	5010,631868  	126701,161471  	18,376450  	-0,047954  
117,554000  	23,945547  	30,137397  	24,366778  	956,927186  	80,055637  	69,861387  	0,009835  	0,006337  	0,003963  	0,004347  	0,004216  	-0,000001  	-0,000000  	26,263155  	25,244266  	26,253165  	25,963973  	28,580514  	27,466462  	28,855345  	28,302890  	30,640145  	30,257920  	33,336923  	62,471726  	26,691564  	25,646637  	27,986286  	68,466920  	0,287898  	0,145880  	-3776,385643  	22512,456692  	-0,022175  	-0,050013  	0,197251  	0,099949  	-4,269032  	5015,156694  	126640,181869  	18,367605  	-0,047962  
118,553000  	23,956053  	30,127858  	24,366164  	357,439972  	80,054575  	69,864626  	0,009834  	0,006333  	0,003962  	0,004345  	0,004250  	0,000001  	-0,000000  	26,260039  	25,238602  	26,249791  	25,964139  	28,575272  	27,468099  	28,852457  	28,298088  	30,635023  	30,252687  	33,333047  	62,467174  	26,685342  	25,655568  	27,982721  	68,463021  	0,285861  	0,144848  	-3737,532222  	12523,813797  	-0,036479  	-0,049984  	0,224342  	0,113676  	-4,853308  	5006,770627  	126625,501856  	18,365476  	-0,047937  
119,555000  	23,950339  	30,130535  	24,365795  	1256,670793  	80,057824  	69,862010  	0,009834  	0,006336  	0,003961  	0,004381  	0,004208  	0,000002  	-0,000000  	26,260800  	25,241670  	26,244797  	25,962535  	28,572707  	27,461394  	28,852610  	28,291356  	30,630949  	30,245737  	33,325431  	62,462062  	26,683168  	25,669076  	27,986549  	68,462152  	0,315092  	0,159659  	-4125,307972  	25547,081183  	-0,018527  	-0,049981  	0,190626  	0,096592  	-4,126287  	5013,306014  	126622,726847  	18,365074  	-0,047935  
120,561000  	23,933936  	30,142844  	24,366164  	1256,670793  	80,061636  	69,873160  	0,009833  	0,006342  	0,003957  	0,004431  	0,004214  	-0,000000  	-0,000000  	26,260579  	25,240231  	26,246657  	25,960893  	28,574526  	27,455558  	28,856195  	28,291962  	30,632232  	30,249188  	33,326403  	62,460305  	26,684663  	25,680253  	27,981711  	68,460435  	0,355440  	0,180104  	-4675,195458  	25556,044635  	-0,018534  	-0,050001  	0,195626  	0,099125  	-4,231476  	5026,564263  	126605,405985  	18,362562  	-0,047952  
121,552000  	23,940110  	30,156846  	24,366256  	57,696365  	80,064698  	69,877365  	0,009833  	0,006344  	0,003958  	0,004390  	0,004234  	0,000000  	-0,000000  	26,257274  	25,234819  	26,257360  	25,957993  	28,576572  	27,462032  	28,858138  	28,290613  	30,637577  	30,254150  	33,336521  	62,466560  	26,682657  	25,685935  	27,977500  	68,455476  	0,322672  	0,163500  	-4249,529498  	1806,826866  	-0,053892  	-0,049995  	0,211632  	0,107236  	-4,577178  	5029,528462  	126614,479490  	18,363878  	-0,047947  
122,552000  	23,939127  	30,153215  	24,366502  	1256,670793  	80,066197  	69,863038  	0,009830  	0,006329  	0,003963  	0,004393  	0,004200  	-0,000001  	-0,000000  	26,262741  	25,238078  	26,257903  	25,965247  	28,576451  	27,466905  	28,854472  	28,296821  	30,643625  	30,256380  	33,334799  	62,471187  	26,688736  	25,699617  	27,988135  	68,463391  	0,325137  	0,164749  	-4280,172226  	25559,469630  	-0,018536  	-0,050008  	0,184486  	0,093480  	-3,996245  	4998,127757  	126543,720274  	18,353615  	-0,047958  
123,555000  	23,929543  	30,144260  	24,368069  	1256,670793  	80,063385  	69,871416  	0,009829  	0,006339  	0,003964  	0,004389  	0,004224  	0,000001  	-0,000000  	26,261678  	25,240113  	26,252246  	25,966705  	28,570935  	27,463863  	28,851849  	28,298653  	30,635513  	30,257354  	33,326372  	62,465845  	26,685635  	25,711727  	27,986142  	68,464980  	0,321753  	0,163034  	-4236,052926  	25547,338727  	-0,018527  	-0,049982  	0,203819  	0,103277  	-4,410203  	5018,889179  	126512,185431  	18,349041  	-0,047936  
124,553000  	23,922908  	30,140813  	24,367884  	57,696365  	80,055137  	69,878829  	0,009825  	0,006338  	0,003957  	0,004366  	0,004184  	0,000001  	-0,000000  	26,265943  	25,245323  	26,259055  	25,968261  	28,577950  	27,463098  	28,857868  	28,299930  	30,641138  	30,260392  	33,336507  	62,473354  	26,687710  	25,725808  	27,989815  	68,464525  	0,303051  	0,153558  	-3991,884500  	1806,407579  	-0,053882  	-0,049985  	0,172031  	0,087169  	-3,716659  	5017,980111  	126431,371218  	18,337320  	-0,047938  
125,555000  	23,921925  	30,134997  	24,367516  	-242,047242  	80,053513  	69,879950  	0,009829  	0,006324  	0,003963  	0,004359  	0,004231  	0,000000  	-0,000000  	26,270342  	25,247421  	26,256744  	25,965544  	28,568546  	27,462365  	28,853892  	28,297385  	30,639708  	30,256896  	33,336400  	62,468935  	26,683300  	25,741908  	27,995393  	68,458751  	0,297891  	0,150943  	-3920,862042  	-27059,163236  	-0,103047  	-0,049994  	0,209426  	0,106118  	-4,523350  	4987,635624  	126529,492171  	18,351551  	-0,047947  
126,552000  	23,920082  	30,134135  	24,368437  	-242,047242  	80,054075  	69,884248  	0,009835  	0,006350  	0,003965  	0,004315  	0,004246  	0,000001  	-0,000000  	26,260422  	25,245645  	26,253081  	25,959667  	28,574747  	27,453708  	28,860396  	28,296451  	30,641346  	30,253283  	33,331532  	62,466246  	26,685770  	25,757621  	27,991273  	68,457607  	0,261760  	0,132636  	-3445,852787  	-27054,501588  	-0,103029  	-0,049985  	0,221096  	0,112031  	-4,773657  	5042,938103  	126649,248313  	18,368920  	-0,047938  
127,555000  	23,925335  	30,133581  	24,368990  	-242,047242  	80,053200  	69,883469  	0,009836  	0,006330  	0,003960  	0,004421  	0,004263  	0,000001  	-0,000000  	26,266096  	25,250715  	26,253695  	25,970541  	28,580795  	27,470228  	28,869917  	28,301424  	30,650245  	30,259624  	33,335404  	62,485001  	26,695249  	25,775986  	27,996931  	68,467010  	0,347427  	0,176044  	-4569,308785  	-27054,477434  	-0,103029  	-0,049985  	0,234225  	0,118684  	-5,057076  	4999,255427  	126673,369008  	18,372419  	-0,047938  
128,553000  	23,948250  	30,135797  	24,370526  	956,927186  	80,054200  	69,894432  	0,009824  	0,006340  	0,003957  	0,004400  	0,004257  	0,000000  	-0,000000  	26,256977  	25,242934  	26,250224  	25,957298  	28,570582  	27,458173  	28,852197  	28,295604  	30,638712  	30,247389  	33,323199  	62,468163  	26,667639  	25,764118  	27,982272  	68,453512  	0,330438  	0,167435  	-4331,375135  	22506,530356  	-0,022169  	-0,049998  	0,229894  	0,116489  	-4,958692  	5022,400235  	126418,230523  	18,335414  	-0,047950  
129,554000  	23,964654  	30,130966  	24,370803  	-242,047242  	80,052450  	69,888110  	0,009831  	0,006329  	0,003957  	0,004309  	0,004194  	-0,000001  	-0,000000  	26,255235  	25,242196  	26,250113  	25,958939  	28,571492  	27,468501  	28,848400  	28,291612  	30,642998  	30,248647  	33,322389  	62,467297  	26,671770  	25,755650  	27,983583  	68,452370  	0,257253  	0,130352  	-3360,495322  	-27068,533964  	-0,103081  	-0,050014  	0,180043  	0,091229  	-3,885177  	4998,084603  	126567,848030  	18,357114  	-0,047963  
130,554000  	23,987201  	30,133243  	24,371479  	-242,047242  	80,047389  	69,871603  	0,009820  	0,006329  	0,003963  	0,004381  	0,004293  	-0,000001  	-0,000000  	26,267705  	25,243167  	26,253713  	25,958779  	28,564049  	27,465714  	28,846941  	28,293439  	30,640635  	30,254656  	33,339477  	62,467465  	26,675480  	25,752061  	27,985743  	68,455762  	0,315387  	0,159809  	-4106,344111  	-27065,078030  	-0,103068  	-0,050007  	0,257918  	0,130689  	-5,571918  	4998,883310  	126329,260748  	18,322510  	-0,047957  
131,554000  	23,999458  	30,143213  	24,373045  	657,183579  	80,038766  	69,876866  	0,009837  	0,006337  	0,003963  	0,004341  	0,004218  	-0,000000  	-0,000000  	26,257156  	25,235144  	26,249259  	25,952019  	28,562364  	27,450114  	28,846989  	28,288534  	30,633218  	30,247236  	33,317915  	62,471452  	26,662763  	25,732418  	27,990523  	68,437130  	0,283101  	0,143449  	-3684,602579  	18482,002834  	-0,027585  	-0,050006  	0,198714  	0,100690  	-4,287050  	5014,664311  	126683,967709  	18,373956  	-0,047957  
132,553000  	23,997983  	30,147953  	24,374643  	57,696365  	80,033830  	69,880853  	0,009832  	0,006330  	0,003960  	0,004377  	0,004244  	0,000001  	-0,000000  	26,273989  	25,241810  	26,255559  	25,962967  	28,573285  	27,466487  	28,859368  	28,306080  	30,652487  	30,261004  	33,331923  	62,472907  	26,681945  	25,733693  	27,985833  	68,460721  	0,311737  	0,157959  	-4061,410175  	1806,271861  	-0,053889  	-0,049993  	0,219554  	0,111250  	-4,732498  	5000,442521  	126576,970962  	18,358438  	-0,047945  
133,556000  	23,992976  	30,163370  	24,375319  	956,927186  	80,029831  	69,875745  	0,009835  	0,006333  	0,003963  	0,004387  	0,004212  	0,000000  	-0,000000  	26,263455  	25,242722  	26,255126  	25,959547  	28,566278  	27,461874  	28,853962  	28,296385  	30,642676  	30,257717  	33,317675  	62,471433  	26,677989  	25,715203  	27,993162  	68,456052  	0,319982  	0,162137  	-4182,675853  	22505,025673  	-0,022168  	-0,049995  	0,194164  	0,098384  	-4,185675  	5006,426101  	126639,172133  	18,367459  	-0,047947  
134,553000  	23,972149  	30,175741  	24,376056  	-242,047242  	80,027019  	69,878237  	0,009824  	0,006339  	0,003962  	0,004322  	0,004216  	-0,000000  	-0,000001  	26,265035  	25,239858  	26,256767  	25,965171  	28,572991  	27,456880  	28,853774  	28,295963  	30,637996  	30,251199  	33,333456  	62,473226  	26,684823  	25,702994  	27,989315  	68,456695  	0,267145  	0,135364  	-3510,810768  	-27063,219400  	-0,103059  	-0,050002  	0,197037  	0,099840  	-4,245395  	5019,096461  	126404,023604  	18,333354  	-0,047954  
135,554000  	23,946807  	30,182758  	24,376886  	657,183579  	80,026738  	69,874499  	0,009830  	0,006346  	0,003961  	0,004438  	0,004237  	0,000003  	-0,000000  	26,271135  	25,251414  	26,252234  	25,973219  	28,575227  	27,468578  	28,862257  	28,306725  	30,648542  	30,263732  	33,332004  	62,475813  	26,677559  	25,693289  	27,996495  	68,468386  	0,361191  	0,183018  	-4771,519342  	18468,654505  	-0,027565  	-0,049966  	0,213569  	0,108217  	-4,603146  	5033,757575  	126534,293714  	18,352248  	-0,047922  
136,553000  	23,931448  	30,179988  	24,378544  	1256,670793  	80,025238  	69,885774  	0,009837  	0,006339  	0,003956  	0,004409  	0,004248  	0,000002  	-0,000000  	26,262604  	25,242765  	26,251407  	25,958270  	28,570760  	27,460941  	28,853894  	28,297438  	30,651279  	30,253140  	33,325738  	62,464901  	26,673722  	25,692952  	27,990933  	68,457276  	0,337768  	0,171150  	-4471,109066  	25541,963155  	-0,018524  	-0,049971  	0,222423  	0,112704  	-4,787973  	5020,306901  	126683,664082  	18,373912  	-0,047926  
137,552000  	23,938390  	30,169463  	24,379159  	1256,670793  	80,021364  	69,860795  	0,009827  	0,006275  	0,003957  	0,004343  	0,004172  	0,000000  	-0,000000  	26,262260  	25,247005  	26,248703  	25,959169  	28,573156  	27,455958  	28,853284  	28,296956  	30,644714  	30,258130  	33,333434  	62,468405  	26,669344  	25,674555  	27,989909  	68,461133  	0,284341  	0,144078  	-3753,354228  	25554,891487  	-0,018533  	-0,049999  	0,162260  	0,082218  	-3,500125  	4881,618452  	126467,990048  	18,342631  	-0,047951  
138,554000  	23,903064  	30,158693  	24,379405  	1256,670793  	80,017552  	69,866339  	0,009834  	0,006307  	0,003963  	0,004399  	0,004244  	0,000001  	-0,000000  	26,275868  	25,249059  	26,255436  	25,964190  	28,580868  	27,465463  	28,870279  	28,305774  	30,645197  	30,261203  	33,335670  	62,474310  	26,676789  	25,662368  	27,994641  	68,468103  	0,330023  	0,167225  	-4373,542096  	25550,019739  	-0,018529  	-0,049988  	0,219657  	0,111302  	-4,733877  	4950,104191  	126634,377651  	18,366764  	-0,047942  
139,553000  	23,852749  	30,154446  	24,380418  	357,439972  	80,016521  	69,868800  	0,009832  	0,006331  	0,003961  	0,004346  	0,004268  	-0,000001  	-0,000000  	26,274710  	25,248288  	26,252853  	25,964381  	28,577123  	27,462338  	28,863287  	28,303076  	30,639761  	30,263045  	33,328575  	62,473691  	26,670599  	25,653498  	27,992791  	68,460643  	0,287182  	0,145517  	-3833,847167  	12529,896460  	-0,036499  	-0,050014  	0,238199  	0,120697  	-5,131724  	5003,082710  	126577,973637  	18,358583  	-0,047963  
140,610000  	23,822585  	30,145152  	24,381217  	956,927186  	80,016521  	69,860391  	0,009837  	0,006333  	0,003959  	0,004394  	0,004226  	0,000001  	-0,000000  	26,268992  	25,255920  	26,264288  	25,974196  	28,580808  	27,463842  	28,864642  	28,307866  	30,645128  	30,263420  	33,336865  	62,476647  	26,677541  	25,654251  	27,995897  	68,462520  	0,326195  	0,165285  	-4369,095625  	22501,472876  	-0,022164  	-0,049987  	0,205500  	0,104128  	-4,430925  	5005,841750  	126683,388699  	18,373872  	-0,047940  
141,567000  	23,841445  	30,117118  	24,380818  	1256,670793  	80,011273  	69,826131  	0,009832  	0,006336  	0,003964  	0,004278  	0,004221  	-0,000001  	-0,000000  	26,261716  	25,249440  	26,254783  	25,972017  	28,578497  	27,466129  	28,859673  	28,297911  	30,644088  	30,254116  	33,329787  	62,471379  	26,664255  	25,645903  	27,990494  	68,457610  	0,231759  	0,117434  	-3081,177149  	25563,511631  	-0,018539  	-0,050018  	0,201463  	0,102083  	-4,356271  	5012,527116  	126582,895219  	18,359297  	-0,047967  
142,551000  	23,885371  	30,089668  	24,382170  	657,183579  	80,007524  	69,824449  	0,009827  	0,006323  	0,003963  	0,004345  	0,004244  	-0,000000  	-0,000000  	26,275382  	25,249024  	26,259258  	25,973082  	28,583293  	27,470777  	28,863065  	28,304492  	30,650728  	30,263311  	33,337836  	62,477975  	26,661080  	25,643223  	27,993248  	68,467957  	0,286104  	0,144971  	-3760,416540  	18480,276154  	-0,027583  	-0,050002  	0,219375  	0,111159  	-4,742619  	4984,517201  	126467,227450  	18,342521  	-0,047953  
143,553000  	23,933106  	30,069173  	24,382630  	-242,047242  	80,007711  	69,820120  	0,009838  	0,006304  	0,003961  	0,004390  	0,004263  	0,000002  	-0,000000  	26,275754  	25,247672  	26,258385  	25,970356  	28,583212  	27,467191  	28,865036  	28,305055  	30,652199  	30,265893  	33,338190  	62,477308  	26,665102  	25,643866  	27,996088  	68,473882  	0,322946  	0,163639  	-4197,952790  	-27051,895887  	-0,103013  	-0,049979  	0,234434  	0,118789  	-5,070416  	4943,950825  	126715,050642  	18,378464  	-0,047933  
144,555000  	23,958848  	30,070527  	24,382938  	-242,047242  	80,007336  	69,821677  	0,009829  	0,006362  	0,003958  	0,004379  	0,004230  	0,000001  	-0,000000  	26,266434  	25,242770  	26,252996  	25,964081  	28,576291  	27,463293  	28,856952  	28,293276  	30,648374  	30,256780  	33,327444  	62,470654  	26,659595  	25,636361  	27,991029  	68,464767  	0,313381  	0,158792  	-4057,418485  	-27054,100047  	-0,103022  	-0,049983  	0,208289  	0,105542  	-4,504099  	5069,819642  	126523,010087  	18,350611  	-0,047937  
145,553000  	24,000563  	30,092561  	24,384719  	57,696365  	80,003900  	69,837094  	0,009833  	0,006348  	0,003959  	0,004409  	0,004193  	-0,000000  	-0,000000  	26,268352  	25,249386  	26,259424  	25,965017  	28,578521  	27,465311  	28,854839  	28,293952  	30,645424  	30,254461  	33,328184  	62,472644  	26,657557  	25,630984  	27,992775  	68,456401  	0,338179  	0,171358  	-4364,381319  	1805,940208  	-0,053895  	-0,050000  	0,178820  	0,090609  	-3,859695  	5038,104831  	126604,452737  	18,362423  	-0,047951  
146,552000  	24,048669  	30,106039  	24,384781  	1256,670793  	80,003212  	69,827937  	0,009828  	0,006319  	0,003962  	0,004363  	0,004238  	-0,000000  	-0,000000  	26,262307  	25,248279  	26,251066  	25,965303  	28,577868  	27,462808  	28,855391  	28,297420  	30,638918  	30,253994  	33,322831  	62,472278  	26,654676  	25,630092  	27,995234  	68,455552  	0,301051  	0,152545  	-3863,130670  	25556,683491  	-0,018534  	-0,050003  	0,215071  	0,108978  	-4,646021  	4976,029970  	126507,518048  	18,348364  	-0,047954  
147,553000  	24,076961  	30,125519  	24,385057  	357,439972  	80,003025  	69,826629  	0,009830  	0,006343  	0,003960  	0,004340  	0,004267  	0,000000  	-0,000000  	26,260096  	25,237930  	26,247780  	25,970257  	28,577762  	27,465873  	28,858673  	28,302860  	30,645915  	30,256064  	33,322630  	62,476063  	26,657596  	25,632461  	27,992686  	68,467257  	0,281700  	0,142740  	-3609,548449  	12525,783184  	-0,036487  	-0,049997  	0,237994  	0,120594  	-5,141777  	5027,909825  	126537,570061  	18,352723  	-0,047949  
148,553000  	24,066025  	30,157523  	24,386409  	956,927186  	80,003212  	69,846437  	0,009834  	0,006288  	0,003961  	0,004358  	0,004265  	-0,000001  	-0,000000  	26,266379  	25,237873  	26,258089  	25,974374  	28,582752  	27,468393  	28,864646  	28,303877  	30,652069  	30,254141  	33,329527  	62,478229  	26,667411  	25,636237  	27,990491  	68,470780  	0,296778  	0,150380  	-3829,752553  	22509,221139  	-0,022172  	-0,050006  	0,235805  	0,119484  	-5,084666  	4908,947804  	126624,428570  	18,365321  	-0,047957  
149,553000  	24,016107  	30,188174  	24,387331  	956,927186  	80,007180  	69,847341  	0,009828  	0,006356  	0,003961  	0,004380  	0,004246  	0,000001  	-0,000000  	26,263210  	25,238686  	26,254468  	25,964872  	28,574550  	27,457395  	28,860566  	28,297311  	30,644848  	30,252380  	33,321129  	62,473517  	26,660204  	25,632019  	27,987129  	68,464016  	0,314450  	0,159334  	-4111,476366  	22503,253897  	-0,022166  	-0,049992  	0,220795  	0,111879  	-4,762450  	5056,027272  	126501,622035  	18,347509  	-0,047944  
150,552000  	23,995034  	30,210331  	24,388805  	-242,047242  	80,014428  	69,848150  	0,009831  	0,006338  	0,003962  	0,004364  	0,004252  	0,000000  	-0,000000  	26,263725  	25,251488  	26,254262  	25,960572  	28,580689  	27,458351  	28,862459  	28,303286  	30,651690  	30,253331  	33,324708  	62,479283  	26,659660  	25,636841  	27,995584  	68,459457  	0,301537  	0,152791  	-3970,260440  	-27062,153244  	-0,103050  	-0,050000  	0,225925  	0,114478  	-4,876188  	5017,461553  	126552,461907  	18,354883  	-0,047951  
151,554000  	23,974852  	30,210054  	24,389543  	657,183579  	80,022739  	69,832204  	0,009829  	0,006338  	0,003960  	0,004397  	0,004231  	-0,000000  	-0,000000  	26,265699  	25,246923  	26,249592  	25,959404  	28,567708  	27,459061  	28,861118  	28,301284  	30,648967  	30,258722  	33,324019  	62,472859  	26,658129  	25,641569  	27,986814  	68,463118  	0,328270  	0,166337  	-4336,094964  	18479,465756  	-0,027582  	-0,050001  	0,209486  	0,106148  	-4,532163  	5016,980490  	126511,987720  	18,349012  	-0,047952  
152,553000  	23,968340  	30,200760  	24,390280  	1256,670793  	80,026300  	69,839181  	0,009833  	0,006335  	0,003961  	0,004347  	0,004191  	0,000000  	-0,000000  	26,259330  	25,239847  	26,250654  	25,963674  	28,568914  	27,465660  	28,846822  	28,289871  	30,642095  	30,252288  	33,326438  	62,469058  	26,664063  	25,663148  	27,980339  	68,466200  	0,287768  	0,145814  	-3799,412303  	25553,990017  	-0,018532  	-0,049998  	0,177566  	0,089974  	-3,840285  	5010,346767  	126603,174679  	18,362238  	-0,047950  
153,555000  	23,969169  	30,186820  	24,390925  	956,927186  	80,032393  	69,846593  	0,009832  	0,006340  	0,003960  	0,004462  	0,004192  	0,000002  	-0,000000  	26,261805  	25,242629  	26,258118  	25,954134  	28,569659  	27,458660  	28,857068  	28,290037  	30,641352  	30,252509  	33,326441  	62,472963  	26,667466  	25,678088  	27,987822  	68,455994  	0,380713  	0,192910  	-5014,652360  	22498,604173  	-0,022162  	-0,049980  	0,178671  	0,090534  	-3,863703  	5021,721086  	126588,247528  	18,360073  	-0,047935  
154,551000  	23,966282  	30,174941  	24,391417  	357,439972  	80,037766  	69,851514  	0,009830  	0,006324  	0,003957  	0,004373  	0,004241  	-0,000001  	-0,000000  	26,271254  	25,246073  	26,255261  	25,972550  	28,576592  	27,460496  	28,854856  	28,290385  	30,643719  	30,259063  	33,320001  	62,476591  	26,663453  	25,691332  	27,995536  	68,464004  	0,308755  	0,156448  	-4060,959081  	12528,005046  	-0,036494  	-0,050008  	0,216864  	0,109887  	-4,689826  	4987,564879  	126538,346782  	18,352836  	-0,047958  
155,552000  	23,961674  	30,168940  	24,392523  	1256,670793  	80,035579  	69,855843  	0,009836  	0,006336  	0,003960  	0,004338  	0,004242  	0,000002  	-0,000000  	26,262369  	25,240704  	26,252360  	25,967353  	28,583601  	27,461903  	28,854221  	28,303237  	30,642913  	30,257211  	33,325457  	62,473488  	26,655799  	25,709432  	27,989565  	68,463835  	0,280470  	0,142116  	-3688,113569  	25546,194138  	-0,018527  	-0,049981  	0,218051  	0,110488  	-4,712467  	5013,963939  	126677,683336  	18,373045  	-0,047935  
156,553000  	23,973408  	30,168325  	24,393137  	1256,670793  	80,032080  	69,849614  	0,009834  	0,006341  	0,003960  	0,004302  	0,004261  	-0,000001  	-0,000000  	26,251213  	25,237728  	26,240429  	25,961392  	28,565737  	27,448551  	28,847726  	28,288459  	30,635437  	30,239816  	33,312422  	62,455980  	26,652631  	25,703606  	27,975802  	68,447429  	0,250936  	0,127151  	-3293,176848  	25561,889995  	-0,018538  	-0,050015  	0,232682  	0,117902  	-5,030018  	5023,504558  	126631,800352  	18,366390  	-0,047965  
157,552000  	23,977709  	30,167617  	24,393106  	956,927186  	80,029393  	69,851483  	0,009830  	0,006334  	0,003960  	0,004342  	0,004305  	-0,000000  	-0,000000  	26,264356  	25,241428  	26,258923  	25,963069  	28,575226  	27,456615  	28,853941  	28,308067  	30,643301  	30,259847  	33,325389  	62,467116  	26,659461  	25,721046  	27,986075  	68,463697  	0,284121  	0,143966  	-3725,671172  	22508,483668  	-0,022172  	-0,050005  	0,267458  	0,135523  	-5,779210  	5009,411523  	126540,359193  	18,353127  	-0,047956  
158,556000  	23,979675  	30,162509  	24,392861  	357,439972  	80,028769  	69,868177  	0,009837  	0,006250  	0,003961  	0,004378  	0,004266  	0,000000  	-0,000000  	26,259723  	25,242990  	26,261086  	25,962356  	28,577605  	27,463034  	28,860572  	28,298085  	30,641490  	30,255833  	33,326729  	62,470151  	26,655062  	25,738549  	27,991396  	68,465867  	0,313014  	0,158606  	-4099,845579  	12525,086471  	-0,036486  	-0,049995  	0,236639  	0,119907  	-5,104574  	4827,317716  	126694,629960  	18,375503  	-0,047947  
159,553000  	23,982440  	30,163524  	24,392768  	1256,670793  	80,023145  	69,864377  	0,009823  	0,006343  	0,003963  	0,004323  	0,004186  	0,000000  	-0,000000  	26,256055  	25,250821  	26,266133  	25,966225  	28,578631  	27,461101  	28,857593  	28,303039  	30,652683  	30,252368  	33,329932  	62,485326  	26,655290  	25,762804  	27,989702  	68,464711  	0,267929  	0,135762  	-3508,336816  	25553,089662  	-0,018532  	-0,049996  	0,173287  	0,087806  	-3,737343  	5028,532378  	126387,140529  	18,330905  	-0,047948  
160,552000  	23,996693  	30,167586  	24,393813  	1256,670793  	80,014584  	69,856279  	0,009834  	0,006339  	0,003963  	0,004406  	0,004221  	0,000002  	-0,000000  	26,268267  	25,265037  	26,266530  	25,974439  	28,595671  	27,477257  	28,869389  	28,314602  	30,656254  	30,271640  	33,336280  	62,484891  	26,668735  	25,802609  	27,989973  	68,478426  	0,335464  	0,169982  	-4385,405742  	25545,968915  	-0,018527  	-0,049981  	0,201144  	0,101921  	-4,337921  	5020,284971  	126621,385239  	18,364879  	-0,047935  
161,555000  	24,003021  	30,168202  	24,393721  	57,696365  	80,003681  	69,853321  	0,009833  	0,006328  	0,003962  	0,004382  	0,004217  	0,000002  	-0,000000  	26,267941  	25,246640  	26,255901  	25,961014  	28,574831  	27,465084  	28,860514  	28,303193  	30,642944  	30,256782  	33,326525  	62,474283  	26,656625  	25,814524  	27,979782  	68,464503  	0,316159  	0,160200  	-4129,207409  	1804,736517  	-0,053874  	-0,049979  	0,198315  	0,100488  	-4,273575  	4996,253733  	126608,590538  	18,363024  	-0,047933  
162,552000  	23,995464  	30,169186  	24,394151  	657,183579  	79,994496  	69,845285  	0,009832  	0,006347  	0,003958  	0,004350  	0,004191  	0,000000  	-0,000000  	26,267112  	25,242527  	26,260799  	25,961488  	28,574384  	27,464846  	28,861747  	28,301937  	30,642277  	30,255748  	33,332565  	62,476793  	26,658023  	25,831116  	27,993471  	68,466508  	0,290165  	0,147029  	-3794,971265  	18478,265575  	-0,027580  	-0,049998  	0,177756  	0,090070  	-3,830095  	5037,104503  	126578,538525  	18,358665  	-0,047949  
163,558000  	23,997768  	30,170571  	24,394888  	-242,047242  	79,991278  	69,846344  	0,009821  	0,006342  	0,003960  	0,004327  	0,004241  	-0,000000  	-0,000000  	26,268031  	25,248050  	26,260757  	25,969106  	28,577625  	27,472097  	28,860090  	28,295402  	30,646402  	30,250722  	33,326364  	62,473273  	26,651995  	25,844711  	27,992096  	68,470785  	0,271951  	0,137799  	-3556,222032  	-27063,013201  	-0,103051  	-0,050001  	0,216994  	0,109952  	-4,673585  	5025,725231  	126348,904709  	18,325359  	-0,047952  
164,553000  	23,984375  	30,171618  	24,395564  	956,927186  	79,996589  	69,830273  	0,009835  	0,006342  	0,003960  	0,004347  	0,004232  	-0,000000  	-0,000000  	26,270511  	25,250643  	26,263929  	25,967357  	28,579577  	27,470542  	28,860964  	28,295974  	30,650938  	30,258949  	33,331688  	62,476337  	26,657740  	25,863237  	27,987125  	68,474328  	0,288045  	0,145954  	-3775,492401  	22507,824671  	-0,022171  	-0,050004  	0,209784  	0,106299  	-4,527809  	5025,755652  	126644,919863  	18,368293  	-0,047955  
165,554000  	23,958449  	30,174264  	24,395933  	956,927186  	80,006149  	69,843043  	0,009834  	0,006338  	0,003956  	0,004363  	0,004235  	-0,000001  	-0,000000  	26,270342  	25,252622  	26,263839  	25,970097  	28,586338  	27,474846  	28,865915  	28,305349  	30,647288  	30,267857  	33,334768  	62,479166  	26,663501  	25,894317  	27,991158  	68,478836  	0,301136  	0,152588  	-3965,310755  	22509,416389  	-0,022173  	-0,050008  	0,212551  	0,107701  	-4,586094  	5018,502914  	126616,731979  	18,364204  	-0,047958  
166,554000  	23,923799  	30,173402  	24,395441  	357,439972  	80,015522  	69,848586  	0,009827  	0,006345  	0,003961  	0,004403  	0,004270  	-0,000001  	-0,000000  	26,276116  	25,252425  	26,265029  	25,975933  	28,581493  	27,472734  	28,866822  	28,308818  	30,650088  	30,273596  	33,333831  	62,478894  	26,668527  	25,902518  	27,995663  	68,479137  	0,332762  	0,168613  	-4405,596348  	12527,406510  	-0,036493  	-0,050006  	0,240263  	0,121743  	-5,185982  	5032,746634  	126478,645238  	18,344177  	-0,047957  
167,555000  	23,904907  	30,167771  	24,395994  	357,439972  	80,014553  	69,832858  	0,009825  	0,006338  	0,003962  	0,004341  	0,004255  	0,000001  	-0,000000  	26,273279  	25,248423  	26,251310  	25,974903  	28,578893  	27,465759  	28,862199  	28,305803  	30,644712  	30,265161  	33,326750  	62,475804  	26,667923  	25,891128  	27,986062  	68,472774  	0,283066  	0,143432  	-3755,598379  	12524,153713  	-0,036484  	-0,049992  	0,227886  	0,115471  	-4,925947  	5016,802921  	126441,327360  	18,338764  	-0,047944  
168,553000  	23,911112  	30,154538  	24,396486  	956,927186  	80,010742  	69,845192  	0,009831  	0,006264  	0,003961  	0,004335  	0,004273  	0,000001  	-0,000000  	26,271152  	25,247456  	26,251944  	25,966633  	28,581935  	27,468237  	28,858294  	28,303493  	30,642462  	30,260891  	33,322928  	62,467538  	26,664335  	25,888791  	27,979718  	68,472331  	0,277678  	0,140701  	-3672,677845  	22501,091141  	-0,022164  	-0,049987  	0,242091  	0,122669  	-5,224711  	4858,528825  	126563,293624  	18,356454  	-0,047940  
169,551000  	23,917502  	30,137428  	24,396885  	1256,670793  	80,011054  	69,851109  	0,009832  	0,006315  	0,003964  	0,004348  	0,004194  	0,000001  	-0,000000  	26,271543  	25,252156  	26,258069  	25,972622  	28,582226  	27,471398  	28,862389  	28,303637  	30,643148  	30,267516  	33,325559  	62,470072  	26,670069  	25,890962  	27,979814  	68,479633  	0,288558  	0,146214  	-3802,207970  	25548,573442  	-0,018529  	-0,049987  	0,180213  	0,091315  	-3,887157  	4968,190759  	126580,240248  	18,358912  	-0,047940  
170,552000  	23,950247  	30,130658  	24,396885  	657,183579  	80,011804  	69,863380  	0,009835  	0,006346  	0,003961  	0,004373  	0,004218  	0,000000  	-0,000000  	26,272330  	25,252057  	26,260736  	25,981372  	28,584997  	27,475056  	28,866152  	28,307181  	30,651640  	30,271715  	33,332936  	62,478161  	26,677603  	25,894630  	27,986677  	68,482552  	0,308525  	0,156332  	-4039,473937  	18477,580886  	-0,027579  	-0,049996  	0,199168  	0,100920  	-4,291144  	5034,433186  	126643,119284  	18,368032  	-0,047948  
171,554000  	23,976972  	30,123549  	24,397530  	657,183579  	80,013741  	69,844008  	0,009832  	0,006342  	0,003961  	0,004387  	0,004261  	0,000001  	-0,000000  	26,276827  	25,253727  	26,271242  	25,983909  	28,593936  	27,480800  	28,871475  	28,312251  	30,663241  	30,274847  	33,340758  	62,481673  	26,684333  	25,906922  	27,999626  	68,486631  	0,319917  	0,162104  	-4165,691357  	18474,723885  	-0,027575  	-0,049987  	0,233127  	0,118127  	-5,033336  	5026,749613  	126574,259502  	18,358044  	-0,047941  
172,556000  	23,981334  	30,121887  	24,397837  	1256,670793  	80,015053  	69,818407  	0,009835  	0,006337  	0,003957  	0,004411  	0,004235  	-0,000001  	-0,000000  	26,278947  	25,258063  	26,273142  	25,981716  	28,596769  	27,481684  	28,871346  	28,314625  	30,660214  	30,273048  	33,339931  	62,478135  	26,688603  	25,920488  	28,000874  	68,491177  	0,339306  	0,171929  	-4413,833529  	25558,923000  	-0,018536  	-0,050009  	0,212001  	0,107423  	-4,589309  	5015,167305  	126640,965651  	18,367719  	-0,047959  
173,553000  	23,940847  	30,132258  	24,398820  	1256,670793  	80,013710  	69,821117  	0,009831  	0,006341  	0,003958  	0,004327  	0,004231  	-0,000000  	-0,000000  	26,278796  	25,255587  	26,267003  	25,977013  	28,591747  	27,480953  	28,861460  	28,316775  	30,656413  	30,264839  	33,338798  	62,471212  	26,684837  	25,931847  	27,995677  	68,491143  	0,271503  	0,137573  	-3561,079259  	25554,663717  	-0,018533  	-0,050000  	0,208920  	0,105861  	-4,520806  	5024,224738  	126565,291914  	18,356744  	-0,047951  
174,556000  	23,914491  	30,144814  	24,400111  	1256,670793  	80,010148  	69,832702  	0,009837  	0,006339  	0,003961  	0,004406  	0,004243  	-0,000000  	-0,000000  	26,279040  	25,258562  	26,265222  	25,982680  	28,591221  	27,477221  	28,865088  	28,313600  	30,655080  	30,266811  	33,340237  	62,474201  	26,681716  	25,946127  	27,995357  	68,497207  	0,335867  	0,170186  	-4432,984666  	25555,327375  	-0,018534  	-0,050002  	0,218450  	0,110690  	-4,720017  	5020,606859  	126693,754384  	18,375376  	-0,047953  
175,553000  	23,954486  	30,147399  	24,401493  	357,439972  	80,009023  	69,849054  	0,009831  	0,006324  	0,003961  	0,004407  	0,004239  	-0,000002  	-0,000000  	26,273949  	25,258059  	26,257523  	25,971559  	28,589101  	27,472374  	28,865267  	28,298548  	30,646192  	30,266733  	33,328744  	62,469641  	26,670198  	25,953950  	27,983678  	68,490908  	0,336531  	0,170523  	-4415,070023  	12530,423255  	-0,036503  	-0,050021  	0,215839  	0,109367  	-4,655615  	4987,150316  	126557,150473  	18,355563  	-0,047969  
176,553000  	23,991655  	30,137920  	24,402353  	-242,047242  	80,007461  	69,843448  	0,009832  	0,006344  	0,003962  	0,004402  	0,004271  	0,000002  	-0,000000  	26,273118  	25,254681  	26,262410  	25,971028  	28,585924  	27,474195  	28,868188  	28,298735  	30,648802  	30,261522  	33,330902  	62,470301  	26,668113  	25,950259  	27,982148  	68,483937  	0,332290  	0,168374  	-4326,577224  	-27050,683474  	-0,103001  	-0,049975  	0,240497  	0,121862  	-5,189538  	5030,689381  	126584,695798  	18,359558  	-0,047930  
177,552000  	23,998044  	30,130381  	24,403552  	1256,670793  	80,002650  	69,848524  	0,009834  	0,006261  	0,003960  	0,004337  	0,004280  	0,000000  	-0,000000  	26,277479  	25,258761  	26,263983  	25,974306  	28,588596  	27,473452  	28,865194  	28,307691  	30,652974  	30,263374  	33,334212  	62,471680  	26,681789  	25,962111  	27,993332  	68,496418  	0,279985  	0,141871  	-3637,282945  	25553,892750  	-0,018533  	-0,049999  	0,248353  	0,125842  	-5,353849  	4851,776252  	126615,863464  	18,364078  	-0,047950  
178,556000  	23,994727  	30,143490  	24,404903  	1256,670793  	79,999026  	69,833512  	0,009830  	0,006342  	0,003961  	0,004341  	0,004259  	0,000000  	-0,000000  	26,270597  	25,263753  	26,264738  	25,974913  	28,586186  	27,472653  	28,863697  	28,307046  	30,654496  	30,259645  	33,336272  	62,474128  	26,687915  	25,958617  	27,997095  	68,487901  	0,282873  	0,143334  	-3684,644525  	25554,112775  	-0,018533  	-0,049999  	0,231095  	0,117097  	-4,987374  	5026,754566  	126548,034602  	18,354241  	-0,047951  
179,554000  	23,989013  	30,160293  	24,405825  	1256,670793  	80,002650  	69,832173  	0,009833  	0,006313  	0,003963  	0,004354  	0,004191  	-0,000001  	-0,000000  	26,263070  	25,252843  	26,259581  	25,970198  	28,577537  	27,470658  	28,867827  	28,310839  	30,655198  	30,258942  	33,333275  	62,470411  	26,681251  	25,954438  	27,988590  	68,480859  	0,293838  	0,148890  	-3841,486633  	25559,055041  	-0,018536  	-0,050010  	0,177227  	0,089802  	-3,826705  	4964,419364  	126595,647554  	18,361146  	-0,047960  
180,555000  	23,964562  	30,166632  	24,407668  	57,696365  	80,009648  	69,827937  	0,009837  	0,006338  	0,003961  	0,004373  	0,004221  	0,000002  	-0,000000  	26,272223  	25,248796  	26,260564  	25,972601  	28,576459  	27,470300  	28,862359  	28,303948  	30,642687  	30,267101  	33,328385  	62,471020  	26,684382  	25,957718  	27,984504  	68,492124  	0,309136  	0,156642  	-4061,662565  	1803,992889  	-0,053874  	-0,049980  	0,200960  	0,101828  	-4,343940  	5018,522015  	126691,657240  	18,375071  	-0,047934  
181,552000  	23,983607  	30,167863  	24,407822  	1256,670793  	80,014210  	69,821303  	0,009829  	0,006348  	0,003959  	0,004394  	0,004206  	0,000001  	-0,000000  	26,268551  	25,247140  	26,252675  	25,959981  	28,579667  	27,462085  	28,865112  	28,298391  	30,652946  	30,259912  	33,329351  	62,472433  	26,678168  	25,971669  	27,985907  	68,485223  	0,325525  	0,164946  	-4264,701882  	25546,981908  	-0,018528  	-0,049984  	0,189015  	0,095775  	-4,090225  	5038,767708  	126529,273277  	18,351520  	-0,047938  
182,552000  	24,010209  	30,165463  	24,408866  	1256,670793  	80,014834  	69,821553  	0,009827  	0,006327  	0,003953  	0,004385  	0,004187  	0,000000  	-0,000000  	26,265773  	25,241924  	26,258083  	25,963841  	28,581973  	27,456880  	28,859032  	28,298491  	30,637187  	30,250977  	33,327263  	62,461776  	26,686679  	25,975761  	27,989108  	68,487694  	0,318634  	0,161454  	-4154,837356  	25554,047886  	-0,018533  	-0,049999  	0,174205  	0,088271  	-3,769882  	4994,349288  	126478,602871  	18,344170  	-0,047951  
183,555000  	24,019793  	30,164724  	24,410986  	357,439972  	80,017115  	69,824761  	0,009828  	0,006334  	0,003957  	0,004352  	0,004251  	-0,000000  	-0,000000  	26,271608  	25,253300  	26,265916  	25,972137  	28,580134  	27,467772  	28,861176  	28,299640  	30,651182  	30,259928  	33,336301  	62,465474  	26,696235  	25,999380  	27,978411  	68,487581  	0,291610  	0,147761  	-3796,071676  	12525,736337  	-0,036490  	-0,050002  	0,225118  	0,114069  	-4,871221  	5009,353513  	126507,299154  	18,348332  	-0,047953  
184,554000  	23,992085  	30,169833  	24,411846  	956,927186  	80,019614  	69,838153  	0,009829  	0,006280  	0,003960  	0,004332  	0,004209  	-0,000001  	-0,000000  	26,281289  	25,253692  	26,277268  	25,968671  	28,597200  	27,483406  	28,864435  	28,314724  	30,655219  	30,275645  	33,342636  	62,477709  	26,704157  	26,026996  	28,005534  	68,501731  	0,275929  	0,139815  	-3611,132525  	22509,915514  	-0,022173  	-0,050010  	0,192063  	0,097320  	-4,151525  	4892,839963  	126521,809701  	18,350437  	-0,047960  
185,555000  	23,953411  	30,182235  	24,412246  	1256,670793  	80,016084  	69,840364  	0,009834  	0,006340  	0,003962  	0,004366  	0,004219  	-0,000001  	-0,000000  	26,276391  	25,250099  	26,261386  	25,972519  	28,582014  	27,472623  	28,869854  	28,308125  	30,650709  	30,265285  	33,329821  	62,467879  	26,688996  	26,045929  	27,989499  	68,490555  	0,303147  	0,153607  	-4000,148808  	25557,791360  	-0,018535  	-0,050008  	0,199527  	0,101102  	-4,310422  	5021,051135  	126624,435631  	18,365322  	-0,047958  
186,553000  	23,951936  	30,185866  	24,412307  	657,183579  	80,010898  	69,844413  	0,009835  	0,006351  	0,003962  	0,004376  	0,004234  	0,000000  	-0,000000  	26,264748  	25,240622  	26,254793  	25,965464  	28,577090  	27,466332  	28,854710  	28,294646  	30,642730  	30,250692  	33,326737  	62,454811  	26,682852  	26,042270  	27,982000  	68,476594  	0,310927  	0,157549  	-4106,181151  	18476,290055  	-0,027578  	-0,049994  	0,211669  	0,107254  	-4,568574  	5046,055111  	126641,862410  	18,367849  	-0,047946  
187,553000  	23,973040  	30,174233  	24,413044  	657,183579  	80,006399  	69,839835  	0,009832  	0,006334  	0,003957  	0,004402  	0,004214  	0,000000  	-0,000001  	26,267286  	25,256417  	26,261933  	25,967462  	28,576905  	27,467541  	28,855669  	28,316756  	30,655099  	30,263782  	33,331951  	62,464171  	26,694289  	26,057143  	27,986109  	68,486773  	0,332310  	0,168384  	-4365,509816  	18476,718758  	-0,027579  	-0,049995  	0,195559  	0,099091  	-4,220904  	5008,857593  	126575,707026  	18,358254  	-0,047947  
188,553000  	24,000625  	30,160754  	24,412737  	1256,670793  	80,004524  	69,843946  	0,009839  	0,006327  	0,003962  	0,004401  	0,004208  	-0,000000  	-0,000000  	26,275134  	25,253831  	26,263828  	25,971017  	28,582327  	27,476816  	28,864050  	28,303673  	30,654564  	30,265010  	33,337161  	62,470174  	26,691389  	26,067993  	27,983876  	68,490617  	0,331813  	0,168132  	-4330,107548  	25555,264100  	-0,018534  	-0,050002  	0,190693  	0,096625  	-4,113445  	4993,034853  	126724,385407  	18,379818  	-0,047953  
189,553000  	23,984928  	30,156569  	24,412461  	1256,670793  	80,005899  	69,844662  	0,009835  	0,006340  	0,003963  	0,004320  	0,004206  	-0,000000  	-0,000000  	26,275900  	25,257153  	26,264656  	25,979146  	28,586840  	27,468948  	28,862727  	28,309430  	30,652947  	30,262364  	33,337546  	62,465904  	26,694678  	26,085413  	27,981723  	68,478455  	0,265744  	0,134654  	-3474,403135  	25554,245709  	-0,018533  	-0,050000  	0,189268  	0,095903  	-4,082977  	5021,714719  	126655,730397  	18,369861  	-0,047951  
190,555000  	23,995802  	30,164755  	24,412584  	1256,670793  	80,008836  	69,847777  	0,009834  	0,006334  	0,003961  	0,004404  	0,004246  	0,000001  	-0,000000  	26,270091  	25,250177  	26,260664  	25,970120  	28,581975  	27,466735  	28,856050  	28,305611  	30,649302  	30,256129  	33,328623  	62,461198  	26,689181  	26,087158  	27,989426  	68,468866  	0,333937  	0,169208  	-4364,076776  	25550,547729  	-0,018530  	-0,049992  	0,221316  	0,112143  	-4,774262  	5008,088599  	126633,586808  	18,366649  	-0,047945  
191,555000  	24,009810  	30,172602  	24,411846  	1256,670793  	80,008680  	69,852542  	0,009839  	0,006333  	0,003964  	0,004380  	0,004264  	0,000003  	-0,000000  	26,278884  	25,253895  	26,275723  	25,975200  	28,584946  	27,477875  	28,861788  	28,307351  	30,657756  	30,267183  	33,332444  	62,471041  	26,699373  	26,100092  	27,997020  	68,483933  	0,314324  	0,159270  	-4103,652379  	25536,924049  	-0,018520  	-0,049962  	0,235291  	0,119224  	-5,073262  	5005,955649  	126731,778372  	18,380890  	-0,047919  
192,557000  	24,004588  	30,173218  	24,411478  	1256,670793  	80,007742  	69,850922  	0,009830  	0,006346  	0,003959  	0,004350  	0,004247  	0,000002  	-0,000000  	26,277925  	25,258617  	26,272999  	25,976015  	28,588922  	27,476549  	28,870024  	28,310812  	30,660035  	30,267407  	33,340759  	62,468568  	26,706708  	26,089441  	27,996397  	68,482395  	0,290445  	0,147171  	-3795,501928  	25540,682394  	-0,018523  	-0,049970  	0,222111  	0,112545  	-4,789401  	5035,017537  	126539,420068  	18,352991  	-0,047926  
193,552000  	24,002898  	30,176941  	24,411048  	57,696365  	80,004368  	69,850424  	0,009833  	0,006318  	0,003956  	0,004457  	0,004229  	0,000001  	-0,000000  	26,276881  	25,255994  	26,266516  	25,974535  	28,589100  	27,470231  	28,868458  	28,310633  	30,654349  	30,257037  	33,339545  	62,464123  	26,699684  	26,070025  	27,992804  	68,475620  	0,376864  	0,190960  	-4929,134921  	1804,057259  	-0,053882  	-0,049988  	0,207577  	0,105181  	-4,474745  	4974,917157  	126607,397213  	18,362850  	-0,047941  
194,555000  	23,965913  	30,181557  	24,410433  	1256,670793  	80,004431  	69,852604  	0,009826  	0,006222  	0,003955  	0,004350  	0,004231  	-0,000000  	-0,000000  	26,283582  	25,262702  	26,270865  	25,981042  	28,597210  	27,476483  	28,868249  	28,313539  	30,656239  	30,264253  	33,335360  	62,469064  	26,698659  	26,060354  	27,989370  	68,475985  	0,290354  	0,147125  	-3823,234778  	25556,583256  	-0,018535  	-0,050005  	0,209528  	0,106169  	-4,515862  	4766,507061  	126453,656028  	18,340552  	-0,047956  
195,552000  	23,921219  	30,186081  	24,409604  	1256,670793  	80,003525  	69,855345  	0,009835  	0,006301  	0,003958  	0,004346  	0,004270  	0,000000  	-0,000000  	26,286246  	25,260978  	26,271789  	25,986557  	28,598656  	27,476926  	28,871393  	28,319648  	30,662152  	30,272380  	33,338024  	62,471558  	26,703044  	26,042906  	27,992241  	68,474821  	0,286735  	0,145291  	-3805,484394  	25553,393337  	-0,018532  	-0,049998  	0,239731  	0,121473  	-5,164953  	4937,970075  	126641,954204  	18,367863  	-0,047950  
196,553000  	23,901866  	30,180665  	24,409419  	57,696365  	80,004462  	69,847247  	0,009832  	0,006327  	0,003960  	0,004377  	0,004230  	0,000001  	-0,000000  	26,285104  	25,254411  	26,267807  	25,982463  	28,593359  	27,478215  	28,870474  	28,320420  	30,661820  	30,269515  	33,337827  	62,470827  	26,699751  	26,025564  	27,990939  	68,474199  	0,312319  	0,158255  	-4154,265822  	1804,329415  	-0,053887  	-0,049994  	0,208327  	0,105561  	-4,492349  	4993,994857  	126574,082975  	18,358019  	-0,047946  
197,556000  	23,869367  	30,157277  	24,408651  	-242,047242  	80,005337  	69,810714  	0,009825  	0,006330  	0,003962  	0,004354  	0,004249  	0,000000  	-0,000000  	26,284174  	25,254735  	26,267761  	25,972130  	28,589736  	27,480011  	28,871726  	28,316483  	30,658599  	30,269414  	33,334760  	62,472091  	26,697890  	26,012677  	27,986467  	68,474306  	0,293378  	0,148657  	-3907,992318  	-27060,501584  	-0,103036  	-0,049995  	0,223176  	0,113085  	-4,830254  	5000,343479  	126430,361482  	18,337174  	-0,047948  
198,741000  	23,825381  	30,130750  	24,408467  	357,439972  	80,006087  	69,791840  	0,009832  	0,006332  	0,003961  	0,004427  	0,004209  	0,000001  	-0,000000  	26,280999  	25,257073  	26,270265  	25,970911  	28,588520  	27,475772  	28,872843  	28,311385  	30,658358  	30,268346  	33,336307  	62,473104  	26,695780  	25,985790  	27,987709  	68,473258  	0,352374  	0,178551  	-4706,903327  	12522,790568  	-0,036481  	-0,049989  	0,191832  	0,097202  	-4,159841  	5003,773885  	126589,984557  	18,360325  	-0,047942  
199,553000  	23,835978  	30,104254  	24,406716  	1256,670793  	80,004493  	69,785954  	0,009834  	0,006269  	0,003959  	0,004364  	0,004216  	0,000000  	-0,000000  	26,277042  	25,257817  	26,269278  	25,974542  	28,589604  	27,476403  	28,865007  	28,306179  	30,660404  	30,262681  	33,337441  	62,467919  	26,688935  	25,957619  	27,985371  	68,471090  	0,301775  	0,152912  	-4007,302967  	25553,612361  	-0,018532  	-0,049998  	0,197229  	0,099937  	-4,278678  	4868,051050  	126636,079374  	18,367010  	-0,047950  
200,552000  	23,896122  	30,081236  	24,405364  	57,696365  	80,002619  	69,796294  	0,009832  	0,006285  	0,003958  	0,004361  	0,004247  	0,000000  	-0,000000  	26,273536  	25,248329  	26,263851  	25,965500  	28,582129  	27,471575  	28,863567  	28,304441  	30,660799  	30,259625  	33,338580  	62,460424  	26,691776  	25,948441  	27,981290  	68,467905  	0,298868  	0,151438  	-3916,024970  	1804,705171  	-0,053892  	-0,049998  	0,222032  	0,112505  	-4,810990  	4903,378788  	126581,730139  	18,359128  	-0,047950  
201,553000  	23,948465  	30,060557  	24,405118  	57,696365  	79,996401  	69,810590  	0,009832  	0,006242  	0,003962  	0,004359  	0,004225  	-0,000000  	-0,000000  	26,270301  	25,248200  	26,260324  	25,963170  	28,576734  	27,473066  	28,869276  	28,302153  	30,655736  	30,255202  	33,336682  	62,464870  	26,689323  	25,942336  	27,978785  	68,472461  	0,297563  	0,150777  	-3852,888909  	1804,777979  	-0,053893  	-0,050000  	0,204718  	0,103732  	-4,426941  	4809,895440  	126584,378049  	18,359512  	-0,047951  
202,556000  	23,967511  	30,068373  	24,404504  	1256,670793  	79,995277  	69,805482  	0,009829  	0,006294  	0,003962  	0,004386  	0,004250  	0,000001  	-0,000000  	26,270525  	25,249199  	26,263414  	25,968528  	28,575624  	27,471798  	28,863984  	28,303361  	30,651985  	30,258335  	33,332336  	62,463679  	26,686994  	25,924575  	27,982200  	68,469875  	0,319033  	0,161656  	-4123,284172  	25547,244794  	-0,018528  	-0,049984  	0,224519  	0,113766  	-4,857026  	4922,455781  	126513,986010  	18,349302  	-0,047938  
203,553000  	24,001700  	30,086929  	24,404596  	1256,670793  	80,001931  	69,779756  	0,009836  	0,006325  	0,003963  	0,004427  	0,004190  	0,000002  	-0,000000  	26,272420  	25,255773  	26,267038  	25,985658  	28,582403  	27,478708  	28,871592  	28,306601  	30,657301  	30,271099  	33,331413  	62,466919  	26,694080  	25,911911  	27,988265  	68,470978  	0,352425  	0,178577  	-4543,182524  	25544,124147  	-0,018525  	-0,049977  	0,176507  	0,089437  	-3,830496  	4989,109234  	126661,485188  	18,370695  	-0,047932  
204,555000  	24,011714  	30,100839  	24,404535  	1256,670793  	80,010117  	69,763624  	0,009823  	0,006327  	0,003958  	0,004426  	0,004190  	0,000001  	-0,000001  	26,267986  	25,262661  	26,270780  	25,985418  	28,581833  	27,474021  	28,881620  	28,311402  	30,657210  	30,269245  	33,333064  	62,472662  	26,688592  	25,897975  	27,986538  	68,479434  	0,351886  	0,178303  	-4539,127480  	25547,380406  	-0,018528  	-0,049984  	0,176466  	0,089417  	-3,838712  	4994,538883  	126388,821070  	18,331149  	-0,047938  
205,552000  	23,972671  	30,120226  	24,403582  	57,696365  	80,015428  	69,751758  	0,009836  	0,006338  	0,003957  	0,004390  	0,004209  	0,000001  	-0,000000  	26,265513  	25,251220  	26,270479  	25,972757  	28,586389  	27,474092  	28,863709  	28,308509  	30,651156  	30,259195  	33,329314  	62,467615  	26,680784  	25,883911  	27,982438  	68,471387  	0,322764  	0,163547  	-4203,431855  	1804,637065  	-0,053887  	-0,049993  	0,191924  	0,097249  	-4,181955  	5018,571536  	126673,827979  	18,372485  	-0,047945  
206,608000  	23,960322  	30,144475  	24,403029  	1256,670793  	80,019989  	69,764776  	0,009834  	0,006332  	0,003960  	0,004348  	0,004239  	0,000001  	-0,000000  	26,276749  	25,264792  	26,284027  	25,972426  	28,589847  	27,478412  	28,870929  	28,312134  	30,657159  	30,268414  	33,335687  	62,470613  	26,684360  	25,874695  	27,982182  	68,465443  	0,288571  	0,146221  	-3780,503933  	25546,998799  	-0,018528  	-0,049984  	0,215733  	0,109314  	-4,696894  	5005,420112  	126616,604879  	18,364186  	-0,047937  
207,556000  	23,943550  	30,153246  	24,403121  	1256,670793  	80,022957  	69,786889  	0,009837  	0,006337  	0,003965  	0,004327  	0,004252  	-0,000001  	-0,000000  	26,270257  	25,256827  	26,263134  	25,969235  	28,581046  	27,471347  	28,866971  	28,298519  	30,645457  	30,256459  	33,335068  	62,468984  	26,681784  	25,859247  	27,982232  	68,472234  	0,271743  	0,137694  	-3574,754651  	25561,167525  	-0,018538  	-0,050015  	0,225873  	0,114452  	-4,908490  	5015,436135  	126701,571015  	18,376509  	-0,047964  
208,553000  	23,917563  	30,152692  	24,403859  	1256,670793  	80,025019  	69,806759  	0,009835  	0,006306  	0,003962  	0,004384  	0,004272  	-0,000001  	-0,000000  	26,280061  	25,261991  	26,268994  	25,977751  	28,581596  	27,472303  	28,866161  	28,305472  	30,651953  	30,262077  	33,330587  	62,464809  	26,686340  	25,839911  	27,988769  	68,472364  	0,317618  	0,160939  	-4195,357542  	25557,589923  	-0,018535  	-0,050007  	0,241404  	0,122321  	-5,236880  	4948,116267  	126654,819516  	18,369728  	-0,047957  
209,552000  	23,904109  	30,147122  	24,403613  	57,696365  	80,030674  	69,825539  	0,009822  	0,006258  	0,003962  	0,004400  	0,004225  	-0,000001  	-0,000000  	26,271436  	25,257508  	26,262272  	25,975867  	28,580177  	27,477265  	28,855258  	28,305432  	30,643653  	30,270299  	33,326287  	62,471807  	26,686618  	25,818755  	27,994337  	68,472187  	0,330976  	0,167708  	-4377,336326  	1805,278188  	-0,053906  	-0,050013  	0,204193  	0,103466  	-4,423958  	4843,970999  	126377,650420  	18,329529  	-0,047962  
210,551000  	23,910744  	30,139675  	24,404719  	657,183579  	80,031362  	69,827408  	0,009829  	0,006334  	0,003960  	0,004415  	0,004278  	0,000001  	-0,000000  	26,275366  	25,264763  	26,267911  	25,977968  	28,587789  	27,471912  	28,877050  	28,308852  	30,649709  	30,269306  	33,329020  	62,474485  	26,696664  	25,815534  	27,991564  	68,471422  	0,343001  	0,173801  	-4526,133305  	18474,404521  	-0,027575  	-0,049987  	0,246367  	0,124836  	-5,337069  	5008,607157  	126514,000132  	18,349304  	-0,047940  
211,553000  	23,937653  	30,126934  	24,404442  	-242,047242  	80,034330  	69,823733  	0,009831  	0,006335  	0,003958  	0,004409  	0,004213  	0,000001  	-0,000000  	26,276578  	25,240868  	26,257420  	25,966266  	28,578250  	27,461091  	28,871392  	28,302943  	30,643291  	30,257524  	33,323952  	62,468694  	26,687630  	25,779221  	27,985605  	68,463848  	0,338319  	0,171429  	-4435,926385  	-27057,724648  	-0,103027  	-0,049990  	0,194708  	0,098660  	-4,220723  	5010,825001  	126560,829303  	18,356096  	-0,047943  
212,556000  	23,981149  	30,115056  	24,404135  	-242,047242  	80,039016  	69,826411  	0,009834  	0,006337  	0,003961  	0,004316  	0,004231  	0,000000  	-0,000000  	26,270317  	25,256352  	26,254505  	25,975628  	28,591800  	27,466583  	28,871563  	28,309544  	30,644572  	30,257153  	33,323054  	62,474057  	26,701152  	25,766904  	28,002459  	68,473197  	0,262977  	0,133252  	-3417,204734  	-27061,677856  	-0,103042  	-0,049998  	0,209113  	0,105959  	-4,533876  	5014,642380  	126634,709522  	18,366812  	-0,047950  
213,553000  	24,010916  	30,117979  	24,405610  	1256,670793  	80,035736  	69,808814  	0,009826  	0,006328  	0,003960  	0,004333  	0,004198  	-0,000001  	-0,000000  	26,278576  	25,255487  	26,265523  	25,976528  	28,583788  	27,476380  	28,867640  	28,301308  	30,655104  	30,259426  	33,331675  	62,476208  	26,703721  	25,743613  	27,992687  	68,475721  	0,276329  	0,140018  	-3574,994328  	25557,420850  	-0,018535  	-0,050007  	0,182854  	0,092654  	-3,970098  	4995,138090  	126458,076273  	18,341193  	-0,047957  
214,554000  	23,999304  	30,130966  	24,405794  	657,183579  	80,035986  	69,809998  	0,009834  	0,006333  	0,003962  	0,004399  	0,004257  	0,000001  	-0,000001  	26,256191  	25,243817  	26,257923  	25,957090  	28,573998  	27,457849  	28,853104  	28,292399  	30,640377  	30,248844  	33,323829  	62,465721  	26,694830  	25,703108  	27,992787  	68,467543  	0,330029  	0,167228  	-4286,923395  	18475,672713  	-0,027577  	-0,049991  	0,229427  	0,116252  	-4,980829  	5005,847410  	126624,216737  	18,365290  	-0,047944  
215,554000  	24,007598  	30,150261  	24,406071  	657,183579  	80,037267  	69,825819  	0,009828  	0,006276  	0,003958  	0,004315  	0,004197  	0,000001  	-0,000000  	26,266969  	25,252973  	26,262828  	25,966606  	28,581623  	27,474478  	28,862413  	28,298113  	30,638810  	30,258119  	33,326351  	62,471412  	26,705032  	25,707548  	27,994640  	68,462577  	0,261674  	0,132592  	-3405,130059  	18472,509399  	-0,027572  	-0,049982  	0,182421  	0,092434  	-3,954713  	4883,460642  	126502,893032  	18,347693  	-0,047936  
216,555000  	24,004465  	30,165032  	24,405825  	1256,670793  	80,034767  	69,848119  	0,009825  	0,006243  	0,003962  	0,004464  	0,004243  	0,000001  	-0,000000  	26,268525  	25,247170  	26,260641  	25,965469  	28,580158  	27,466975  	28,857898  	28,297972  	30,644396  	30,255609  	33,330231  	62,467626  	26,712142  	25,688774  	27,987942  	68,469436  	0,382207  	0,193667  	-4988,103153  	25548,092725  	-0,018528  	-0,049986  	0,218715  	0,110824  	-4,730020  	4813,577697  	126441,150832  	18,338738  	-0,047940  
217,553000  	23,960937  	30,171310  	24,406224  	57,696365  	80,030081  	69,839554  	0,009837  	0,006276  	0,003957  	0,004369  	0,004209  	-0,000001  	-0,000000  	26,268790  	25,247056  	26,262664  	25,967511  	28,579988  	27,459986  	28,854264  	28,298887  	30,635031  	30,256138  	33,322069  	62,463862  	26,710045  	25,670678  	27,991238  	68,472412  	0,305803  	0,154953  	-4023,244466  	1804,932398  	-0,053900  	-0,050007  	0,191838  	0,097206  	-4,150355  	4884,549402  	126693,471941  	18,375335  	-0,047957  
218,553000  	23,957128  	30,177341  	24,406409  	1256,670793  	80,029331  	69,832889  	0,009832  	0,006330  	0,003956  	0,004324  	0,004215  	-0,000000  	-0,000000  	26,277931  	25,255616  	26,265884  	25,979360  	28,576581  	27,468969  	28,861986  	28,305044  	30,645873  	30,260447  	33,329397  	62,473769  	26,711450  	25,672010  	28,005743  	68,470984  	0,268816  	0,136211  	-3542,230636  	25557,157284  	-0,018535  	-0,050006  	0,196251  	0,099442  	-4,248289  	5000,777851  	126578,757419  	18,358697  	-0,047957  
219,552000  	23,942475  	30,166540  	24,406777  	1256,670793  	80,036642  	69,818874  	0,009839  	0,006258  	0,003959  	0,004353  	0,004206  	0,000000  	-0,000000  	26,278521  	25,256899  	26,262739  	25,975965  	28,582987  	27,466715  	28,867842  	28,295090  	30,652791  	30,259793  	33,329305  	62,471445  	26,702597  	25,681378  	28,003166  	68,469900  	0,292538  	0,148231  	-3857,211158  	25554,128730  	-0,018533  	-0,049999  	0,189255  	0,095897  	-4,105395  	4844,469748  	126735,824378  	18,381477  	-0,047951  
220,554000  	23,919191  	30,146414  	24,406101  	1256,670793  	80,040703  	69,809468  	0,009832  	0,006217  	0,003959  	0,004365  	0,004209  	-0,000000  	-0,000000  	26,273011  	25,253689  	26,258108  	25,965304  	28,583350  	27,457657  	28,859459  	28,292215  	30,640506  	30,255381  	33,318770  	62,460459  	26,689288  	25,688507  	27,990021  	68,467224  	0,302054  	0,153053  	-3984,717151  	25555,621520  	-0,018534  	-0,050003  	0,192143  	0,097360  	-4,173524  	4756,926825  	126586,927104  	18,359882  	-0,047954  
221,554000  	23,921403  	30,136228  	24,407054  	1256,670793  	80,041047  	69,800717  	0,009838  	0,006319  	0,003960  	0,004341  	0,004201  	-0,000001  	-0,000000  	26,268837  	25,245250  	26,253700  	25,959365  	28,572634  	27,458082  	28,852050  	28,294962  	30,636190  	30,250999  	33,313826  	62,455776  	26,683134  	25,697440  	27,982310  	68,459557  	0,282769  	0,143281  	-3722,880780  	25560,244653  	-0,018537  	-0,050013  	0,185720  	0,094105  	-4,037592  	4976,817357  	126713,024108  	18,378170  	-0,047962  
222,553000  	23,931847  	30,128842  	24,407422  	1256,670793  	80,041047  	69,792868  	0,009827  	0,006330  	0,003961  	0,004356  	0,004304  	0,000000  	-0,000000  	26,268751  	25,243614  	26,259456  	25,963906  	28,571426  	27,462193  	28,855274  	28,294637  	30,643905  	30,252327  	33,316962  	62,460248  	26,680652  	25,719297  	27,984137  	68,458219  	0,295230  	0,149595  	-3875,783767  	25553,063602  	-0,018532  	-0,049997  	0,267328  	0,135457  	-5,816235  	5000,130537  	126484,633045  	18,345045  	-0,047949  
223,554000  	23,940141  	30,117025  	24,407146  	357,439972  	80,045390  	69,799159  	0,009830  	0,006353  	0,003958  	0,004386  	0,004231  	-0,000000  	-0,000000  	26,270325  	25,251628  	26,268257  	25,973935  	28,576365  	27,464529  	28,861449  	28,298905  	30,648586  	30,258937  	33,320660  	62,467101  	26,683093  	25,740927  	27,990476  	68,463538  	0,319572  	0,161929  	-4181,724602  	12526,458606  	-0,036492  	-0,050005  	0,208924  	0,105863  	-4,544672  	5049,169997  	126544,864171  	18,353781  	-0,047955  
224,552000  	23,968770  	30,111117  	24,406470  	956,927186  	80,052763  	69,807880  	0,009830  	0,006347  	0,003960  	0,004349  	0,004227  	-0,000000  	-0,000000  	26,272121  	25,250769  	26,264069  	25,972733  	28,577556  	27,467778  	28,863572  	28,294946  	30,646728  	30,261669  	33,321442  	62,466163  	26,685888  	25,744499  	27,992918  	68,461850  	0,289166  	0,146523  	-3762,695926  	22506,667088  	-0,022170  	-0,050002  	0,206399  	0,104584  	-4,489177  	5036,993434  	126538,975219  	18,352927  	-0,047953  
225,556000  	24,001546  	30,112440  	24,405487  	-242,047242  	80,060511  	69,806759  	0,009830  	0,006333  	0,003962  	0,004342  	0,004221  	0,000000  	-0,000000  	26,273701  	25,243690  	26,260740  	25,965393  	28,580193  	27,469826  	28,859219  	28,291016  	30,642119  	30,258132  	33,325499  	62,464030  	26,677949  	25,743026  	27,990564  	68,456899  	0,283891  	0,143850  	-3675,125667  	-27062,465033  	-0,103045  	-0,050000  	0,200979  	0,101837  	-4,375064  	5006,635505  	126549,249110  	18,354417  	-0,047951  
226,553000  	23,973900  	30,125242  	24,406900  	357,439972  	80,064010  	69,821957  	0,009825  	0,006355  	0,003963  	0,004353  	0,004189  	0,000000  	-0,000000  	26,272608  	25,249162  	26,266855  	25,966347  	28,579600  	27,469175  	28,858643  	28,304404  	30,645124  	30,256659  	33,330084  	62,466872  	26,674752  	25,749119  	27,989947  	68,459881  	0,292684  	0,148305  	-3814,036453  	12525,356464  	-0,036488  	-0,050000  	0,175947  	0,089154  	-3,825790  	5053,201732  	126428,236093  	18,336865  	-0,047951  
227,554000  	23,926441  	30,145368  	24,407084  	1256,670793  	80,062386  	69,846967  	0,009835  	0,006308  	0,003964  	0,004359  	0,004225  	0,000001  	-0,000000  	26,276915  	25,265447  	26,272194  	25,971605  	28,578408  	27,469695  	28,866130  	28,306974  	30,653681  	30,260858  	33,326731  	62,466780  	26,684403  	25,762853  	27,997580  	68,463979  	0,297119  	0,150552  	-3914,384444  	25548,925804  	-0,018529  	-0,049988  	0,204495  	0,103619  	-4,434998  	4953,315997  	126640,880918  	18,367707  	-0,047941  
228,554000  	23,905122  	30,161739  	24,406040  	57,696365  	80,062886  	69,855189  	0,009836  	0,006306  	0,003958  	0,004380  	0,004226  	0,000003  	-0,000000  	26,277209  	25,265298  	26,275660  	25,976786  	28,583356  	27,471534  	28,863169  	28,309053  	30,648377  	30,260840  	33,325287  	62,474083  	26,680075  	25,785738  	27,999551  	68,455850  	0,314190  	0,159202  	-4164,379234  	1803,557867  	-0,053859  	-0,049964  	0,205485  	0,104121  	-4,453093  	4949,168240  	126672,938281  	18,372356  	-0,047920  
229,553000  	23,909024  	30,159154  	24,406040  	1256,670793  	80,065791  	69,859051  	0,009835  	0,006297  	0,003962  	0,004302  	0,004279  	0,000001  	-0,000000  	26,277150  	25,256817  	26,274301  	25,969325  	28,582616  	27,466127  	28,860223  	28,297800  	30,642233  	30,258963  	33,326332  	62,471179  	26,676807  	25,793908  	27,990334  	68,462425  	0,251475  	0,127424  	-3329,675330  	25551,255804  	-0,018531  	-0,049993  	0,247343  	0,125330  	-5,359697  	4929,580471  	126654,960738  	18,369749  	-0,047945  
230,555000  	23,944411  	30,139090  	24,406777  	1256,670793  	80,069665  	69,856747  	0,009826  	0,006266  	0,003962  	0,004384  	0,004248  	0,000001  	-0,000000  	26,275761  	25,255021  	26,272558  	25,972523  	28,582275  	27,465624  	28,856852  	28,303272  	30,654227  	30,266922  	33,317981  	62,464144  	26,681963  	25,784281  	27,993938  	68,466184  	0,317495  	0,160877  	-4166,516343  	25549,963129  	-0,018530  	-0,049990  	0,223042  	0,113017  	-4,836055  	4862,530141  	126459,015398  	18,341330  	-0,047943  
231,552000  	23,964039  	30,121918  	24,406777  	1256,670793  	80,071446  	69,848275  	0,009835  	0,006249  	0,003955  	0,004430  	0,004202  	-0,000000  	-0,000000  	26,270417  	25,251610  	26,264669  	25,978209  	28,580361  	27,469813  	28,861119  	28,306048  	30,643121  	30,254848  	33,324143  	62,464181  	26,681532  	25,773864  	27,989864  	68,453970  	0,354996  	0,179879  	-4630,960894  	25557,106030  	-0,018535  	-0,050006  	0,186608  	0,094555  	-4,050129  	4825,871697  	126650,392210  	18,369086  	-0,047956  
232,556000  	23,976142  	30,117241  	24,405180  	1256,670793  	80,072758  	69,847029  	0,009834  	0,006372  	0,003955  	0,004412  	0,004203  	0,000001  	-0,000000  	26,260992  	25,244241  	26,257601  	25,965388  	28,577465  	27,455519  	28,850742  	28,297927  	30,634927  	30,246283  	33,310510  	62,465030  	26,670760  	25,755026  	27,983375  	68,441152  	0,340282  	0,172423  	-4426,918119  	25548,083700  	-0,018528  	-0,049986  	0,186718  	0,094611  	-4,053527  	5090,118394  	126619,556416  	18,364614  	-0,047939  
233,554000  	23,970244  	30,119426  	24,405303  	1256,670793  	80,071446  	69,827408  	0,009833  	0,006379  	0,003957  	0,004321  	0,004250  	0,000001  	-0,000000  	26,247320  	25,237945  	26,252483  	25,956986  	28,573443  	27,461985  	28,846691  	28,294382  	30,630298  	30,237989  	33,313979  	62,455182  	26,664072  	25,746322  	27,975011  	68,450627  	0,266509  	0,135042  	-3471,729339  	25549,737725  	-0,018530  	-0,049990  	0,224506  	0,113759  	-4,882603  	5106,410879  	126604,417432  	18,362418  	-0,047943  
234,554000  	23,971350  	30,123734  	24,404811  	1256,670793  	80,068322  	69,799876  	0,009826  	0,006353  	0,003962  	0,004354  	0,004252  	-0,000001  	-0,000000  	26,260908  	25,250661  	26,258822  	25,960893  	28,575354  	27,460536  	28,856937  	28,297619  	30,632646  	30,253779  	33,315614  	62,465610  	26,670581  	25,745313  	27,991890  	68,454805  	0,293183  	0,148558  	-3821,192869  	25562,345933  	-0,018539  	-0,050017  	0,226155  	0,114595  	-4,930175  	5049,427507  	126457,652607  	18,341132  	-0,047966  
235,553000  	23,974115  	30,132597  	24,403521  	1256,670793  	80,064666  	69,808441  	0,009825  	0,006314  	0,003961  	0,004334  	0,004245  	-0,000001  	-0,000000  	26,266053  	25,256502  	26,265501  	25,976331  	28,580409  	27,474419  	28,865976  	28,300835  	30,645033  	30,259744  	33,331050  	62,464141  	26,675981  	25,771463  	27,993374  	68,452443  	0,277279  	0,140499  	-3617,486279  	25560,879483  	-0,018538  	-0,050014  	0,220327  	0,111641  	-4,797401  	4966,715026  	126433,842601  	18,337679  	-0,047963  
236,555000  	24,000287  	30,142567  	24,403029  	57,696365  	80,062854  	69,831363  	0,009826  	0,006381  	0,003964  	0,004349  	0,004224  	0,000000  	-0,000000  	26,275490  	25,244696  	26,261716  	25,961927  	28,576854  	27,463963  	28,847812  	28,288449  	30,641484  	30,252669  	33,324679  	62,461988  	26,670675  	25,772126  	27,990062  	68,455882  	0,289664  	0,146775  	-3769,119464  	1804,800725  	-0,053891  	-0,049997  	0,203453  	0,103091  	-4,419318  	5110,323763  	126456,762910  	18,341003  	-0,047949  
237,552000  	24,005171  	30,152815  	24,402599  	-242,047242  	80,064135  	69,864595  	0,009835  	0,006335  	0,003958  	0,004446  	0,004287  	0,000000  	-0,000000  	26,275082  	25,252313  	26,268718  	25,975272  	28,582581  	27,478394  	28,865285  	28,308407  	30,648467  	30,260563  	33,333358  	62,472314  	26,680091  	25,801731  	28,001453  	68,470749  	0,367596  	0,186264  	-4787,357877  	-27062,563428  	-0,103046  	-0,050000  	0,253552  	0,128477  	-5,490374  	5010,782554  	126640,224236  	18,367612  	-0,047951  
238,554000  	23,964562  	30,158539  	24,401800  	357,439972  	80,064260  	69,852262  	0,009830  	0,006332  	0,003959  	0,004349  	0,004226  	-0,000000  	-0,000000  	26,285114  	25,263128  	26,276517  	25,975551  	28,587218  	27,472766  	28,857532  	28,312493  	30,650580  	30,257719  	33,329864  	62,470612  	26,683724  	25,805680  	28,004033  	68,457803  	0,289091  	0,146484  	-3793,331135  	12525,894088  	-0,036489  	-0,050001  	0,205433  	0,104094  	-4,453836  	5003,553162  	126546,113984  	18,353962  	-0,047952  
239,555000  	23,937192  	30,169987  	24,401155  	1256,670793  	80,062979  	69,861730  	0,009828  	0,006349  	0,003961  	0,004354  	0,004243  	0,000001  	-0,000000  	26,262784  	25,249301  	26,265912  	25,963644  	28,575836  	27,467665  	28,860215  	28,296611  	30,642717  	30,254177  	33,328361  	62,464081  	26,656289  	25,816170  	27,986127  	68,453269  	0,293057  	0,148494  	-3869,484292  	25549,902136  	-0,018530  	-0,049990  	0,218568  	0,110750  	-4,733642  	5041,521796  	126492,675630  	18,346212  	-0,047943  
240,552000  	23,934366  	30,175341  	24,401155  	1256,670793  	80,062854  	69,869205  	0,009825  	0,006334  	0,003960  	0,004386  	0,004148  	0,000000  	-0,000000  	26,270196  	25,250041  	26,261648  	25,963951  	28,579784  	27,463139  	28,863490  	28,297174  	30,642802  	30,256870  	33,325643  	62,462924  	26,658933  	25,851525  	27,990608  	68,451541  	0,319459  	0,161872  	-4223,625974  	25552,817703  	-0,018532  	-0,049996  	0,143148  	0,072534  	-3,097921  	5008,746524  	126428,744491  	18,336939  	-0,047948  
241,556000  	23,915505  	30,161185  	24,400080  	57,696365  	80,062667  	69,875216  	0,009837  	0,006343  	0,003963  	0,004371  	0,004202  	0,000000  	-0,000000  	26,265679  	25,255187  	26,257865  	25,963595  	28,577903  	27,462936  	28,851400  	28,294649  	30,639778  	30,253909  	33,324447  	62,458290  	26,646878  	25,865615  	27,985036  	68,448643  	0,306984  	0,155551  	-4061,750273  	1804,988100  	-0,053892  	-0,049998  	0,186480  	0,094491  	-4,033224  	5027,288687  	126689,899027  	18,374816  	-0,047949  
242,553000  	23,928714  	30,152322  	24,399404  	1256,670793  	80,061917  	69,878393  	0,009828  	0,006355  	0,003964  	0,004384  	0,004225  	0,000000  	-0,000000  	26,261744  	25,245658  	26,254574  	25,966166  	28,574730  	27,455636  	28,849791  	28,291641  	30,632811  	30,245177  	33,319454  	62,457918  	26,646054  	25,882822  	27,981949  	68,450206  	0,317548  	0,160904  	-4186,682249  	25554,287359  	-0,018533  	-0,049999  	0,204363  	0,103552  	-4,418319  	5055,187533  	126504,884260  	18,347982  	-0,047951  
243,556000  	23,959401  	30,142813  	24,398943  	357,439972  	80,062729  	69,882659  	0,009830  	0,006316  	0,003961  	0,004414  	0,004196  	0,000001  	-0,000000  	26,268566  	25,249028  	26,264340  	25,967750  	28,577192  	27,467955  	28,859392  	28,301360  	30,638004  	30,258312  	33,331085  	62,471271  	26,655410  	25,906639  	27,993529  	68,458558  	0,342180  	0,173385  	-4482,294796  	12521,686444  	-0,036477  	-0,049981  	0,181617  	0,092027  	-3,925207  	4970,642060  	126541,884389  	18,353349  	-0,047936  
244,554000  	23,989996  	30,135612  	24,398206  	956,927186  	80,060417  	69,876617  	0,009828  	0,006357  	0,003961  	0,004352  	0,004251  	0,000003  	-0,000000  	26,271604  	25,248895  	26,254989  	25,970121  	28,580293  	27,468633  	28,862863  	28,307111  	30,637942  	30,262731  	33,324177  	62,470242  	26,661134  	25,917455  	27,990928  	68,453089  	0,291585  	0,147748  	-3796,183544  	22492,129677  	-0,022156  	-0,049965  	0,224757  	0,113886  	-4,859363  	5059,243322  	126488,022370  	18,345537  	-0,047921  
245,555000  	24,017274  	30,137890  	24,397131  	1256,670793  	80,058293  	69,877147  	0,009832  	0,006351  	0,003961  	0,004368  	0,004258  	-0,000001  	-0,000000  	26,276130  	25,250492  	26,255626  	25,977284  	28,583935  	27,468514  	28,867847  	28,304960  	30,647359  	30,255598  	33,322002  	62,472497  	26,674614  	25,931470  	27,994952  	68,454561  	0,304496  	0,154290  	-3948,135059  	25559,157381  	-0,018536  	-0,050010  	0,230674  	0,116884  	-4,985974  	5046,243999  	126589,815091  	18,360300  	-0,047960  
246,553000  	24,028333  	30,150445  	24,396885  	657,183579  	80,053669  	69,873098  	0,009832  	0,006323  	0,003957  	0,004387  	0,004279  	-0,000002  	-0,000000  	26,274532  	25,249963  	26,263005  	25,975982  	28,580908  	27,468796  	28,867007  	28,302594  	30,651789  	30,259626  	33,328379  	62,474691  	26,677218  	25,929098  	27,989917  	68,456054  	0,320226  	0,162261  	-4153,101581  	18485,782670  	-0,027592  	-0,050021  	0,246828  	0,125070  	-5,334856  	4984,898515  	126579,844827  	18,358854  	-0,047969  
247,552000  	24,031558  	30,169371  	24,395595  	657,183579  	80,051451  	69,875807  	0,009832  	0,006275  	0,003956  	0,004373  	0,004238  	-0,000000  	-0,000000  	26,272480  	25,249690  	26,261756  	25,974153  	28,581896  	27,467557  	28,863232  	28,297595  	30,645498  	30,261936  	33,327461  	62,474590  	26,672481  	25,911554  	27,985921  	68,452586  	0,309067  	0,156607  	-4018,666267  	18480,446406  	-0,027584  	-0,050004  	0,214559  	0,108718  	-4,635145  	4881,124655  	126583,813162  	18,359430  	-0,047955  
248,553000  	24,023142  	30,182111  	24,394980  	57,696365  	80,051576  	69,892501  	0,009825  	0,006329  	0,003957  	0,004374  	0,004204  	0,000001  	-0,000000  	26,272036  	25,250905  	26,260829  	25,969464  	28,578544  	27,468107  	28,863340  	28,295676  	30,646006  	30,258808  	33,329012  	62,477509  	26,667409  	25,902828  	27,986707  	68,448623  	0,309952  	0,157055  	-4044,057004  	1805,069891  	-0,053886  	-0,049991  	0,188004  	0,095263  	-4,054880  	4997,498130  	126441,270871  	18,338756  	-0,047944  
249,555000  	23,991440  	30,191713  	24,394458  	956,927186  	80,056200  	69,875340  	0,009839  	0,006326  	0,003961  	0,004368  	0,004222  	-0,000000  	-0,000000  	26,271691  	25,251289  	26,264670  	25,966264  	28,570836  	27,464992  	28,863704  	28,300669  	30,642701  	30,257806  	33,330741  	62,471435  	26,669121  	25,895138  	27,982584  	68,441627  	0,304966  	0,154529  	-4005,704945  	22506,485860  	-0,022170  	-0,050000  	0,201869  	0,102288  	-4,363234  	4990,617509  	126728,699735  	18,380444  	-0,047952  
250,552000  	23,940571  	30,193067  	24,394642  	357,439972  	80,055137  	69,866184  	0,009831  	0,006365  	0,003961  	0,004348  	0,004232  	-0,000000  	-0,000000  	26,274795  	25,255613  	26,267386  	25,974346  	28,579487  	27,466951  	28,866102  	28,308512  	30,641771  	30,265065  	33,329176  	62,462619  	26,675431  	25,884215  	27,986108  	68,438967  	0,288761  	0,146317  	-3824,807920  	12526,541119  	-0,036490  	-0,050002  	0,209634  	0,106223  	-4,534679  	5076,822651  	126562,142666  	18,356287  	-0,047953  
251,554000  	23,894955  	30,189097  	24,394089  	357,439972  	80,051826  	69,850331  	0,009841  	0,006339  	0,003962  	0,004368  	0,004253  	-0,000001  	-0,000000  	26,273045  	25,256048  	26,264856  	25,972395  	28,586644  	27,474592  	28,865652  	28,309077  	30,650237  	30,270201  	33,329724  	62,461191  	26,667996  	25,877272  	27,993587  	68,437569  	0,304576  	0,154331  	-4061,165850  	12528,109813  	-0,036495  	-0,050009  	0,226961  	0,115003  	-4,915522  	5020,749055  	126784,609472  	18,388553  	-0,047959  
252,556000  	23,888381  	30,177341  	24,393536  	-242,047242  	80,046389  	69,848150  	0,009828  	0,006347  	0,003961  	0,004375  	0,004284  	0,000001  	-0,000001  	26,269141  	25,253911  	26,263509  	25,970457  	28,580886  	27,474301  	28,866023  	28,304127  	30,647720  	30,260560  	33,327619  	62,462645  	26,663888  	25,874193  	27,995961  	68,436441  	0,310313  	0,157238  	-4134,254298  	-27058,781715  	-0,103035  	-0,049993  	0,251359  	0,127366  	-5,442188  	5037,216279  	126498,691682  	18,347084  	-0,047945  
253,552000  	23,908624  	30,151953  	24,393168  	956,927186  	80,039766  	69,855314  	0,009835  	0,006339  	0,003962  	0,004410  	0,004243  	-0,000000  	-0,000000  	26,273402  	25,262861  	26,268031  	25,983544  	28,586962  	27,481852  	28,878547  	28,316348  	30,657271  	30,271041  	33,334698  	62,478613  	26,668966  	25,887904  	27,996221  	68,449707  	0,338939  	0,171743  	-4482,875438  	22508,403946  	-0,022172  	-0,050005  	0,218563  	0,110748  	-4,725731  	5020,234034  	126653,393175  	18,369522  	-0,047956  
254,556000  	23,956237  	30,128134  	24,393782  	-242,047242  	80,037142  	69,854317  	0,009828  	0,006341  	0,003963  	0,004398  	0,004194  	0,000001  	-0,000000  	26,279927  	25,260428  	26,268603  	25,971286  	28,590678  	27,486713  	28,868951  	28,313498  	30,650793  	30,270345  	33,334682  	62,481235  	26,667735  	25,899006  	27,998028  	68,441363  	0,329349  	0,166884  	-4306,186556  	-27058,923575  	-0,103036  	-0,049993  	0,179707  	0,091059  	-3,884957  	5024,862147  	126497,801984  	18,346955  	-0,047945  
255,554000  	23,999918  	30,116502  	24,393321  	-242,047242  	80,034392  	69,865249  	0,009827  	0,006345  	0,003962  	0,004378  	0,004202  	0,000001  	-0,000000  	26,284222  	25,259745  	26,271166  	25,977296  	28,587258  	27,482305  	28,870680  	28,312560  	30,652464  	30,266581  	33,333810  	62,476219  	26,665264  	25,907272  	28,000794  	68,437859  	0,313246  	0,158724  	-4058,915628  	-27058,721746  	-0,103035  	-0,049992  	0,186084  	0,094290  	-4,017435  	5033,430735  	126477,932067  	18,344073  	-0,047945  
256,555000  	24,008335  	30,124072  	24,392645  	956,927186  	80,036329  	69,864875  	0,009835  	0,006352  	0,003962  	0,004392  	0,004197  	0,000001  	-0,000000  	26,271509  	25,249677  	26,258291  	25,969654  	28,580664  	27,466845  	28,864654  	28,308356  	30,644488  	30,259153  	33,331256  	62,464639  	26,661367  	25,907060  	27,986855  	68,433605  	0,323876  	0,164110  	-4196,072555  	22502,819489  	-0,022166  	-0,049991  	0,182094  	0,092268  	-3,932173  	5048,770289  	126639,864120  	18,367559  	-0,047944  
257,555000  	24,011899  	30,152292  	24,391939  	1256,670793  	80,044983  	69,870700  	0,009841  	0,006344  	0,003963  	0,004347  	0,004203  	-0,000000  	-0,000000  	26,263430  	25,249892  	26,264479  	25,972083  	28,579500  	27,463745  	28,863627  	28,304323  	30,645365  	30,255403  	33,327897  	62,462074  	26,657986  	25,902128  	27,989965  	68,426665  	0,287667  	0,145763  	-3741,983890  	25555,736483  	-0,018534  	-0,050002  	0,186799  	0,094653  	-4,034915  	5030,107860  	126773,961343  	18,387009  	-0,047953  
258,554000  	24,022343  	30,167617  	24,392246  	657,183579  	80,050545  	69,852822  	0,009836  	0,006341  	0,003962  	0,004334  	0,004229  	0,000001  	-0,000000  	26,274968  	25,261883  	26,272862  	25,984340  	28,583507  	27,488617  	28,868536  	28,308569  	30,667057  	30,272623  	33,336514  	62,473262  	26,661352  	25,922218  	27,995719  	68,435149  	0,277024  	0,140370  	-3606,404168  	18473,768678  	-0,027574  	-0,049984  	0,207720  	0,105253  	-4,497132  	5024,927232  	126661,103889  	18,370640  	-0,047937  
259,556000  	24,008704  	30,175464  	24,392338  	657,183579  	80,054138  	69,866620  	0,009835  	0,006331  	0,003963  	0,004312  	0,004245  	0,000001  	-0,000000  	26,275020  	25,252592  	26,271094  	25,969389  	28,581200  	27,467479  	28,866620  	28,306501  	30,647299  	30,266748  	33,326868  	62,465775  	26,656242  	25,913021  	27,992179  	68,433674  	0,259340  	0,131410  	-3387,997330  	18473,675444  	-0,027573  	-0,049983  	0,220650  	0,111805  	-4,772291  	5003,186705  	126655,229059  	18,369788  	-0,047937  
260,553000  	23,987938  	30,184943  	24,391232  	57,696365  	80,054450  	69,862508  	0,009833  	0,006301  	0,003964  	0,004324  	0,004268  	0,000001  	-0,000000  	26,277159  	25,244328  	26,255819  	25,968490  	28,583392  	27,469174  	28,857060  	28,304279  	30,640897  	30,269378  	33,320253  	62,456925  	26,658207  	25,903483  	27,985972  	68,440313  	0,269412  	0,136513  	-3536,837210  	1805,078492  	-0,053880  	-0,049985  	0,238316  	0,120756  	-5,156605  	4937,802410  	126604,014949  	18,362360  	-0,047938  
261,554000  	23,974545  	30,186943  	24,391140  	57,696365  	80,048295  	69,870326  	0,009832  	0,006375  	0,003965  	0,004386  	0,004274  	-0,000000  	-0,000000  	26,279885  	25,265043  	26,263305  	25,976670  	28,573851  	27,470517  	28,871731  	28,310831  	30,652712  	30,270869  	33,336436  	62,470764  	26,670578  	25,907336  	27,987517  	68,435100  	0,319565  	0,161926  	-4205,670804  	1805,733079  	-0,053899  	-0,050005  	0,243543  	0,123405  	-5,262494  	5097,406504  	126580,063721  	18,358886  	-0,047956  
262,552000  	23,980504  	30,181219  	24,391263  	1256,670793  	80,040360  	69,871509  	0,009830  	0,006340  	0,003960  	0,004401  	0,004239  	0,000001  	-0,000000  	26,271911  	25,247543  	26,262532  	25,973021  	28,579921  	27,459900  	28,863335  	28,303217  	30,647537  	30,246523  	33,322009  	62,451676  	26,666008  	25,883514  	27,981186  	68,439899  	0,331750  	0,168100  	-4357,821004  	25546,916151  	-0,018527  	-0,049982  	0,215836  	0,109366  	-4,659621  	5021,735943  	126531,087978  	18,351783  	-0,047936  
263,556000  	23,991839  	30,170417  	24,391632  	1256,670793  	80,036298  	69,871790  	0,009830  	0,006263  	0,003953  	0,004420  	0,004213  	-0,000000  	-0,000000  	26,273179  	25,260296  	26,267845  	25,971855  	28,587623  	27,468466  	28,863736  	28,319658  	30,653067  	30,259280  	33,329503  	62,472635  	26,674600  	25,882405  	27,992656  	68,444723  	0,346543  	0,175596  	-4535,884645  	25555,143863  	-0,018533  	-0,050001  	0,194717  	0,098664  	-4,201891  	4855,653764  	126534,851540  	18,352329  	-0,047952  
264,554000  	23,996877  	30,167340  	24,391140  	57,696365  	80,035361  	69,880946  	0,009835  	0,006302  	0,003955  	0,004408  	0,004180  	0,000000  	-0,000000  	26,273857  	25,253282  	26,261315  	25,969434  	28,577649  	27,471004  	28,868788  	28,307861  	30,649225  	30,270878  	33,323661  	62,464363  	26,677896  	25,861403  	27,981430  	68,434978  	0,337474  	0,171001  	-4411,375541  	1805,516500  	-0,053893  	-0,049998  	0,168831  	0,085548  	-3,639679  	4939,943142  	126654,148712  	18,369631  	-0,047950  
265,553000  	23,945486  	30,173802  	24,390618  	1256,670793  	80,036704  	69,870606  	0,009829  	0,006342  	0,003955  	0,004418  	0,004235  	0,000001  	-0,000000  	26,269255  	25,252327  	26,256973  	25,965727  	28,577648  	27,470824  	28,865383  	28,303638  	30,642368  	30,254655  	33,314863  	62,459941  	26,670093  	25,833930  	27,983021  	68,429246  	0,344965  	0,174796  	-4551,593450  	25550,743448  	-0,018530  	-0,049991  	0,212286  	0,107567  	-4,581744  	5025,670051  	126512,905662  	18,349146  	-0,047944  
266,553000  	23,918024  	30,177065  	24,391171  	1256,670793  	80,035080  	69,862944  	0,009837  	0,006349  	0,003958  	0,004322  	0,004261  	-0,000000  	-0,000000  	26,276340  	25,260157  	26,271585  	25,971863  	28,589469  	27,474845  	28,872377  	28,313807  	30,648844  	30,267779  	33,325990  	62,472996  	26,667620  	25,822789  	27,993027  	68,444538  	0,267550  	0,135570  	-3547,571069  	25556,382687  	-0,018534  	-0,050003  	0,233318  	0,118224  	-5,038668  	5040,483265  	126692,095027  	18,375135  	-0,047954  
267,556000  	23,919314  	30,161555  	24,389788  	1256,670793  	80,033455  	69,835194  	0,009827  	0,006340  	0,003960  	0,004288  	0,004243  	0,000000  	-0,000000  	26,278149  	25,259468  	26,268036  	25,978102  	28,592695  	27,476560  	28,870468  	28,315930  	30,651274  	30,266309  	33,335410  	62,478109  	26,684367  	25,803484  	27,989080  	68,446866  	0,240245  	0,121734  	-3176,963105  	25552,694120  	-0,018531  	-0,049995  	0,218328  	0,110628  	-4,727029  	5021,111268  	126481,420247  	18,344579  	-0,047947  
268,553000  	23,929205  	30,142783  	24,389666  	1256,670793  	80,033392  	69,832453  	0,009822  	0,006354  	0,003964  	0,004347  	0,004263  	-0,000002  	-0,000000  	26,271924  	25,250803  	26,263516  	25,968382  	28,577206  	27,470950  	28,866575  	28,304465  	30,641983  	30,259383  	33,323408  	62,468502  	26,677817  	25,768717  	27,979005  	68,435555  	0,287780  	0,145820  	-3788,095054  	25564,308143  	-0,018540  	-0,050020  	0,234779  	0,118964  	-5,084545  	5051,831409  	126359,778793  	18,326936  	-0,047969  
269,554000  	23,938513  	30,129827  	24,389788  	956,927186  	80,035486  	69,837000  	0,009840  	0,006345  	0,003960  	0,004361  	0,004254  	-0,000000  	-0,000000  	26,265217  	25,249089  	26,260137  	25,965749  	28,576124  	27,466883  	28,863267  	28,305370  	30,641408  	30,255796  	33,317514  	62,454654  	26,668339  	25,747504  	27,978840  	68,426806  	0,299034  	0,151523  	-3922,125448  	22508,852920  	-0,022172  	-0,050006  	0,227696  	0,115375  	-4,929962  	5032,396449  	126745,356854  	18,382860  	-0,047956  
270,553000  	23,934642  	30,130258  	24,388621  	-242,047242  	80,033424  	69,835942  	0,009830  	0,006285  	0,003962  	0,004346  	0,004251  	-0,000001  	-0,000000  	26,271840  	25,252323  	26,263667  	25,971271  	28,585532  	27,465988  	28,865535  	28,307863  	30,649328  	30,268714  	33,326272  	62,456490  	26,679215  	25,736557  	27,990586  	68,435446  	0,287156  	0,145504  	-3768,941853  	-27066,687637  	-0,103067  	-0,050009  	0,225104  	0,114062  	-4,873376  	4903,975873  	126539,794306  	18,353045  	-0,047959  
271,552000  	23,963763  	30,136074  	24,387607  	-242,047242  	80,028612  	69,839181  	0,009832  	0,006342  	0,003961  	0,004379  	0,004295  	0,000001  	-0,000000  	26,280485  	25,257020  	26,267504  	25,976215  	28,585719  	27,472359  	28,874490  	28,310423  	30,655242  	30,273032  	33,329092  	62,467514  	26,679953  	25,731044  	27,996236  	68,444035  	0,313444  	0,158825  	-4098,503275  	-27055,786659  	-0,103026  	-0,049987  	0,259769  	0,131627  	-5,619405  	5025,382828  	126577,655888  	18,358537  	-0,047940  
272,556000  	23,980166  	30,136566  	24,386870  	956,927186  	80,022989  	69,859300  	0,009831  	0,006335  	0,003965  	0,004374  	0,004245  	0,000000  	-0,000000  	26,283813  	25,262306  	26,274026  	25,980250  	28,587887  	27,470215  	28,877828  	28,311543  	30,658488  	30,271616  	33,330228  	62,473238  	26,670023  	25,717012  	27,992447  	68,445146  	0,309544  	0,156848  	-4037,061378  	22504,828345  	-0,022168  	-0,049995  	0,220591  	0,111775  	-4,759862  	5010,153634  	126562,728737  	18,356372  	-0,047948  
273,553000  	23,983484  	30,139336  	24,385764  	1256,670793  	80,023082  	69,847372  	0,009829  	0,006360  	0,003960  	0,004432  	0,004240  	0,000001  	-0,000000  	26,276042  	25,258873  	26,272068  	25,977074  	28,587275  	27,467672  	28,871106  	28,309653  	30,654721  	30,267976  	33,327083  	62,468425  	26,660594  	25,700936  	27,985403  	68,440188  	0,356914  	0,180851  	-4654,452876  	25547,990822  	-0,018528  	-0,049984  	0,216584  	0,109745  	-4,678909  	5063,990993  	126515,158151  	18,349472  	-0,047938  
274,552000  	23,975313  	30,148383  	24,384597  	657,183579  	80,021833  	69,849614  	0,009835  	0,006344  	0,003958  	0,004392  	0,004211  	-0,000001  	-0,000000  	26,274439  	25,258154  	26,266224  	25,973883  	28,582658  	27,472588  	28,866639  	28,306910  	30,655398  	30,261493  	33,324518  	62,467741  	26,654918  	25,692157  	27,981610  	68,433488  	0,324382  	0,164367  	-4242,043587  	18482,844179  	-0,027587  	-0,050010  	0,193119  	0,097855  	-4,170560  	5030,001743  	126645,174062  	18,368330  	-0,047960  
275,554000  	23,991624  	30,153092  	24,383398  	657,183579  	80,024551  	69,837156  	0,009836  	0,006339  	0,003960  	0,004351  	0,004238  	-0,000000  	-0,000000  	26,274153  	25,263614  	26,263372  	25,973096  	28,583325  	27,471916  	28,870003  	28,306134  	30,650613  	30,258615  	33,327157  	62,472660  	26,650960  	25,681944  	27,978329  	68,430553  	0,291063  	0,147484  	-3799,163819  	18480,509396  	-0,027583  	-0,050003  	0,214749  	0,108815  	-4,644595  	5018,876445  	126677,047838  	18,372952  	-0,047954  
276,555000  	24,009318  	30,159862  	24,382907  	57,696365  	80,030549  	69,841579  	0,009831  	0,006300  	0,003961  	0,004379  	0,004233  	0,000000  	-0,000000  	26,265664  	25,260817  	26,260449  	25,970356  	28,585760  	27,470211  	28,868025  	28,309636  	30,643444  	30,264076  	33,323253  	62,473499  	26,644875  	25,667445  	27,979189  	68,434203  	0,313337  	0,158770  	-4082,643149  	1806,006668  	-0,053894  	-0,049999  	0,210831  	0,106830  	-4,560562  	4935,852689  	126562,276827  	18,356306  	-0,047950  
277,553000  	23,999580  	30,169433  	24,381955  	1256,670793  	80,029362  	69,851981  	0,009831  	0,006291  	0,003963  	0,004343  	0,004187  	-0,000001  	-0,000000  	26,270316  	25,254100  	26,263166  	25,971304  	28,586457  	27,473642  	28,862516  	28,309368  	30,654987  	30,268325  	33,323365  	62,472451  	26,643192  	25,654529  	27,987610  	68,443931  	0,284691  	0,144255  	-3721,043335  	25560,856672  	-0,018537  	-0,050012  	0,174509  	0,088425  	-3,770573  	4915,396176  	126570,368840  	18,357480  	-0,047962  
278,554000  	23,961244  	30,177249  	24,381770  	1256,670793  	80,025738  	69,857401  	0,009826  	0,006377  	0,003964  	0,004365  	0,004184  	0,000002  	-0,000000  	26,278405  	25,251349  	26,266253  	25,973728  	28,586815  	27,473475  	28,865952  	28,305091  	30,655051  	30,260531  	33,331066  	62,471027  	26,646962  	25,646058  	27,989977  	68,451823  	0,302454  	0,153255  	-3982,787235  	25545,288875  	-0,018526  	-0,049978  	0,171754  	0,087029  	-3,707753  	5101,181437  	126449,807733  	18,339994  	-0,047933  
279,553000  	23,927976  	30,185835  	24,380941  	1256,670793  	80,026613  	69,849303  	0,009830  	0,006350  	0,003963  	0,004335  	0,004190  	0,000001  	-0,000000  	26,279513  	25,254248  	26,267263  	25,977338  	28,587832  	27,477076  	28,865899  	28,311102  	30,646898  	30,263069  	33,325021  	62,472325  	26,643716  	25,639813  	27,990793  	68,452993  	0,278256  	0,140994  	-3688,828202  	25546,908325  	-0,018527  	-0,049982  	0,176518  	0,089443  	-3,813963  	5042,372854  	126545,803296  	18,353917  	-0,047936  
280,562000  	23,916611  	30,180173  	24,379589  	1256,670793  	80,028487  	69,853103  	0,009833  	0,006335  	0,003963  	0,004381  	0,004207  	0,000002  	-0,000000  	26,278832  	25,259378  	26,269231  	25,976431  	28,586431  	27,479489  	28,871674  	28,310694  	30,647316  	30,269272  	33,330422  	62,465831  	26,636881  	25,626387  	27,986284  	68,450378  	0,315505  	0,159869  	-4186,445607  	25545,200513  	-0,018526  	-0,049978  	0,190008  	0,096279  	-4,104659  	5011,654128  	126607,079464  	18,362804  	-0,047932  
281,555000  	23,956421  	30,157800  	24,379405  	1256,670793  	80,028644  	69,838028  	0,009833  	0,006292  	0,003962  	0,004320  	0,004258  	0,000001  	-0,000000  	26,278539  	25,263603  	26,275301  	25,976501  	28,590878  	27,477410  	28,875168  	28,309421  	30,653233  	30,263678  	33,331469  	62,468902  	26,650426  	25,611822  	27,983997  	68,448017  	0,266036  	0,134802  	-3494,986030  	25548,964267  	-0,018529  	-0,049986  	0,230873  	0,116985  	-4,994893  	4917,625339  	126614,585406  	18,363893  	-0,047940  
282,553000  	24,006185  	30,143644  	24,378852  	1256,670793  	80,029331  	69,825134  	0,009829  	0,006364  	0,003965  	0,004352  	0,004223  	0,000002  	-0,000000  	26,269941  	25,270014  	26,266977  	25,979642  	28,593386  	27,481525  	28,868356  	28,304167  	30,647586  	30,266769  	33,323364  	62,470862  	26,653397  	25,601149  	27,990681  	68,445317  	0,291470  	0,147690  	-3789,642182  	25546,622354  	-0,018527  	-0,049981  	0,202945  	0,102834  	-4,396535  	5073,403564  	126527,303232  	18,351234  	-0,047935  
283,554000  	24,033832  	30,140505  	24,378391  	357,439972  	80,031799  	69,833045  	0,009823  	0,006285  	0,003960  	0,004393  	0,004227  	0,000001  	-0,000000  	26,282065  	25,265159  	26,267762  	25,984990  	28,592873  	27,483887  	28,876204  	28,317616  	30,661804  	30,271022  	33,330273  	62,475453  	26,656011  	25,604346  	27,991278  	68,452937  	0,324788  	0,164573  	-4201,653530  	12523,396763  	-0,036480  	-0,049985  	0,205914  	0,104338  	-4,458474  	4903,562724  	126396,764800  	18,332301  	-0,047938  
284,553000  	24,040344  	30,151215  	24,377531  	956,927186  	80,034611  	69,833419  	0,009837  	0,006285  	0,003956  	0,004410  	0,004200  	0,000002  	-0,000001  	26,273901  	25,250439  	26,264399  	25,970491  	28,587181  	27,475033  	28,867968  	28,315951  	30,660601  	30,263595  	33,323402  	62,466101  	26,656448  	25,580458  	27,983543  	68,438226  	0,338985  	0,171766  	-4388,319941  	22495,318977  	-0,022158  	-0,049971  	0,184748  	0,093613  	-4,001145  	4902,750576  	126682,866179  	18,373796  	-0,047927  
285,553000  	24,018595  	30,170694  	24,376978  	57,696365  	80,037391  	69,847777  	0,009836  	0,006342  	0,003957  	0,004331  	0,004233  	0,000000  	-0,000000  	26,283334  	25,261965  	26,281248  	25,980874  	28,589410  	27,483111  	28,876559  	28,310878  	30,658063  	30,266729  	33,328399  	62,481304  	26,654715  	25,576280  	27,992495  	68,453298  	0,274562  	0,139123  	-3578,322994  	1806,338385  	-0,053895  	-0,049999  	0,211060  	0,106946  	-4,565811  	5027,210868  	126670,311555  	18,371975  	-0,047950  
286,552000  	24,006246  	30,184789  	24,376179  	1256,670793  	80,039141  	69,839679  	0,009838  	0,006348  	0,003959  	0,004378  	0,004260  	-0,000000  	-0,000000  	26,276329  	25,264251  	26,271023  	25,978168  	28,594656  	27,469266  	28,875308  	28,313476  	30,650303  	30,273509  	33,334063  	62,476736  	26,650687  	25,564502  	27,985822  	68,460988  	0,312750  	0,158473  	-4093,547372  	25557,377917  	-0,018535  	-0,050004  	0,232084  	0,117599  	-5,025453  	5038,950230  	126710,750436  	18,377841  	-0,047955  
287,554000  	24,002652  	30,188020  	24,375626  	1256,670793  	80,039578  	69,824729  	0,009825  	0,006341  	0,003959  	0,004368  	0,004183  	0,000000  	-0,000000  	26,268101  	25,245408  	26,256661  	25,973250  	28,591589  	27,464499  	28,875144  	28,314547  	30,655732  	30,253463  	33,312969  	62,468624  	26,643047  	25,552243  	27,982331  	68,457143  	0,304840  	0,154465  	-3994,415688  	25555,243726  	-0,018533  	-0,050000  	0,171296  	0,086797  	-3,714758  	5022,986000  	126433,920273  	18,337690  	-0,047951  
288,552000  	23,969968  	30,183589  	24,373967  	1256,670793  	80,038204  	69,817815  	0,009835  	0,006353  	0,003958  	0,004379  	0,004176  	-0,000001  	-0,000001  	26,274010  	25,261063  	26,262793  	25,982481  	28,587777  	27,483877  	28,873978  	28,312941  	30,652147  	30,269266  	33,326138  	62,475070  	26,650552  	25,557321  	27,999984  	68,460140  	0,313504  	0,158855  	-4126,715178  	25561,907368  	-0,018538  	-0,050014  	0,165308  	0,083763  	-3,586845  	5049,286018  	126645,075207  	18,368315  	-0,047963  
289,556000  	23,944042  	30,183496  	24,372124  	956,927186  	80,036111  	69,826910  	0,009833  	0,006342  	0,003959  	0,004385  	0,004168  	0,000000  	-0,000000  	26,281721  	25,267277  	26,276246  	25,978258  	28,596979  	27,482825  	28,871439  	28,323296  	30,660286  	30,276526  	33,327506  	62,473253  	26,650206  	25,538421  	27,987365  	68,460242  	0,318373  	0,161322  	-4208,234669  	22505,586528  	-0,022168  	-0,049996  	0,159652  	0,080897  	-3,460330  	5026,028018  	126600,985740  	18,361921  	-0,047948  
290,554000  	23,931755  	30,182942  	24,371755  	357,439972  	80,032549  	69,848150  	0,009829  	0,006353  	0,003958  	0,004297  	0,004275  	0,000000  	-0,000000  	26,280164  	25,257436  	26,278511  	25,977556  	28,592638  	27,472158  	28,873471  	28,321474  	30,660303  	30,263874  	33,331727  	62,466482  	26,648650  	25,525318  	27,994018  	68,463906  	0,247090  	0,125202  	-3272,163882  	12526,533015  	-0,036488  	-0,049997  	0,244236  	0,123756  	-5,280786  	5050,025299  	126521,435463  	18,350383  	-0,047949  
291,567000  	23,958940  	30,171679  	24,371479  	1256,670793  	80,031580  	69,863941  	0,009835  	0,006347  	0,003961  	0,004366  	0,004246  	0,000001  	-0,000001  	26,279766  	25,255349  	26,269632  	25,981644  	28,584661  	27,470627  	28,868661  	28,316916  	30,657958  	30,256929  	33,323955  	62,467019  	26,641408  	25,517876  	27,996943  	68,462830  	0,303004  	0,153534  	-3987,940166  	25551,785091  	-0,018531  	-0,049992  	0,220852  	0,111907  	-4,767340  	5037,985981  	126654,981921  	18,369752  	-0,047944  
292,552000  	23,957896  	30,156477  	24,372400  	57,696365  	80,035392  	69,861449  	0,009831  	0,006343  	0,003960  	0,004359  	0,004239  	0,000000  	-0,000000  	26,279152  	25,252964  	26,268801  	25,978158  	28,580301  	27,474617  	28,867644  	28,307993  	30,650890  	30,261609  	33,324095  	62,467731  	26,638491  	25,499684  	27,979713  	68,455087  	0,297671  	0,150832  	-3908,816716  	1806,599738  	-0,053895  	-0,049999  	0,215306  	0,109097  	-4,650513  	5028,948356  	126568,970743  	18,357277  	-0,047950  
293,557000  	23,945946  	30,151830  	24,374459  	1256,670793  	80,039547  	69,864813  	0,009835  	0,006345  	0,003960  	0,004364  	0,004206  	-0,000000  	-0,000000  	26,286533  	25,261515  	26,279958  	25,989953  	28,587672  	27,483665  	28,879163  	28,313904  	30,657155  	30,276185  	33,330700  	62,475082  	26,641859  	25,497605  	27,987640  	68,474579  	0,301715  	0,152881  	-3966,592252  	25556,934044  	-0,018534  	-0,050003  	0,189204  	0,095871  	-4,087043  	5032,809597  	126644,404403  	18,368218  	-0,047954  
294,552000  	23,959278  	30,152446  	24,374274  	657,183579  	80,042234  	69,869236  	0,009832  	0,006339  	0,003960  	0,004366  	0,004263  	-0,000001  	-0,000000  	26,284358  	25,269465  	26,284248  	25,982077  	28,593056  	27,487126  	28,876441  	28,317247  	30,664786  	30,277209  	33,329494  	62,472016  	26,637218  	25,492959  	27,993659  	68,470175  	0,303474  	0,153773  	-3981,543352  	18485,505594  	-0,027590  	-0,050017  	0,234871  	0,119011  	-5,072631  	5019,313647  	126582,429187  	18,359229  	-0,047966  
295,554000  	24,000656  	30,148937  	24,374735  	657,183579  	80,045577  	69,873783  	0,009833  	0,006342  	0,003961  	0,004407  	0,004258  	0,000001  	-0,000000  	26,277688  	25,265436  	26,269716  	25,977460  	28,591834  	27,474609  	28,871424  	28,314940  	30,652452  	30,270710  	33,325534  	62,462072  	26,629538  	25,477156  	27,980322  	68,461491  	0,336217  	0,170364  	-4379,152691  	18475,773521  	-0,027576  	-0,049988  	0,230702  	0,116899  	-4,982014  	5026,608832  	126604,742242  	18,362465  	-0,047941  
296,556000  	24,047102  	30,146475  	24,375472  	1256,670793  	80,050263  	69,857214  	0,009829  	0,006295  	0,003962  	0,004356  	0,004292  	0,000000  	-0,000000  	26,274597  	25,266253  	26,272571  	25,981274  	28,590416  	27,474982  	28,873561  	28,318672  	30,647880  	30,267311  	33,325435  	62,467717  	26,632756  	25,467909  	27,983241  	68,466196  	0,295390  	0,149676  	-3816,771380  	25554,013575  	-0,018532  	-0,049997  	0,257710  	0,130584  	-5,576868  	4925,811198  	126524,634138  	18,350847  	-0,047949  
297,553000  	24,020899  	30,157123  	24,376763  	956,927186  	80,057887  	69,851826  	0,009832  	0,006353  	0,003960  	0,004411  	0,004256  	0,000000  	-0,000000  	26,279252  	25,265379  	26,278072  	25,983651  	28,591436  	27,481621  	28,877489  	28,319085  	30,651679  	30,271166  	33,333853  	62,467381  	26,634954  	25,464327  	27,986209  	68,473947  	0,339516  	0,172035  	-4413,432165  	22505,348361  	-0,022168  	-0,049996  	0,228818  	0,115944  	-4,957949  	5049,249231  	126577,451116  	18,358507  	-0,047948  
298,636000  	23,995956  	30,176264  	24,377070  	-242,047242  	80,057574  	69,856560  	0,009836  	0,006337  	0,003962  	0,004439  	0,004214  	0,000000  	-0,000000  	26,286163  	25,258423  	26,266584  	25,978023  	28,591229  	27,479282  	28,877598  	28,315714  	30,655858  	30,269215  	33,331011  	62,464722  	26,632904  	25,463308  	27,982469  	68,465238  	0,362639  	0,183752  	-4747,894098  	-27061,534239  	-0,103052  	-0,049999  	0,195740  	0,099183  	-4,239127  	5014,853907  	126679,603953  	18,373323  	-0,047951  
299,555000  	23,995126  	30,190020  	24,378637  	657,183579  	80,045640  	69,864564  	0,009831  	0,006342  	0,003959  	0,004395  	0,004240  	0,000001  	-0,000000  	26,279618  	25,257407  	26,259836  	25,974177  	28,586113  	27,472312  	28,871391  	28,312142  	30,655387  	30,261913  	33,323052  	62,463928  	26,631840  	25,456728  	27,980560  	68,455974  	0,326446  	0,165413  	-4284,122927  	18477,411429  	-0,027578  	-0,049993  	0,216001  	0,109449  	-4,668783  	5026,508374  	126566,732377  	18,356953  	-0,047945  
300,553000  	23,985604  	30,186081  	24,379743  	1256,670793  	80,036204  	69,858148  	0,009838  	0,006346  	0,003959  	0,004340  	0,004258  	0,000000  	-0,000000  	26,280810  	25,264466  	26,265888  	25,979898  	28,589724  	27,480241  	28,869492  	28,314319  	30,656348  	30,266400  	33,325506  	62,467624  	26,634863  	25,455216  	27,986008  	68,463211  	0,282393  	0,143091  	-3709,333750  	25554,833259  	-0,018533  	-0,049999  	0,230783  	0,116939  	-4,986810  	5033,892697  	126717,077176  	18,378758  	-0,047951  
301,553000  	23,953503  	30,179249  	24,379958  	1256,670793  	80,034798  	69,859892  	0,009830  	0,006346  	0,003959  	0,004354  	0,004235  	0,000000  	-0,000000  	26,280041  	25,261575  	26,270011  	25,980760  	28,595558  	27,484065  	28,868596  	28,315639  	30,658812  	30,269819  	33,325506  	62,466755  	26,634393  	25,450781  	27,990130  	68,466184  	0,293728  	0,148834  	-3873,955766  	25554,414577  	-0,018533  	-0,049998  	0,212241  	0,107544  	-4,584741  	5035,094648  	126548,924299  	18,354370  	-0,047950  
