06/24/2020 12:44:09
Tempo T_f_e T_f_s AR AR T_q_e T_q_s Corrente_P_f Corrente_P_q Corrente_P_RESERVA Corrente_eletromag_f Corrente_eletromag_q AR AR T_1 T_2 T_3 T_4 T_5 T_6 T_7 T_8 T_9 T_10 T_11 T_12 T_13 T_14 T_15 T_16 Velocidade_f_(m/s) Vazao_f_(L/s) q_f_(W) AR AR AR Velocidade_q_(m/s) Vazao_q_(L/s) q_q_(W) DeltaP_q_(Pa) DeltaP_f_(Pa) DeltaP_f_(Psi) AR
0,008000  	23,475871  	32,215188  	26,075204  	-242,047242  	80,148055  	72,654645  	0,007633  	0,008331  	0,003964  	0,004352  	0,004367  	0,000000  	-0,000000  	26,787754  	25,114455  	26,245774  	26,199004  	29,928585  	28,307836  	29,778669  	29,484466  	33,229046  	32,109034  	35,333748  	65,644144  	28,107518  	27,087274  	28,400248  	71,616156  	0,291581  	0,147746  	-5398,426037  	-27094,293396  	-0,102513  	-0,049994  	0,316609  	0,160428  	-5,038937  	9316,463190  	79206,920363  	11,487993  	-0,047946  
2,554000  	23,422921  	32,226705  	26,074958  	357,439972  	80,147930  	72,656328  	0,007638  	0,008326  	0,003963  	0,004314  	0,004305  	-0,000000  	-0,000000  	26,793969  	25,116030  	26,252091  	26,211957  	29,941713  	28,323313  	29,790818  	29,502009  	33,234223  	32,113557  	35,343375  	65,644123  	28,108599  	27,096091  	28,410821  	71,625157  	0,261118  	0,132311  	-4870,104423  	12443,168095  	-0,036426  	-0,050005  	0,267697  	0,135644  	-4,259465  	9304,606392  	79308,127014  	11,502671  	-0,047955  
3,553000  	23,408271  	32,235296  	26,073852  	357,439972  	80,145555  	72,651278  	0,007630  	0,008318  	0,003963  	0,004295  	0,004358  	-0,000000  	-0,000000  	26,795651  	25,115611  	26,257043  	26,202137  	29,937639  	28,317975  	29,781758  	29,500442  	33,239308  	32,115879  	35,339401  	65,652197  	28,109317  	27,093744  	28,410665  	71,625158  	0,245868  	0,124583  	-4597,779266  	12442,769519  	-0,036425  	-0,050003  	0,310117  	0,157139  	-4,936190  	9286,369138  	79137,375655  	11,477906  	-0,047954  
4,550000  	23,425041  	32,233079  	26,072622  	956,927186  	80,147992  	72,659258  	0,007631  	0,008340  	0,003963  	0,004292  	0,004332  	-0,000000  	-0,000000  	26,790591  	25,107333  	26,234193  	26,202509  	29,932647  	28,303375  	29,774949  	29,488778  	33,225085  	32,102008  	35,325643  	65,639582  	28,091859  	27,089142  	28,403622  	71,615958  	0,243554  	0,123410  	-4544,699655  	22445,009963  	-0,022146  	-0,050001  	0,288934  	0,146405  	-4,595616  	9334,097700  	79155,734498  	11,480569  	-0,047952  
5,551000  	23,430968  	32,224180  	26,071577  	1256,670793  	80,148461  	72,652338  	0,007633  	0,008332  	0,003962  	0,004269  	0,004323  	-0,000001  	-0,000000  	26,787669  	25,114453  	26,247421  	26,201859  	29,940264  	28,313730  	29,781955  	29,491410  	33,228421  	32,112744  	35,336431  	65,648442  	28,089998  	27,107058  	28,408798  	71,630448  	0,224624  	0,113818  	-4184,412834  	25504,462076  	-0,018519  	-0,050009  	0,282300  	0,143044  	-4,494527  	9318,077582  	79200,289997  	11,487031  	-0,047959  
6,549000  	23,441902  	32,216174  	26,071577  	657,183579  	80,147961  	72,646976  	0,007635  	0,008324  	0,003963  	0,004265  	0,004361  	-0,000000  	-0,000000  	26,790984  	25,110355  	26,249008  	26,204036  	29,937915  	28,319063  	29,776700  	29,491596  	33,228643  	32,119125  	35,334367  	65,645021  	28,090938  	27,108478  	28,415402  	71,623521  	0,221585  	0,112279  	-4118,910072  	18408,758562  	-0,027545  	-0,050003  	0,311897  	0,158040  	-4,968956  	9300,552018  	79254,166139  	11,494845  	-0,047954  
7,553000  	23,469729  	32,210446  	26,071670  	-242,047242  	80,152429  	72,652151  	0,007631  	0,008321  	0,003962  	0,004253  	0,004338  	0,000000  	-0,000000  	26,800058  	25,118494  	26,252040  	26,208385  	29,938245  	28,320776  	29,787669  	29,494847  	33,239665  	32,122817  	35,338363  	65,649182  	28,103637  	27,138821  	28,424005  	71,629620  	0,211627  	0,107233  	-3918,753863  	-27094,912970  	-0,102517  	-0,049995  	0,294027  	0,148986  	-4,683827  	9293,564573  	79169,390652  	11,482549  	-0,047947  
8,551000  	23,484103  	32,208968  	26,071362  	-242,047242  	80,149367  	72,661253  	0,007625  	0,008338  	0,003963  	0,004281  	0,004398  	-0,000000  	-0,000000  	26,796918  	25,115625  	26,246889  	26,203677  	29,937245  	28,317198  	29,781175  	29,492524  	33,236361  	32,117146  	35,340116  	65,657837  	28,100765  	27,144897  	28,412195  	71,630371  	0,234517  	0,118832  	-4334,740118  	-27099,958694  	-0,102536  	-0,050006  	0,341458  	0,173020  	-5,430593  	9330,406953  	79041,012915  	11,463930  	-0,047956  
9,552000  	23,435022  	32,210970  	26,071270  	-242,047242  	80,145774  	72,649813  	0,007629  	0,008326  	0,003962  	0,004247  	0,004346  	0,000001  	-0,000000  	26,798154  	25,118053  	26,253652  	26,206496  	29,939136  	28,325082  	29,781636  	29,499422  	33,237221  	32,116888  	35,343511  	65,656488  	28,097256  	27,157010  	28,412889  	71,630903  	0,207012  	0,104894  	-3848,758506  	-27092,910485  	-0,102510  	-0,049991  	0,300009  	0,152017  	-4,776374  	9303,668319  	79115,006112  	11,474662  	-0,047944  
10,551000  	23,400501  	32,218360  	26,071454  	357,439972  	80,145337  	72,643953  	0,007624  	0,008327  	0,003962  	0,004274  	0,004365  	-0,000000  	-0,000000  	26,797315  	25,122970  	26,256631  	26,212424  	29,938358  	28,324981  	29,786899  	29,499599  	33,238276  	32,120437  	35,341648  	65,652941  	28,098692  	27,170381  	28,420138  	71,631442  	0,228862  	0,115966  	-4275,320978  	12443,399291  	-0,036426  	-0,050005  	0,315619  	0,159927  	-5,028522  	9306,560359  	79008,715474  	11,459245  	-0,047956  
11,552000  	23,385943  	32,227967  	26,072376  	357,439972  	80,146680  	72,646945  	0,007635  	0,008326  	0,003964  	0,004309  	0,004341  	-0,000000  	-0,000000  	26,797504  	25,116378  	26,255170  	26,212871  	29,939189  	28,323597  	29,794224  	29,502194  	33,234627  	32,121541  	35,345048  	65,655227  	28,095160  	27,176375  	28,418979  	71,634745  	0,256752  	0,130098  	-4809,488431  	12443,000704  	-0,036425  	-0,050003  	0,296286  	0,150130  	-4,719472  	9304,498861  	79242,960183  	11,493220  	-0,047954  
12,552000  	23,426607  	32,226859  	26,072684  	956,927186  	80,147367  	72,658603  	0,007639  	0,008340  	0,003963  	0,004299  	0,004359  	-0,000000  	-0,000000  	26,797359  	25,109388  	26,252207  	26,212064  	29,940552  	28,321116  	29,789928  	29,504495  	33,236224  	32,119767  	35,339193  	65,651654  	28,095908  	27,171747  	28,419212  	71,636279  	0,249118  	0,126230  	-4644,425433  	22445,183574  	-0,022146  	-0,050001  	0,310266  	0,157214  	-4,934936  	9335,405768  	79328,837200  	11,505675  	-0,047952  
13,555000  	23,474950  	32,216328  	26,073975  	57,696365  	80,146274  	72,648379  	0,007626  	0,008337  	0,003964  	0,004300  	0,004377  	0,000000  	-0,000000  	26,798037  	25,111922  	26,254009  	26,213838  	29,937324  	28,323522  	29,783458  	29,506531  	33,238188  	32,115593  	35,339299  	65,653818  	28,095435  	27,174109  	28,421774  	71,643078  	0,249812  	0,126582  	-4626,190957  	1709,848795  	-0,053747  	-0,049996  	0,324466  	0,164409  	-5,167070  	9328,544247  	79055,692928  	11,466059  	-0,047948  
14,553000  	23,471387  	32,202163  	26,074528  	657,183579  	80,145399  	72,651559  	0,007634  	0,008328  	0,003962  	0,004298  	0,004359  	0,000000  	-0,000000  	26,796505  	25,114372  	26,253126  	26,208973  	29,936554  	28,322875  	29,782591  	29,503886  	33,235883  	32,109326  	35,340008  	65,657094  	28,088200  	27,172503  	28,423149  	71,640979  	0,248352  	0,125842  	-4593,583507  	18407,141091  	-0,027543  	-0,049998  	0,310866  	0,157518  	-4,947822  	9308,575873  	79230,645637  	11,491434  	-0,047950  
15,556000  	23,466596  	32,199761  	26,075911  	657,183579  	80,144493  	72,644545  	0,007629  	0,008335  	0,003964  	0,004289  	0,004352  	0,000000  	-0,000000  	26,796763  	25,115876  	26,249501  	26,207754  	29,939701  	28,319931  	29,780203  	29,497011  	33,236301  	32,111596  	35,339677  	65,652280  	28,090360  	27,163450  	28,423303  	71,631328  	0,240624  	0,121926  	-4451,853562  	18405,657569  	-0,027541  	-0,049994  	0,304840  	0,154465  	-4,855863  	9323,382720  	79107,408375  	11,473560  	-0,047946  
16,553000  	23,495713  	32,211462  	26,076157  	57,696365  	80,149679  	72,643672  	0,007632  	0,008335  	0,003962  	0,004272  	0,004325  	0,000000  	-0,000000  	26,795915  	25,113126  	26,250453  	26,208798  	29,935819  	28,318147  	29,778494  	29,493495  	33,237082  	32,113092  	35,342528  	65,651277  	28,094831  	27,155697  	28,423892  	71,631829  	0,227275  	0,115162  	-4196,491907  	1709,698862  	-0,053746  	-0,049995  	0,283322  	0,143561  	-4,516738  	9324,177890  	79189,952556  	11,485532  	-0,047947  
17,554000  	23,536347  	32,222733  	26,077755  	1256,670793  	80,155709  	72,650374  	0,007633  	0,008338  	0,003962  	0,004278  	0,004355  	0,000000  	-0,000000  	26,787979  	25,104486  	26,244226  	26,195908  	29,929504  	28,308374  	29,780611  	29,488859  	33,232736  	32,103711  	35,333527  	65,645864  	28,084996  	27,136655  	28,420682  	71,632410  	0,231854  	0,117482  	-4266,605085  	25499,453535  	-0,018515  	-0,049998  	0,307366  	0,155745  	-4,899615  	9330,856181  	79204,554897  	11,487649  	-0,047950  
18,554000  	23,557417  	32,226674  	26,077694  	1256,670793  	80,153772  	72,658541  	0,007632  	0,008337  	0,003963  	0,004287  	0,004329  	0,000001  	-0,000000  	26,792206  	25,108867  	26,239676  	26,194086  	29,930847  	28,312374  	29,784385  	29,489982  	33,230486  	32,107910  	35,336856  	65,638949  	28,086581  	27,121741  	28,416087  	71,633380  	0,239474  	0,121343  	-4398,122110  	25493,145669  	-0,018511  	-0,049984  	0,286543  	0,145194  	-4,561544  	9327,821945  	79186,231360  	11,484992  	-0,047938  
19,554000  	23,488495  	32,235450  	26,078155  	1256,670793  	80,155116  	72,654613  	0,007629  	0,008330  	0,003963  	0,004249  	0,004328  	-0,000001  	-0,000000  	26,800036  	25,115132  	26,250764  	26,202926  	29,930151  	28,326199  	29,781777  	29,498868  	33,231028  	32,115070  	35,345493  	65,652016  	28,104393  	27,117425  	28,425920  	71,632675  	0,208191  	0,105492  	-3857,874611  	25505,881168  	-0,018520  	-0,050012  	0,286419  	0,145131  	-4,562771  	9312,747683  	79111,870986  	11,474207  	-0,047962  
20,553000  	23,426023  	32,250662  	26,077048  	57,696365  	80,157115  	72,658042  	0,007629  	0,008326  	0,003964  	0,004260  	0,004373  	0,000002  	-0,000000  	26,795453  	25,111372  	26,246369  	26,198862  	29,927755  	28,319801  	29,771696  	29,496415  	33,226662  	32,109434  	35,336658  	65,653889  	28,099527  	27,110455  	28,422049  	71,624234  	0,216918  	0,109914  	-4055,314579  	1708,949199  	-0,053723  	-0,049972  	0,322026  	0,163173  	-5,129037  	9304,445802  	79126,565121  	11,476338  	-0,047927  
21,553000  	23,439937  	32,270338  	26,077878  	956,927186  	80,151710  	72,665835  	0,007630  	0,008338  	0,003963  	0,004310  	0,004351  	-0,000000  	-0,000000  	26,787449  	25,107646  	26,234266  	26,195652  	29,923730  	28,313510  	29,777263  	29,493712  	33,227044  	32,103181  	35,329870  	65,650870  	28,092068  	27,103808  	28,423981  	71,626007  	0,258144  	0,130803  	-4829,178450  	22446,424497  	-0,022147  	-0,050005  	0,304261  	0,154171  	-4,837553  	9330,338331  	79142,000671  	11,478577  	-0,047955  
22,554000  	23,443131  	32,264488  	26,076157  	357,439972  	80,142525  	72,677244  	0,007632  	0,008346  	0,003963  	0,004329  	0,004380  	0,000000  	-0,000000  	26,787701  	25,103211  	26,235167  	26,199686  	29,923782  	28,309457  	29,776448  	29,493837  	33,225155  	32,105396  	35,335849  	65,641572  	28,097867  	27,091122  	28,420177  	71,622770  	0,273447  	0,138557  	-5110,211793  	12441,234137  	-0,036421  	-0,049996  	0,327271  	0,165831  	-5,189094  	9346,740470  	79186,782125  	11,485072  	-0,047948  
23,552000  	23,437142  	32,244996  	26,076065  	1256,670793  	80,135276  	72,661409  	0,007636  	0,008324  	0,003963  	0,004360  	0,004353  	0,000000  	-0,000000  	26,794835  	25,107063  	26,247859  	26,207098  	29,930039  	28,314511  	29,786703  	29,509275  	33,235952  	32,126349  	35,339048  	65,662990  	28,104261  	27,096887  	28,431784  	71,630496  	0,298038  	0,151018  	-5561,251497  	25498,735171  	-0,018515  	-0,049997  	0,305684  	0,154892  	-4,852378  	9301,322427  	79270,053598  	11,497149  	-0,047948  
24,554000  	23,456368  	32,237605  	26,075389  	57,696365  	80,139025  	72,650935  	0,007629  	0,008339  	0,003962  	0,004288  	0,004330  	0,000000  	-0,000000  	26,792742  	25,111941  	26,246108  	26,200813  	29,941022  	28,321141  	29,785039  	29,493877  	33,228389  	32,113097  	35,338978  	65,655107  	28,092434  	27,082913  	28,418029  	71,633955  	0,239613  	0,121414  	-4457,555676  	1709,898164  	-0,053750  	-0,050000  	0,287288  	0,145571  	-4,569032  	9332,123217  	79123,196980  	11,475849  	-0,047951  
25,554000  	23,465552  	32,229168  	26,074251  	1256,670793  	80,147742  	72,658198  	0,007630  	0,008338  	0,003963  	0,004273  	0,004361  	-0,000001  	-0,000000  	26,785555  	25,102787  	26,246988  	26,187463  	29,927508  	28,311794  	29,778249  	29,493091  	33,218030  	32,106484  	35,342264  	65,645623  	28,083204  	27,070064  	28,419378  	71,623049  	0,227455  	0,115253  	-4222,876404  	25505,070152  	-0,018519  	-0,050010  	0,312525  	0,158359  	-4,971381  	9331,172410  	79145,305263  	11,479056  	-0,047960  
26,553000  	23,527471  	32,220054  	26,072284  	1256,670793  	80,155553  	72,652961  	0,007633  	0,008326  	0,003963  	0,004301  	0,004336  	0,000000  	-0,000000  	26,797247  	25,103205  	26,263526  	26,218600  	29,933189  	28,322144  	29,793875  	29,500097  	33,237756  	32,115233  	35,351940  	65,656834  	28,076387  	27,063019  	28,417640  	71,624579  	0,250236  	0,126797  	-4608,165316  	25500,358944  	-0,018516  	-0,050000  	0,292469  	0,148196  	-4,660454  	9303,754627  	79210,415604  	11,488499  	-0,047951  
27,553000  	23,558799  	32,220515  	26,071270  	357,439972  	80,155991  	72,656234  	0,007633  	0,008346  	0,003963  	0,004260  	0,004344  	-0,000000  	-0,000000  	26,789128  	25,121366  	26,244702  	26,199084  	29,934175  	28,314957  	29,780728  	29,491896  	33,228210  	32,109114  	35,334084  	65,650075  	28,065998  	27,053542  	28,408864  	71,609324  	0,217413  	0,110165  	-3989,483866  	12442,760662  	-0,036425  	-0,050002  	0,298483  	0,151244  	-4,754484  	9347,133810  	79211,072286  	11,488595  	-0,047953  
28,554000  	23,543319  	32,227475  	26,069856  	-242,047242  	80,155053  	72,658666  	0,007633  	0,008335  	0,003963  	0,004289  	0,004320  	0,000000  	-0,000000  	26,790921  	25,115413  	26,246851  	26,205215  	29,934774  	28,317851  	29,791995  	29,504402  	33,227928  	32,108392  	35,339069  	65,645931  	28,068809  	27,051272  	28,416971  	71,622801  	0,240533  	0,121880  	-4425,171961  	-27096,486803  	-0,102524  	-0,049999  	0,279769  	0,141761  	-4,454383  	9323,391917  	79195,050665  	11,486271  	-0,047950  
29,550000  	23,493255  	32,246412  	26,067612  	57,696365  	80,150742  	72,663840  	0,007630  	0,008297  	0,003963  	0,004261  	0,004388  	-0,000001  	-0,000000  	26,796221  	25,113183  	26,245307  	26,207228  	29,938029  	28,319170  	29,790280  	29,504351  	33,240402  	32,120860  	35,341064  	65,653076  	28,071361  	27,038153  	28,425454  	71,628820  	0,217698  	0,110309  	-4036,913140  	1710,694851  	-0,053762  	-0,050012  	0,333773  	0,169125  	-5,307498  	9242,585297  	79148,066150  	11,479456  	-0,047961  
30,556000  	23,456583  	32,267167  	26,066813  	1256,670793  	80,151304  	72,663217  	0,007629  	0,008344  	0,003963  	0,004293  	0,004388  	-0,000001  	-0,000000  	26,786894  	25,106056  	26,241584  	26,210896  	29,938782  	28,313958  	29,791652  	29,498508  	33,232290  	32,108910  	35,336350  	65,646768  	28,070920  	27,026238  	28,421463  	71,623342  	0,243715  	0,123492  	-4549,013806  	25503,744270  	-0,018518  	-0,050007  	0,333753  	0,169115  	-5,308020  	9342,546021  	79114,709546  	11,474618  	-0,047957  
31,560000  	23,418529  	32,276959  	26,065246  	357,439972  	80,159302  	72,668422  	0,007623  	0,008339  	0,003963  	0,004276  	0,004355  	-0,000000  	-0,000000  	26,786821  	25,118575  	26,244140  	26,213259  	29,928381  	28,321446  	29,787336  	29,503068  	33,228678  	32,109775  	35,336956  	65,656476  	28,064768  	27,016765  	28,423646  	71,625654  	0,230346  	0,116718  	-4322,847650  	12443,923898  	-0,036427  	-0,050006  	0,307517  	0,155821  	-4,892601  	9332,291590  	78977,554869  	11,454726  	-0,047956  
32,553000  	23,391871  	32,271847  	26,064016  	956,927186  	80,165551  	72,650343  	0,007638  	0,008325  	0,003963  	0,004273  	0,004388  	0,000000  	-0,000000  	26,789876  	25,111967  	26,242571  	26,206307  	29,934347  	28,319383  	29,782668  	29,492390  	33,222065  	32,120054  	35,339910  	65,648261  	28,065240  	27,009502  	28,422499  	71,622819  	0,227813  	0,115435  	-4285,718613  	22444,827818  	-0,022145  	-0,050000  	0,333620  	0,169048  	-5,325120  	9302,902862  	79303,318409  	11,501974  	-0,047951  
33,553000  	23,389045  	32,254234  	26,062633  	1256,670793  	80,168394  	72,649782  	0,007635  	0,008337  	0,003963  	0,004260  	0,004401  	0,000000  	-0,000000  	26,791630  	25,108447  	26,243483  	26,208031  	29,936909  	28,309913  	29,780669  	29,496846  	33,226139  	32,114363  	35,342945  	65,647671  	28,073264  	26,992421  	28,415888  	71,620699  	0,217574  	0,110247  	-4086,283560  	25499,621931  	-0,018515  	-0,049998  	0,343674  	0,174142  	-5,488080  	9328,213163  	79235,969701  	11,492206  	-0,047949  
34,551000  	23,403480  	32,236251  	26,060912  	1256,670793  	80,165770  	72,656951  	0,007628  	0,008333  	0,003964  	0,004312  	0,004371  	0,000000  	-0,000000  	26,789890  	25,111797  	26,247656  	26,204573  	29,936494  	28,314577  	29,776289  	29,496761  	33,225835  	32,111034  	35,335658  	65,648482  	28,070232  	26,985352  	28,420252  	71,625967  	0,259614  	0,131548  	-4857,987283  	25498,928823  	-0,018515  	-0,049996  	0,320094  	0,162194  	-5,104881  	9320,656223  	79101,597095  	11,472717  	-0,047948  
35,553000  	23,428726  	32,218237  	26,059713  	1256,670793  	80,157834  	72,660817  	0,007629  	0,008331  	0,003962  	0,004293  	0,004322  	0,000000  	-0,000000  	26,790855  	25,113298  	26,255386  	26,209548  	29,937999  	28,321086  	29,788970  	29,501776  	33,232361  	32,107175  	35,339457  	65,650774  	28,069144  	26,969740  	28,422640  	71,625821  	0,244134  	0,123704  	-4545,938393  	25499,936820  	-0,018516  	-0,049998  	0,281232  	0,142502  	-4,478058  	9315,644674  	79116,665468  	11,474902  	-0,047950  
36,554000  	23,467118  	32,205489  	26,058176  	1256,670793  	80,151898  	72,660754  	0,007631  	0,008344  	0,003961  	0,004268  	0,004334  	-0,000000  	-0,000000  	26,787995  	25,115969  	26,247163  	26,205232  	29,935168  	28,324412  	29,786266  	29,498723  	33,233054  	32,109188  	35,340326  	65,645604  	28,064720  	26,951829  	28,417408  	71,622089  	0,223400  	0,113198  	-4135,652507  	25502,455305  	-0,018517  	-0,050003  	0,290793  	0,147347  	-4,626666  	9344,377599  	79151,963874  	11,480022  	-0,047954  
37,553000  	23,522464  	32,200901  	26,056978  	57,696365  	80,152866  	72,672974  	0,007632  	0,008329  	0,003961  	0,004288  	0,004323  	0,000000  	-0,000000  	26,790386  	25,118197  	26,247556  	26,206592  	29,938534  	28,324950  	29,788595  	29,503331  	33,235256  	32,112823  	35,344597  	65,646271  	28,066647  	26,937927  	28,411996  	71,620742  	0,240266  	0,121744  	-4417,354559  	1710,840246  	-0,053749  	-0,049997  	0,282076  	0,142930  	-4,481245  	9310,727924  	79181,189739  	11,484261  	-0,047948  
38,553000  	23,540709  	32,205581  	26,056609  	1256,670793  	80,151804  	72,666178  	0,007637  	0,008341  	0,003962  	0,004299  	0,004348  	-0,000000  	-0,000000  	26,799160  	25,121136  	26,250493  	26,210082  	29,940891  	28,326887  	29,785826  	29,511202  	33,233688  	32,117485  	35,342270  	65,652001  	28,067911  	26,932322  	28,416846  	71,619644  	0,248832  	0,126085  	-4567,692148  	25501,863667  	-0,018517  	-0,050002  	0,301818  	0,152933  	-4,798556  	9335,938474  	79300,409239  	11,501552  	-0,047953  
39,552000  	23,526334  	32,214819  	26,056055  	1256,670793  	80,151023  	72,666178  	0,007625  	0,008334  	0,003963  	0,004300  	0,004357  	-0,000001  	-0,000000  	26,799323  	25,120701  	26,249786  	26,207155  	29,942061  	28,327565  	29,786862  	29,508476  	33,233471  	32,122244  	35,340446  	65,653016  	28,060563  	26,920454  	28,422771  	71,620784  	0,250039  	0,126696  	-4602,354739  	25504,453025  	-0,018519  	-0,050008  	0,309030  	0,156588  	-4,912703  	9321,783892  	79024,525262  	11,461538  	-0,047958  
40,554000  	23,485853  	32,233787  	26,054949  	1256,670793  	80,150585  	72,666365  	0,007631  	0,008328  	0,003962  	0,004240  	0,004331  	0,000001  	-0,000000  	26,792336  	25,114256  	26,249571  	26,204396  	29,937989  	28,326328  	29,788271  	29,498560  	33,231171  	32,117301  	35,340197  	65,644815  	28,054572  	26,905283  	28,420534  	71,617425  	0,200991  	0,101843  	-3724,870014  	25496,246028  	-0,018513  	-0,049990  	0,288629  	0,146251  	-4,588008  	9309,855643  	79156,659501  	11,480703  	-0,047942  
41,553000  	23,416195  	32,256020  	26,054734  	57,696365  	80,152616  	72,664775  	0,007630  	0,008328  	0,003963  	0,004245  	0,004361  	0,000001  	-0,000000  	26,787582  	25,115564  	26,252531  	26,210674  	29,936605  	28,321516  	29,784559  	29,500804  	33,229149  	32,115306  	35,337726  	65,640035  	28,052691  	26,900205  	28,416530  	71,620026  	0,204989  	0,103869  	-3838,888928  	1710,739328  	-0,053742  	-0,049989  	0,312387  	0,158289  	-4,968058  	9309,661095  	79147,028170  	11,479306  	-0,047942  
42,549000  	23,375408  	32,262917  	26,054549  	657,183579  	80,152116  	72,655112  	0,007636  	0,008326  	0,003964  	0,004283  	0,004319  	0,000001  	-0,000000  	26,786498  	25,117209  	26,250435  	26,216429  	29,935434  	28,319826  	29,782284  	29,504869  	33,228641  	32,113990  	35,335373  	65,641079  	28,055014  	26,897410  	28,417197  	71,624954  	0,236320  	0,119745  	-4449,531493  	18402,485006  	-0,027535  	-0,049982  	0,278672  	0,141205  	-4,437281  	9303,829616  	79268,471914  	11,496920  	-0,047936  
43,556000  	23,416779  	32,258668  	26,052982  	657,183579  	80,148555  	72,652587  	0,007636  	0,008331  	0,003962  	0,004310  	0,004337  	-0,000001  	-0,000000  	26,787949  	25,108091  	26,243985  	26,211777  	29,928070  	28,323069  	29,780562  	29,496427  	33,223415  	32,108044  	35,333852  	65,640742  	28,062148  	26,890930  	28,420218  	71,617421  	0,257987  	0,130724  	-4832,531471  	18410,846087  	-0,027548  	-0,050007  	0,293256  	0,148595  	-4,668857  	9314,681840  	79258,854704  	11,495525  	-0,047957  
44,578000  	23,447185  	32,241547  	26,054088  	1256,670793  	80,148992  	72,659258  	0,007632  	0,008288  	0,003963  	0,004283  	0,004360  	0,000000  	-0,000000  	26,791010  	25,113445  	26,250945  	26,213060  	29,940589  	28,323624  	29,792653  	29,503586  	33,235090  	32,121564  	35,341828  	65,650859  	28,065985  	26,885487  	28,423611  	71,620366  	0,236147  	0,119657  	-4399,645184  	25499,820136  	-0,018515  	-0,049997  	0,311075  	0,157624  	-4,948439  	9222,810055  	79181,839360  	11,484355  	-0,047949  
45,655000  	23,487758  	32,215219  	26,054488  	1256,670793  	80,151023  	72,662437  	0,007624  	0,008385  	0,003963  	0,004369  	0,004328  	0,000000  	-0,000000  	26,793962  	25,119288  	26,248887  	26,215913  	29,944939  	28,329625  	29,795660  	29,510657  	33,244589  	32,122385  	35,344379  	65,654105  	28,066345  	26,880137  	28,423925  	71,622211  	0,305376  	0,154736  	-5646,153215  	25500,933259  	-0,018516  	-0,050000  	0,286327  	0,145084  	-4,554060  	9431,502422  	79014,364349  	11,460065  	-0,047951  
46,612000  	23,519700  	32,206782  	26,054119  	657,183579  	80,149898  	72,657949  	0,007635  	0,008308  	0,003964  	0,004270  	0,004331  	0,000000  	-0,000000  	26,788551  	25,106839  	26,242366  	26,210277  	29,933482  	28,317820  	29,791752  	29,501676  	33,228828  	32,111447  	35,342707  	65,641766  	28,061295  	26,871434  	28,416890  	71,622776  	0,225319  	0,114171  	-4146,681486  	18407,871195  	-0,027543  	-0,049998  	0,288290  	0,146079  	-4,587346  	9265,203765  	79252,549148  	11,494610  	-0,047950  
47,550000  	23,490307  	32,209091  	26,054119  	657,183579  	80,147055  	72,648441  	0,007632  	0,008335  	0,003961  	0,004310  	0,004319  	0,000000  	-0,000000  	26,795754  	25,119561  	26,244926  	26,216542  	29,943719  	28,327230  	29,795372  	29,504568  	33,237679  	32,116256  	35,346654  	65,647169  	28,069960  	26,873045  	28,430988  	71,628218  	0,257935  	0,130698  	-4764,264789  	18407,156729  	-0,027542  	-0,049996  	0,279299  	0,141523  	-4,448223  	9324,433278  	79182,983257  	11,484521  	-0,047948  
48,550000  	23,444912  	32,221039  	26,054611  	1256,670793  	80,147742  	72,649875  	0,007634  	0,008350  	0,003963  	0,004301  	0,004334  	-0,000000  	-0,000000  	26,788517  	25,116224  	26,247968  	26,214386  	29,933857  	28,325154  	29,789404  	29,506755  	33,236892  	32,114332  	35,337784  	65,653704  	28,066145  	26,872947  	28,420626  	71,615912  	0,250345  	0,126851  	-4654,488934  	25502,046001  	-0,018517  	-0,050002  	0,291089  	0,147497  	-4,635531  	9356,636226  	79220,166974  	11,489914  	-0,047953  
49,552000  	23,395403  	32,242779  	26,055103  	57,696365  	80,149679  	72,658011  	0,007630  	0,008324  	0,003963  	0,004245  	0,004349  	-0,000000  	-0,000000  	26,799779  	25,118510  	26,252854  	26,218001  	29,942033  	28,331626  	29,784543  	29,510717  	33,239824  	32,112923  	35,345615  	65,651706  	28,074278  	26,873491  	28,424204  	71,620173  	0,205490  	0,104123  	-3851,565274  	1711,196200  	-0,053757  	-0,050005  	0,302711  	0,153386  	-4,816629  	9299,427179  	79148,306228  	11,479491  	-0,047955  
50,550000  	23,367454  	32,247336  	26,055840  	657,183579  	80,150992  	72,654271  	0,007628  	0,008350  	0,003963  	0,004282  	0,004315  	0,000000  	-0,000000  	26,785835  	25,113750  	26,238486  	26,209125  	29,938385  	28,317738  	29,781016  	29,493545  	33,230751  	32,108587  	35,341597  	65,645400  	28,059285  	26,865222  	28,415065  	71,607805  	0,235431  	0,119295  	-4428,982204  	18408,202550  	-0,027544  	-0,049999  	0,275490  	0,139593  	-4,386460  	9356,186998  	79086,966510  	11,470595  	-0,047951  
51,555000  	23,381643  	32,237821  	26,057500  	657,183579  	80,155803  	72,648286  	0,007626  	0,008345  	0,003962  	0,004286  	0,004340  	-0,000000  	-0,000000  	26,798696  	25,108955  	26,251383  	26,212668  	29,941641  	28,325807  	29,789579  	29,501248  	33,238216  	32,115043  	35,348850  	65,648714  	28,067462  	26,873528  	28,418356  	71,631435  	0,238162  	0,120678  	-4468,387524  	18409,838716  	-0,027546  	-0,050004  	0,295309  	0,149635  	-4,708781  	9346,374720  	79047,367899  	11,464851  	-0,047955  
52,549000  	23,426054  	32,220269  	26,058607  	1256,670793  	80,157740  	72,663373  	0,007635  	0,008317  	0,003962  	0,004297  	0,004373  	-0,000000  	-0,000000  	26,799212  	25,113015  	26,250034  	26,205568  	29,943162  	28,313299  	29,779073  	29,492847  	33,229845  	32,107543  	35,328429  	65,646321  	28,072954  	26,866648  	28,423405  	71,617659  	0,246974  	0,125144  	-4601,295078  	25503,427370  	-0,018518  	-0,050006  	0,321639  	0,162977  	-5,119650  	9285,275427  	79256,792865  	11,495226  	-0,047956  
53,552000  	23,444666  	32,201301  	26,060328  	956,927186  	80,159459  	72,665368  	0,007635  	0,008337  	0,003963  	0,004290  	0,004353  	0,000000  	-0,000000  	26,797908  	25,109634  	26,247600  	26,209125  	29,929487  	28,310388  	29,783743  	29,502595  	33,226283  	32,110851  	35,334841  	65,651041  	28,067910  	26,860447  	28,415143  	71,623045  	0,241561  	0,122401  	-4481,216493  	22442,673588  	-0,022143  	-0,049994  	0,305846  	0,154974  	-4,868091  	9329,058561  	79239,747386  	11,492754  	-0,047946  
54,549000  	23,459409  	32,194034  	26,061496  	357,439972  	80,161271  	72,672911  	0,007632  	0,008329  	0,003962  	0,004285  	0,004359  	0,000000  	-0,000000  	26,792546  	25,113341  	26,252995  	26,205010  	29,942798  	28,321147  	29,778616  	29,499153  	33,230544  	32,117976  	35,335610  	65,646633  	28,073762  	26,865643  	28,427174  	71,637762  	0,237544  	0,120365  	-4395,606016  	12442,633846  	-0,036423  	-0,049999  	0,310505  	0,157335  	-4,938477  	9310,176823  	79177,630948  	11,483744  	-0,047951  
55,550000  	23,471479  	32,197729  	26,063985  	1256,670793  	80,160740  	72,666272  	0,007632  	0,008303  	0,003964  	0,004272  	0,004346  	-0,000001  	-0,000000  	26,792806  	25,119920  	26,250372  	26,204533  	29,948963  	28,325040  	29,788813  	29,503355  	33,240105  	32,114176  	35,342659  	65,646119  	28,074724  	26,865095  	28,419086  	71,625280  	0,227007  	0,115026  	-4196,593205  	25504,226122  	-0,018519  	-0,050008  	0,300153  	0,152090  	-4,777717  	9255,379460  	79177,390871  	11,483710  	-0,047958  
56,551000  	23,455078  	32,206105  	26,065092  	1256,670793  	80,154553  	72,654676  	0,007626  	0,008340  	0,003963  	0,004284  	0,004318  	-0,000000  	-0,000000  	26,795000  	25,118169  	26,255387  	26,209769  	29,939542  	28,319799  	29,798330  	29,505139  	33,236078  	32,118246  	35,343674  	65,641558  	28,071753  	26,857737  	28,420770  	71,620402  	0,236947  	0,120063  	-4392,803362  	25502,276203  	-0,018517  	-0,050004  	0,277906  	0,140817  	-4,426791  	9334,502359  	79061,744285  	11,466937  	-0,047954  
57,550000  	23,431767  	32,214973  	26,066875  	1256,670793  	80,151085  	72,657699  	0,007631  	0,008321  	0,003962  	0,004269  	0,004361  	0,000000  	-0,000000  	26,786126  	25,111966  	26,247924  	26,198436  	29,925989  	28,314138  	29,775318  	29,490037  	33,225369  	32,107443  	35,337762  	65,635840  	28,061660  	26,854596  	28,415288  	71,613670  	0,224366  	0,113688  	-4174,856041  	25498,145683  	-0,018514  	-0,049995  	0,311836  	0,158010  	-4,962963  	9293,432988  	79155,685070  	11,480561  	-0,047947  
58,550000  	23,400439  	32,221193  	26,067428  	1256,670793  	80,147836  	72,649158  	0,007637  	0,008339  	0,003963  	0,004290  	0,004337  	0,000000  	-0,000000  	26,798413  	25,124346  	26,252838  	26,213303  	29,933236  	28,327770  	29,785991  	29,499272  	33,237940  	32,116655  	35,344200  	65,653768  	28,075907  	26,863480  	28,426403  	71,628141  	0,241652  	0,122447  	-4515,725177  	25500,262208  	-0,018516  	-0,049999  	0,292872  	0,148400  	-4,664428  	9333,168823  	79294,329637  	11,500670  	-0,047951  
59,554000  	23,397030  	32,222394  	26,068627  	357,439972  	80,144962  	72,649688  	0,007628  	0,008319  	0,003961  	0,004276  	0,004337  	0,000001  	-0,000000  	26,795106  	25,124226  	26,259555  	26,206934  	29,939664  	28,328799  	29,780048  	29,500934  	33,238104  	32,115866  	35,341215  	65,653027  	28,070298  	26,872610  	28,429091  	71,630167  	0,229858  	0,116471  	-4297,592764  	12441,048274  	-0,036419  	-0,049994  	0,293253  	0,148594  	-4,668381  	9289,711821  	79090,482934  	11,471105  	-0,047946  
60,551000  	23,437879  	32,216974  	26,070102  	956,927186  	80,148148  	72,641646  	0,007630  	0,008339  	0,003962  	0,004309  	0,004335  	-0,000000  	-0,000000  	26,783034  	25,105050  	26,239765  	26,193944  	29,934655  	28,314924  	29,778812  	29,488756  	33,228771  	32,108778  	35,332538  	65,647044  	28,072159  	26,864084  	28,417819  	71,627896  	0,257285  	0,130368  	-4785,145657  	22446,691854  	-0,022147  	-0,050005  	0,291448  	0,147679  	-4,646587  	9332,017101  	79141,972427  	11,478573  	-0,047955  
61,551000  	23,495559  	32,205366  	26,070348  	1256,670793  	80,159365  	72,643548  	0,007630  	0,008341  	0,003963  	0,004259  	0,004355  	0,000000  	-0,000000  	26,787120  	25,106919  	26,244370  	26,205950  	29,936195  	28,318562  	29,782142  	29,494422  	33,229071  	32,113247  	35,333665  	65,650282  	28,079247  	26,869034  	28,418503  	71,630155  	0,216173  	0,109537  	-3988,780897  	25499,768050  	-0,018516  	-0,049998  	0,307309  	0,155715  	-4,905536  	9336,144341  	79146,046678  	11,479164  	-0,047950  
62,550000  	23,485608  	32,197113  	26,071209  	1256,670793  	80,164676  	72,655019  	0,007628  	0,008301  	0,003962  	0,004293  	0,004327  	0,000001  	-0,000000  	26,782174  	25,108017  	26,249513  	26,206817  	29,936251  	28,316345  	29,778385  	29,495507  	33,227734  	32,114329  	35,333959  	65,651215  	28,073949  	26,861888  	28,417695  	71,627292  	0,243980  	0,123627  	-4502,748726  	25492,096962  	-0,018510  	-0,049982  	0,285307  	0,144567  	-4,550600  	9249,979524  	79092,890767  	11,471454  	-0,047936  
63,554000  	23,451147  	32,201085  	26,071946  	1256,670793  	80,160646  	72,664245  	0,007635  	0,008357  	0,003963  	0,004289  	0,004373  	-0,000000  	-0,000000  	26,775807  	25,106179  	26,243240  	26,202368  	29,934325  	28,309933  	29,782508  	29,492505  	33,225567  	32,111280  	35,331562  	65,645720  	28,066403  	26,851017  	28,413683  	71,626367  	0,240754  	0,121992  	-4462,821351  	25500,887157  	-0,018516  	-0,050001  	0,321382  	0,162847  	-5,116949  	9371,259138  	79248,298370  	11,493994  	-0,047952  
64,552000  	23,419205  	32,216790  	26,072438  	57,696365  	80,157834  	72,654707  	0,007627  	0,008335  	0,003963  	0,004261  	0,004371  	0,000001  	-0,000000  	26,790043  	25,106249  	26,245124  	26,203312  	29,934017  	28,314086  	29,792791  	29,496956  	33,230021  	32,111614  	35,336784  	65,650572  	28,067336  	26,853444  	28,418221  	71,625181  	0,218220  	0,110574  	-4067,142149  	1709,669130  	-0,053738  	-0,049987  	0,320406  	0,162352  	-5,105989  	9323,082056  	79083,365352  	11,470072  	-0,047940  
65,551000  	23,388124  	32,231047  	26,071792  	1256,670793  	80,157115  	72,655486  	0,007631  	0,008333  	0,003962  	0,004322  	0,004357  	-0,000000  	-0,000000  	26,797908  	25,102733  	26,247386  	26,203188  	29,940744  	28,320018  	29,791127  	29,496318  	33,237038  	32,119693  	35,342261  	65,656374  	28,071637  	26,858136  	28,422695  	71,627307  	0,267291  	0,135438  	-5007,401636  	25501,887450  	-0,018517  	-0,050003  	0,308635  	0,156388  	-4,917421  	9319,720979  	79162,011810  	11,481479  	-0,047954  
66,569000  	23,395310  	32,228214  	26,072960  	1256,670793  	80,151492  	72,654364  	0,007632  	0,008325  	0,003963  	0,004276  	0,004338  	-0,000001  	-0,000000  	26,790468  	25,101149  	26,245036  	26,198294  	29,934544  	28,317003  	29,774560  	29,491879  	33,233055  	32,118895  	35,338972  	65,651965  	28,069208  	26,849405  	28,418722  	71,627092  	0,230263  	0,116676  	-4308,836445  	25504,521861  	-0,018519  	-0,050009  	0,294092  	0,149019  	-4,682899  	9301,749725  	79171,629019  	11,482874  	-0,047959  
67,550000  	23,400931  	32,216666  	26,073329  	357,439972  	80,153179  	72,651964  	0,007630  	0,008322  	0,003963  	0,004304  	0,004359  	0,000000  	-0,000000  	26,787596  	25,109730  	26,245639  	26,195284  	29,927202  	28,315073  	29,770888  	29,492196  	33,228711  	32,108176  	35,335952  	65,645616  	28,067428  	26,839702  	28,413577  	71,625808  	0,253194  	0,128295  	-4728,720062  	12441,619291  	-0,036421  	-0,049997  	0,310864  	0,157517  	-4,952662  	9296,690777  	79143,758883  	11,478832  	-0,047949  
68,550000  	23,406091  	32,206382  	26,073268  	956,927186  	80,161115  	72,657824  	0,007633  	0,008236  	0,003963  	0,004306  	0,004335  	0,000000  	-0,000000  	26,786443  	25,116140  	26,243533  	26,196717  	29,934801  	28,315633  	29,779749  	29,493809  	33,229201  	32,105386  	35,335929  	65,647404  	28,073053  	26,855465  	28,418262  	71,629437  	0,254747  	0,129082  	-4749,395430  	22443,528386  	-0,022144  	-0,049997  	0,291718  	0,147816  	-4,648912  	9110,662862  	79197,981019  	11,486696  	-0,047949  
69,552000  	23,412448  	32,199238  	26,074467  	1256,670793  	80,167645  	72,660193  	0,007630  	0,008398  	0,003963  	0,004296  	0,004371  	-0,000000  	-0,000000  	26,779318  	25,109696  	26,238747  	26,199202  	29,932318  	28,313099  	29,778376  	29,491241  	33,222660  	32,110716  	35,331292  	65,648206  	28,072607  	26,883506  	28,425155  	71,630802  	0,246529  	0,124918  	-4589,130151  	25502,461922  	-0,018518  	-0,050005  	0,319813  	0,162051  	-5,099468  	9459,524363  	79138,731385  	11,478103  	-0,047955  
70,551000  	23,405630  	32,196159  	26,074344  	657,183579  	80,173518  	72,650717  	0,007624  	0,008309  	0,003962  	0,004257  	0,004322  	0,000000  	-0,000000  	26,777839  	25,104598  	26,240583  	26,200744  	29,927756  	28,314933  	29,781677  	29,485943  	33,225510  	32,116941  	35,329474  	65,641404  	28,068421  	26,893904  	28,419058  	71,635323  	0,214548  	0,108713  	-3995,501723  	18407,221710  	-0,027543  	-0,049999  	0,281555  	0,142666  	-4,498623  	9267,234135  	79018,961120  	11,460731  	-0,047950  
71,551000  	23,385728  	32,194311  	26,074989  	-242,047242  	80,170988  	72,648971  	0,007627  	0,008331  	0,003962  	0,004287  	0,004345  	0,000000  	-0,000000  	26,783837  	25,104535  	26,242331  	26,195847  	29,926275  	28,310713  	29,783424  	29,491048  	33,230634  	32,113804  	35,332734  	65,647613  	28,074041  	26,895173  	28,412977  	71,631696  	0,239155  	0,121182  	-4462,914852  	-27095,465658  	-0,102518  	-0,049996  	0,299770  	0,151895  	-4,789145  	9315,602935  	79077,525828  	11,469225  	-0,047948  
72,550000  	23,416257  	32,191355  	26,074928  	-242,047242  	80,165489  	72,656764  	0,007634  	0,008367  	0,003962  	0,004286  	0,004331  	-0,000001  	-0,000000  	26,779803  	25,101989  	26,240609  	26,198161  	29,924503  	28,307953  	29,780173  	29,493245  	33,220683  	32,109672  	35,328481  	65,647420  	28,076658  	26,889781  	28,412614  	71,613350  	0,238078  	0,120636  	-4425,923157  	-27104,161669  	-0,102551  	-0,050014  	0,288091  	0,145978  	-4,594439  	9393,364708  	79231,860145  	11,491610  	-0,047964  
73,551000  	23,475134  	32,193141  	26,076096  	1256,670793  	80,157272  	72,656671  	0,007633  	0,008331  	0,003964  	0,004265  	0,004358  	0,000001  	-0,000000  	26,794268  	25,109586  	26,248035  	26,202233  	29,937083  	28,322481  	29,786588  	29,492417  	33,231887  	32,116232  	35,335187  	65,657877  	28,080769  	26,894412  	28,426665  	71,626964  	0,221689  	0,112331  	-4094,407597  	25493,753880  	-0,018511  	-0,049986  	0,310116  	0,157138  	-4,940335  	9315,157952  	79199,986370  	11,486987  	-0,047939  
74,550000  	23,521389  	32,188645  	26,075911  	657,183579  	80,154022  	72,655237  	0,007639  	0,008335  	0,003962  	0,004301  	0,004357  	-0,000000  	-0,000000  	26,794074  	25,114926  	26,247568  	26,205195  	29,945838  	28,325855  	29,792897  	29,500698  	33,236697  	32,123723  	35,343409  	65,659775  	28,087723  	26,894300  	28,434279  	71,631439  	0,250324  	0,126841  	-4596,355376  	18409,453483  	-0,027547  	-0,050006  	0,308962  	0,156553  	-4,920765  	9323,192417  	79324,755888  	11,505083  	-0,047956  
75,552000  	23,533368  	32,192987  	26,076557  	-242,047242  	80,158646  	72,657855  	0,007631  	0,008328  	0,003963  	0,004272  	0,004361  	0,000001  	-0,000000  	26,795731  	25,114372  	26,255812  	26,206499  	29,934685  	28,328752  	29,784189  	29,493123  	33,236372  	32,117844  	35,338737  	65,655919  	28,082991  	26,892768  	28,423562  	71,632340  	0,227031  	0,115038  	-4164,981601  	-27091,630565  	-0,102503  	-0,049988  	0,311872  	0,158028  	-4,968439  	9309,571249  	79149,725507  	11,479697  	-0,047941  
76,551000  	23,530972  	32,206782  	26,077171  	956,927186  	80,160708  	72,659476  	0,007626  	0,008332  	0,003963  	0,004279  	0,004358  	0,000000  	-0,000000  	26,791453  	25,114718  	26,255292  	26,207823  	29,938980  	28,316772  	29,779133  	29,492605  	33,237468  	32,117089  	35,341159  	65,658743  	28,077538  	26,886498  	28,428042  	71,638974  	0,232475  	0,117797  	-4272,823784  	22443,243773  	-0,022144  	-0,049997  	0,309841  	0,156999  	-4,936382  	9317,113333  	79053,857043  	11,465793  	-0,047949  
77,551000  	23,561011  	32,228460  	26,077602  	1256,670793  	80,158490  	72,663778  	0,007634  	0,008324  	0,003962  	0,004341  	0,004357  	-0,000000  	-0,000000  	26,778682  	25,097112  	26,239777  	26,194463  	29,920992  	28,306172  	29,768530  	29,475226  	33,213228  	32,101054  	35,334455  	65,643995  	28,047677  	26,870659  	28,415298  	71,616293  	0,283234  	0,143517  	-5200,739631  	25501,279201  	-0,018517  	-0,050002  	0,309209  	0,156679  	-4,922031  	9299,662051  	79235,722563  	11,492170  	-0,047953  
78,550000  	23,560704  	32,245704  	26,078093  	657,183579  	80,155678  	72,659476  	0,007630  	0,008337  	0,003962  	0,004311  	0,004334  	-0,000000  	-0,000000  	26,761944  	25,086990  	26,222624  	26,168020  	29,909189  	28,290341  	29,742139  	29,468048  	33,206735  	32,079598  	35,315840  	65,632406  	28,032908  	26,857642  	28,415102  	71,611591  	0,258202  	0,130833  	-4750,690484  	18408,047919  	-0,027545  	-0,050002  	0,291182  	0,147544  	-4,635993  	9328,435301  	79129,488414  	11,476762  	-0,047953  
79,561000  	23,493624  	32,259468  	26,078739  	657,183579  	80,153522  	72,658042  	0,007631  	0,008339  	0,003963  	0,004308  	0,004325  	-0,000000  	-0,000000  	26,780265  	25,105109  	26,228555  	26,196531  	29,924972  	28,313924  	29,770971  	29,485216  	33,227962  	32,111615  	35,319433  	65,646907  	28,037217  	26,861034  	28,423087  	71,633686  	0,256179  	0,129808  	-4757,371685  	18407,806194  	-0,027544  	-0,050001  	0,283818  	0,143812  	-4,518304  	9331,744734  	79149,937340  	11,479728  	-0,047952  
80,553000  	23,465920  	32,271970  	26,080030  	1256,670793  	80,158584  	72,682980  	0,007629  	0,008340  	0,003963  	0,004328  	0,004355  	-0,000000  	-0,000000  	26,779284  	25,097927  	26,239714  	26,198400  	29,926394  	28,306543  	29,763379  	29,484212  	33,221469  	32,098077  	35,330083  	65,644448  	28,026301  	26,880389  	28,422990  	71,627361  	0,272137  	0,137894  	-5076,902148  	25500,265031  	-0,018516  	-0,050000  	0,307735  	0,155932  	-4,886091  	9334,200279  	79108,008568  	11,473647  	-0,047952  
81,549000  	23,485270  	32,283764  	26,080614  	956,927186  	80,156772  	72,664339  	0,007629  	0,008328  	0,003964  	0,004281  	0,004348  	0,000000  	-0,000000  	26,780221  	25,096273  	26,239907  	26,196934  	29,924493  	28,304462  	29,766785  	29,481364  	33,220087  	32,102302  	35,320090  	65,643796  	28,023590  	26,880631  	28,424327  	71,624903  	0,234577  	0,118862  	-4372,444568  	22444,371496  	-0,022145  	-0,050000  	0,301852  	0,152951  	-4,803464  	9308,295016  	79107,683758  	11,473599  	-0,047951  
82,552000  	23,480724  	32,276558  	26,081536  	357,439972  	80,154335  	72,668952  	0,007632  	0,008338  	0,003963  	0,004268  	0,004311  	0,000000  	-0,000000  	26,789371  	25,092651  	26,237836  	26,191305  	29,927736  	28,311943  	29,768267  	29,479483  	33,218157  	32,099674  	35,331166  	65,643082  	28,023721  	26,872400  	28,428817  	71,630348  	0,224042  	0,113524  	-4174,805788  	12441,296723  	-0,036421  	-0,049998  	0,272290  	0,137971  	-4,328954  	9329,763885  	79184,925058  	11,484802  	-0,047949  
83,550000  	23,472892  	32,263441  	26,082089  	1256,670793  	80,153866  	72,668516  	0,007635  	0,008328  	0,003965  	0,004287  	0,004363  	-0,000001  	-0,000000  	26,786814  	25,106198  	26,248846  	26,200491  	29,940417  	28,319434  	29,778338  	29,490901  	33,236428  	32,114913  	35,337597  	65,653906  	28,040381  	26,879601  	28,432117  	71,636004  	0,239377  	0,121294  	-4457,879150  	25506,511914  	-0,018521  	-0,050014  	0,313835  	0,159023  	-4,989435  	9308,560309  	79251,800672  	11,494502  	-0,047963  
84,552000  	23,449366  	32,258329  	26,082397  	1256,670793  	80,158115  	72,667020  	0,007629  	0,008343  	0,003963  	0,004275  	0,004372  	0,000000  	-0,000000  	26,790759  	25,106902  	26,240963  	26,197880  	29,938255  	28,315206  	29,774042  	29,492119  	33,232003  	32,115431  	35,339983  	65,648647  	28,029204  	26,870143  	28,434482  	71,624771  	0,229359  	0,116218  	-4280,266172  	25498,789751  	-0,018515  	-0,049997  	0,320974  	0,162640  	-5,106842  	9342,259506  	79123,790112  	11,475936  	-0,047949  
85,552000  	23,405415  	32,252755  	26,082581  	1256,670793  	80,162489  	72,660193  	0,007629  	0,008344  	0,003962  	0,004277  	0,004344  	0,000002  	-0,000000  	26,787193  	25,099216  	26,244953  	26,199050  	29,933139  	28,311038  	29,783832  	29,490667  	33,227425  	32,114313  	35,334248  	65,643380  	28,031709  	26,868756  	28,430374  	71,628506  	0,230703  	0,116899  	-4324,122729  	25491,476791  	-0,018510  	-0,049981  	0,299046  	0,151529  	-4,765067  	9343,203946  	79127,779629  	11,476514  	-0,047935  
86,553000  	23,420096  	32,248937  	26,081843  	1256,670793  	80,169176  	72,652587  	0,007634  	0,008328  	0,003963  	0,004310  	0,004343  	0,000000  	-0,000000  	26,786030  	25,108402  	26,248371  	26,200312  	29,944150  	28,317934  	29,790387  	29,498099  	33,236698  	32,117987  	35,335994  	65,647351  	28,037497  	26,867919  	28,426338  	71,638918  	0,257650  	0,130553  	-4819,103323  	25498,725498  	-0,018515  	-0,049997  	0,297659  	0,150826  	-4,752002  	9309,953270  	79231,838961  	11,491607  	-0,047949  
87,550000  	23,429310  	32,243210  	26,080921  	1256,670793  	80,169176  	72,662593  	0,007624  	0,008341  	0,003964  	0,004274  	0,004364  	0,000001  	-0,000000  	26,790667  	25,112667  	26,245387  	26,200138  	29,939955  	28,311858  	29,788076  	29,500600  	33,235107  	32,109438  	35,334257  	65,651391  	28,042068  	26,857501  	28,425739  	71,628381  	0,228478  	0,115772  	-4266,230075  	25492,805921  	-0,018511  	-0,049984  	0,314789  	0,159506  	-5,018794  	9335,961820  	79016,630959  	11,460393  	-0,047938  
88,554000  	23,429617  	32,230523  	26,080675  	1256,670793  	80,162114  	72,670511  	0,007631  	0,008328  	0,003963  	0,004322  	0,004344  	-0,000000  	-0,000000  	26,793270  	25,111879  	26,243127  	26,208789  	29,941302  	28,314236  	29,790745  	29,494598  	33,236157  	32,109976  	35,340159  	65,651731  	28,046981  	26,858808  	28,426750  	71,631442  	0,267791  	0,135692  	-4992,918497  	25502,223542  	-0,018518  	-0,050005  	0,298368  	0,151185  	-4,747495  	9308,719484  	79156,080491  	11,480619  	-0,047955  
89,554000  	23,456645  	32,219007  	26,080122  	1256,670793  	80,156897  	72,669295  	0,007633  	0,008345  	0,003963  	0,004299  	0,004370  	0,000000  	-0,000000  	26,792124  	25,103702  	26,239217  	26,204381  	29,936882  	28,312291  	29,779076  	29,492215  	33,232877  	32,105538  	35,339269  	65,646557  	28,041641  	26,854319  	28,425716  	71,624877  	0,248926  	0,126133  	-4620,854183  	25498,794294  	-0,018515  	-0,049997  	0,319524  	0,161905  	-5,081407  	9344,739104  	79208,473804  	11,488218  	-0,047949  
90,556000  	23,489140  	32,215989  	26,079815  	1256,670793  	80,152210  	72,671415  	0,007628  	0,008336  	0,003963  	0,004321  	0,004349  	0,000000  	-0,000000  	26,793830  	25,105430  	26,246256  	26,202131  	29,931976  	28,314750  	29,775414  	29,497285  	33,227785  	32,111383  	35,339671  	65,643277  	28,039801  	26,849658  	28,424134  	71,621618  	0,266808  	0,135194  	-4932,717057  	25499,973218  	-0,018516  	-0,050000  	0,302842  	0,153452  	-4,811733  	9325,688287  	79088,632928  	11,470836  	-0,047951  
91,554000  	23,521574  	32,215065  	26,079538  	1256,670793  	80,151335  	72,671446  	0,007637  	0,008324  	0,003962  	0,004301  	0,004374  	0,000000  	-0,000000  	26,794097  	25,112404  	26,253789  	26,207443  	29,935195  	28,320360  	29,781807  	29,503702  	33,232422  	32,122486  	35,347350  	65,647968  	28,042261  	26,845407  	28,429620  	71,626555  	0,250572  	0,126967  	-4614,823814  	25497,619951  	-0,018514  	-0,049994  	0,322807  	0,163568  	-5,128319  	9301,168204  	79290,205959  	11,500072  	-0,047947  
92,554000  	23,537115  	32,219191  	26,078800  	57,696365  	80,156647  	72,662843  	0,007625  	0,008332  	0,003964  	0,004281  	0,004343  	-0,000000  	-0,000000  	26,794129  	25,114760  	26,251480  	26,212323  	29,943253  	28,318625  	29,785475  	29,507244  	33,237489  	32,123379  	35,348973  	65,653215  	28,041135  	26,846159  	28,434453  	71,626855  	0,234305  	0,118724  	-4309,567349  	1709,792122  	-0,053753  	-0,050003  	0,297920  	0,150958  	-4,741757  	9317,363769  	79033,125673  	11,462786  	-0,047954  
93,550000  	23,529866  	32,229599  	26,078800  	57,696365  	80,161896  	72,664090  	0,007634  	0,008357  	0,003961  	0,004288  	0,004348  	0,000001  	-0,000000  	26,794808  	25,116123  	26,245507  	26,213823  	29,944831  	28,315184  	29,786594  	29,500728  	33,237340  	32,120609  	35,346715  	65,656028  	28,041346  	26,841138  	28,432125  	71,629674  	0,239955  	0,121587  	-4422,463551  	1709,510795  	-0,053744  	-0,049994  	0,301587  	0,152816  	-4,802681  	9371,860467  	79227,602305  	11,490992  	-0,047946  
94,551000  	23,524399  	32,244441  	26,078800  	657,183579  	80,165208  	72,664152  	0,007630  	0,008321  	0,003963  	0,004278  	0,004325  	0,000000  	-0,000000  	26,794676  	25,109809  	26,241339  	26,213877  	29,936104  	28,318289  	29,779279  	29,492035  	33,238053  	32,113972  	35,347981  	65,653309  	28,039143  	26,828009  	28,430071  	71,631040  	0,232098  	0,117606  	-4287,650355  	18406,062005  	-0,027542  	-0,049996  	0,283823  	0,143815  	-4,521752  	9294,832316  	79137,806382  	11,477968  	-0,047948  
95,550000  	23,546974  	32,256635  	26,078524  	657,183579  	80,160334  	72,675280  	0,007632  	0,008343  	0,003963  	0,004276  	0,004323  	-0,000000  	-0,000000  	26,789467  	25,102047  	26,239363  	26,210794  	29,929534  	28,322083  	29,770861  	29,493978  	33,233013  	32,107333  	35,342274  	65,646207  	28,031686  	26,820461  	28,427086  	71,621018  	0,230626  	0,116860  	-4255,372303  	18409,108032  	-0,027546  	-0,050005  	0,281830  	0,142805  	-4,480427  	9342,205740  	79177,871025  	11,483779  	-0,047956  
96,551000  	23,549923  	32,266797  	26,078339  	1256,670793  	80,155647  	72,675779  	0,007626  	0,008330  	0,003962  	0,004270  	0,004348  	-0,000000  	-0,000000  	26,783152  	25,109522  	26,242137  	26,204869  	29,931491  	28,319161  	29,779480  	29,496744  	33,228885  	32,109799  	35,336846  	65,649199  	28,035273  	26,812999  	28,426184  	71,618206  	0,225559  	0,114292  	-4165,324850  	25502,054552  	-0,018517  	-0,050004  	0,301915  	0,152983  	-4,796420  	9313,756501  	79045,454342  	11,464574  	-0,047955  
97,548000  	23,541200  	32,271324  	26,077909  	1256,670793  	80,151492  	72,665898  	0,007629  	0,008334  	0,003964  	0,004277  	0,004401  	-0,000000  	-0,000000  	26,794891  	25,112285  	26,253918  	26,212798  	29,938850  	28,321410  	29,788017  	29,497997  	33,240487  	32,112790  	35,348999  	65,652372  	28,044704  	26,821806  	28,432126  	71,628743  	0,230697  	0,116896  	-4266,693242  	25502,417684  	-0,018518  	-0,050005  	0,343912  	0,174263  	-5,467771  	9322,447477  	79116,933790  	11,474941  	-0,047955  
98,553000  	23,547097  	32,279083  	26,077848  	1256,670793  	80,148992  	72,670573  	0,007633  	0,008319  	0,003963  	0,004293  	0,004370  	0,000002  	-0,000000  	26,788706  	25,104928  	26,247121  	26,202738  	29,936099  	28,318545  	29,773639  	29,493977  	33,236152  	32,118237  	35,345729  	65,648574  	28,036830  	26,811988  	28,423647  	71,622639  	0,244326  	0,123802  	-4519,716131  	25490,939061  	-0,018509  	-0,049980  	0,319427  	0,161856  	-5,073629  	9288,887647  	79198,842472  	11,486821  	-0,047934  
99,549000  	23,539726  	32,285920  	26,076926  	1256,670793  	80,151741  	72,667487  	0,007635  	0,008333  	0,003964  	0,004252  	0,004392  	-0,000000  	-0,000000  	26,786879  	25,115838  	26,241260  	26,198269  	29,939378  	28,317677  	29,785419  	29,497974  	33,233626  	32,117285  	35,337097  	65,645905  	28,037890  	26,823715  	28,426243  	71,621316  	0,210785  	0,106806  	-3905,601504  	25501,304829  	-0,018517  	-0,050002  	0,337058  	0,170790  	-5,357853  	9319,104794  	79239,013032  	11,492647  	-0,047953  
100,550000  	23,520437  	32,288753  	26,075880  	57,696365  	80,160115  	72,672288  	0,007634  	0,008338  	0,003964  	0,004332  	0,004369  	0,000000  	-0,000000  	26,788622  	25,117806  	26,239651  	26,209193  	29,946847  	28,317542  	29,784770  	29,502616  	33,239863  	32,120596  	35,344549  	65,648016  	28,045430  	26,816159  	28,428961  	71,624535  	0,275473  	0,139584  	-5117,100376  	1709,792543  	-0,053748  	-0,049997  	0,318704  	0,161490  	-5,068513  	9330,622724  	79228,294293  	11,491093  	-0,047949  
101,549000  	23,480571  	32,292171  	26,074958  	1256,670793  	80,168051  	72,674844  	0,007628  	0,008326  	0,003963  	0,004283  	0,004374  	0,000000  	-0,000000  	26,802851  	25,119409  	26,253619  	26,218904  	29,951923  	28,325680  	29,790472  	29,503643  	33,243798  	32,123903  	35,343871  	65,651895  	28,040552  	26,810834  	28,417491  	71,624382  	0,235604  	0,119382  	-4398,117465  	25497,706587  	-0,018514  	-0,049994  	0,322829  	0,163580  	-5,137808  	9304,278137  	79090,913661  	11,471167  	-0,047946  
102,550000  	23,462695  	32,294203  	26,075143  	1256,670793  	80,176549  	72,677338  	0,007628  	0,008336  	0,003963  	0,004299  	0,004328  	-0,000001  	-0,000000  	26,807858  	25,123649  	26,259091  	26,221796  	29,953354  	28,343759  	29,797485  	29,507280  	33,248556  	32,130261  	35,353253  	65,659018  	28,039419  	26,819481  	28,439369  	71,634844  	0,249131  	0,126236  	-4661,149029  	25503,278481  	-0,018518  	-0,050006  	0,286136  	0,144987  	-4,557488  	9325,219958  	79100,008349  	11,472486  	-0,047957  
103,553000  	23,489324  	32,288845  	26,074405  	1256,670793  	80,181736  	72,667955  	0,007630  	0,008323  	0,003963  	0,004304  	0,004352  	0,000001  	-0,000000  	26,799922  	25,127029  	26,249567  	26,215423  	29,943890  	28,330261  	29,796580  	29,507146  	33,242921  	32,115217  	35,351168  	65,647044  	28,041046  	26,808002  	28,431292  	71,620618  	0,252556  	0,127972  	-4708,099629  	25494,710543  	-0,018512  	-0,049988  	0,305254  	0,154675  	-4,871444  	9299,002711  	79148,701649  	11,479549  	-0,047941  
104,550000  	23,507507  	32,278560  	26,073360  	1256,670793  	80,177236  	72,672755  	0,007630  	0,008329  	0,003961  	0,004303  	0,004319  	0,000001  	-0,000000  	26,794150  	25,102871  	26,248451  	26,218731  	29,938370  	28,322731  	29,791706  	29,507577  	33,242691  	32,116966  	35,350426  	65,655349  	28,033233  	26,805928  	28,429221  	71,628915  	0,252059  	0,127720  	-4683,646144  	25493,575387  	-0,018511  	-0,049985  	0,278619  	0,141178  	-4,440882  	9311,385849  	79144,140183  	11,478887  	-0,047939  
105,551000  	23,519547  	32,263379  	26,073452  	956,927186  	80,174549  	72,665118  	0,007637  	0,008330  	0,003961  	0,004290  	0,004337  	0,000000  	-0,000000  	26,802699  	25,120659  	26,250794  	26,217157  	29,943919  	28,327588  	29,790816  	29,511520  	33,241586  	32,127773  	35,345668  	65,644186  	28,042702  	26,806658  	28,438227  	71,622910  	0,241356  	0,122297  	-4470,834684  	22444,442042  	-0,022145  	-0,049999  	0,293251  	0,148592  	-4,677169  	9313,369528  	79295,042808  	11,500774  	-0,047951  
106,550000  	23,527901  	32,260300  	26,074190  	357,439972  	80,171488  	72,673098  	0,007627  	0,008326  	0,003965  	0,004236  	0,004318  	-0,000001  	-0,000000  	26,812020  	25,124017  	26,258105  	26,223141  	29,950543  	28,323873  	29,793718  	29,509989  	33,254781  	32,140543  	35,356184  	65,656865  	28,046667  	26,812617  	28,434686  	71,630205  	0,197631  	0,100141  	-3656,096082  	12444,440084  	-0,036430  	-0,050010  	0,277847  	0,140787  	-4,424987  	9305,497067  	79073,169134  	11,468594  	-0,047960  
107,550000  	23,510670  	32,263256  	26,072991  	357,439972  	80,161583  	72,674189  	0,007625  	0,008326  	0,003962  	0,004290  	0,004334  	0,000002  	-0,000000  	26,813608  	25,125783  	26,261627  	26,222581  	29,956772  	28,339724  	29,800317  	29,512077  	33,255579  	32,132049  	35,363871  	65,656465  	28,040589  	26,808309  	28,435912  	71,634111  	0,241312  	0,122275  	-4474,499961  	12437,844895  	-0,036410  	-0,049980  	0,290978  	0,147441  	-4,627310  	9304,873100  	79035,914805  	11,463190  	-0,047935  
108,554000  	23,496726  	32,270523  	26,073176  	-242,047242  	80,153085  	72,679987  	0,007629  	0,008334  	0,003962  	0,004297  	0,004345  	0,000001  	-0,000000  	26,810393  	25,120570  	26,257187  	26,222251  	29,951575  	28,332540  	29,795953  	29,508771  	33,249905  	32,135240  	35,356194  	65,648434  	28,041194  	26,808658  	28,429289  	71,629043  	0,247488  	0,125404  	-4600,137067  	-27093,773307  	-0,102512  	-0,049993  	0,299699  	0,151860  	-4,756901  	9321,651600  	79118,783796  	11,475209  	-0,047945  
109,550000  	23,516690  	32,278190  	26,073452  	57,696365  	80,152148  	72,669856  	0,007633  	0,008324  	0,003963  	0,004263  	0,004345  	-0,000000  	-0,000000  	26,792019  	25,115064  	26,261190  	26,212735  	29,947713  	28,323712  	29,785126  	29,509261  	33,241056  	32,118271  	35,348200  	65,639303  	28,030191  	26,797586  	28,417986  	71,620834  	0,219510  	0,111227  	-4074,386774  	1710,136860  	-0,053755  	-0,050004  	0,299341  	0,151678  	-4,757057  	9299,966253  	79200,607746  	11,487077  	-0,047955  
110,552000  	23,523877  	32,279915  	26,073575  	1256,670793  	80,155959  	72,670667  	0,007629  	0,008330  	0,003962  	0,004281  	0,004348  	0,000003  	-0,000000  	26,806342  	25,127491  	26,260520  	26,224856  	29,951821  	28,347690  	29,801246  	29,517450  	33,255368  	32,130985  	35,357723  	65,649109  	28,041547  	26,818903  	28,431324  	71,630738  	0,234165  	0,118653  	-4343,681433  	25485,889741  	-0,018506  	-0,049968  	0,302175  	0,153114  	-4,804016  	9312,496539  	79108,347501  	11,473696  	-0,047924  
111,550000  	23,502132  	32,276497  	26,073944  	357,439972  	80,164333  	72,662812  	0,007629  	0,008343  	0,003963  	0,004304  	0,004357  	-0,000001  	-0,000000  	26,805021  	25,123833  	26,253907  	26,224914  	29,953945  	28,339914  	29,794959  	29,518657  	33,248450  	32,134205  	35,351453  	65,638882  	28,026612  	26,809063  	28,422272  	71,625284  	0,253105  	0,128250  	-4704,844502  	12444,630928  	-0,036430  	-0,050011  	0,309033  	0,156589  	-4,923692  	9340,580029  	79117,936465  	11,475087  	-0,047961  
112,550000  	23,492856  	32,273849  	26,074313  	956,927186  	80,173893  	72,655517  	0,007633  	0,008327  	0,003963  	0,004276  	0,004369  	-0,000000  	-0,000000  	26,811992  	25,136406  	26,260300  	26,229207  	29,956459  	28,339425  	29,792873  	29,527070  	33,253318  	32,135669  	35,352263  	65,651720  	28,025662  	26,819717  	28,429985  	71,629623  	0,230035  	0,116561  	-4279,251445  	22447,125703  	-0,022148  	-0,050006  	0,318263  	0,161266  	-5,082135  	9307,139050  	79202,281225  	11,487320  	-0,047957  
113,550000  	23,488157  	32,277174  	26,076157  	1256,670793  	80,180580  	72,669015  	0,007632  	0,008343  	0,003963  	0,004348  	0,004326  	-0,000000  	-0,000000  	26,814515  	25,133102  	26,270594  	26,234736  	29,958562  	28,338357  	29,805143  	29,526060  	33,261365  	32,138510  	35,364625  	65,659911  	28,029177  	26,827740  	28,429636  	71,635289  	0,288497  	0,146183  	-5371,690180  	25500,494991  	-0,018516  	-0,050000  	0,284651  	0,144235  	-4,541302  	9341,277570  	79190,192633  	11,485566  	-0,047952  
114,552000  	23,486805  	32,276620  	26,076710  	1256,670793  	80,184266  	72,685099  	0,007631  	0,008313  	0,003964  	0,004256  	0,004351  	-0,000000  	-0,000000  	26,807256  	25,132032  	26,271663  	26,226295  	29,953090  	28,340306  	29,802828  	29,521172  	33,257008  	32,138621  	35,363782  	65,654209  	28,019790  	26,834847  	28,423931  	71,631670  	0,213894  	0,108381  	-3982,971441  	25502,238014  	-0,018517  	-0,050004  	0,304640  	0,154363  	-4,852198  	9276,978498  	79153,354909  	11,480224  	-0,047955  
115,551000  	23,502746  	32,269414  	26,078093  	357,439972  	80,179486  	72,681639  	0,007637  	0,008348  	0,003964  	0,004281  	0,004378  	0,000000  	-0,000000  	26,809129  	25,132911  	26,274119  	26,229884  	29,957658  	28,346012  	29,800810  	29,524668  	33,260683  	32,138231  	35,364705  	65,658018  	28,021023  	26,846941  	28,428282  	71,633192  	0,233959  	0,118549  	-4345,131986  	12441,292495  	-0,036421  	-0,049997  	0,325327  	0,164846  	-5,180780  	9351,585061  	79286,873123  	11,499589  	-0,047949  
116,553000  	23,529221  	32,264919  	26,080307  	956,927186  	80,172675  	72,673597  	0,007630  	0,008329  	0,003963  	0,004271  	0,004332  	0,000000  	-0,000000  	26,815115  	25,137837  	26,280455  	26,240165  	29,961034  	28,351180  	29,801875  	29,529717  	33,262529  	32,140225  	35,366234  	65,658280  	28,021605  	26,855721  	28,437545  	71,633651  	0,225876  	0,114453  	-4180,185623  	22443,748349  	-0,022144  	-0,049998  	0,289350  	0,146616  	-4,608594  	9310,845360  	79130,512272  	11,476910  	-0,047950  
117,548000  	23,515400  	32,267936  	26,081751  	956,927186  	80,170925  	72,683104  	0,007629  	0,008317  	0,003962  	0,004289  	0,004318  	-0,000000  	-0,000000  	26,812678  	25,131678  	26,275631  	26,236263  	29,947145  	28,346539  	29,799114  	29,521041  	33,256941  	32,136299  	35,362078  	65,652824  	28,013860  	26,846714  	28,430529  	71,631602  	0,240942  	0,122087  	-4467,606129  	22446,867462  	-0,022148  	-0,050006  	0,278507  	0,141121  	-4,429241  	9284,720789  	79127,398330  	11,476459  	-0,047957  
118,552000  	23,489109  	32,271447  	26,084210  	357,439972  	80,171987  	72,697007  	0,007626  	0,008309  	0,003965  	0,004279  	0,004353  	-0,000000  	-0,000000  	26,804524  	25,125503  	26,267074  	26,228369  	29,942033  	28,341928  	29,796714  	29,511958  	33,254262  	32,128339  	35,357858  	65,647718  	28,012371  	26,838261  	28,425068  	71,627039  	0,232871  	0,117997  	-4332,665250  	12441,761095  	-0,036423  	-0,050000  	0,305601  	0,154850  	-4,851808  	9268,507538  	79053,391011  	11,465725  	-0,047952  
119,552000  	23,494085  	32,276897  	26,086239  	1256,670793  	80,168644  	72,686876  	0,007636  	0,008308  	0,003963  	0,004261  	0,004357  	-0,000000  	-0,000000  	26,810773  	25,132971  	26,272433  	26,234539  	29,958237  	28,347828  	29,806454  	29,516327  	33,263165  	32,136719  	35,369024  	65,652101  	28,019944  	26,850797  	28,440151  	71,634210  	0,217915  	0,110419  	-4054,628720  	25500,469231  	-0,018516  	-0,050001  	0,309093  	0,156619  	-4,911694  	9265,382748  	79259,002987  	11,495546  	-0,047952  
120,550000  	23,484379  	32,277636  	26,088083  	1256,670793  	80,169144  	72,680392  	0,007635  	0,008343  	0,003963  	0,004314  	0,004413  	0,000000  	-0,000000  	26,821245  	25,134069  	26,273510  	26,241993  	29,968623  	28,351167  	29,815831  	29,522729  	33,267128  	32,149264  	35,380612  	65,657982  	28,025080  	26,858094  	28,444752  	71,641123  	0,260737  	0,132118  	-4857,165346  	25498,643010  	-0,018515  	-0,049997  	0,353745  	0,179245  	-5,626501  	9341,687182  	79242,720106  	11,493185  	-0,047949  
121,553000  	23,487113  	32,271046  	26,090081  	956,927186  	80,172456  	72,675935  	0,007628  	0,008339  	0,003963  	0,004243  	0,004335  	-0,000000  	-0,000000  	26,819518  	25,134359  	26,266275  	26,238546  	29,966565  	28,351015  	29,812015  	29,528746  	33,258650  	32,144351  	35,374596  	65,654044  	28,028489  	26,852334  	28,434145  	71,630932  	0,203192  	0,102959  	-3781,159234  	22445,121946  	-0,022146  	-0,050003  	0,291740  	0,147827  	-4,645086  	9333,343562  	79091,873970  	11,471306  	-0,047954  
122,549000  	23,472554  	32,267474  	26,092294  	357,439972  	80,170956  	72,673566  	0,007625  	0,008308  	0,003963  	0,004316  	0,004378  	0,000001  	-0,000000  	26,824182  	25,141170  	26,273005  	26,239747  	29,965851  	28,353538  	29,813727  	29,532883  	33,260575  	32,140707  	35,373050  	65,656758  	28,032747  	26,858365  	28,433619  	71,633858  	0,262997  	0,133263  	-4900,193519  	12438,511907  	-0,036414  	-0,049988  	0,326032  	0,165203  	-5,191680  	9266,097977  	79022,364567  	11,461225  	-0,047941  
123,551000  	23,449243  	32,264980  	26,095060  	357,439972  	80,171269  	72,682294  	0,007633  	0,008341  	0,003963  	0,004299  	0,004333  	-0,000000  	-0,000000  	26,819996  	25,134533  	26,271046  	26,240728  	29,963587  	28,347022  	29,809424  	29,525767  	33,258226  	32,141563  	35,364122  	65,652455  	28,026232  	26,857811  	28,427042  	71,633095  	0,249148  	0,126245  	-4653,152238  	12441,442474  	-0,036423  	-0,050001  	0,289998  	0,146944  	-4,612708  	9337,408548  	79196,999527  	11,486554  	-0,047953  
124,551000  	23,431060  	32,262332  	26,096535  	956,927186  	80,171144  	72,675561  	0,007632  	0,008321  	0,003964  	0,004247  	0,004336  	-0,000000  	-0,000000  	26,818504  	25,136968  	26,271691  	26,238110  	29,964505  	28,346249  	29,802370  	29,528008  	33,262876  	32,146878  	35,362247  	65,654701  	28,029201  	26,853765  	28,427527  	71,636897  	0,206483  	0,104626  	-3863,125894  	22444,990222  	-0,022146  	-0,050003  	0,292583  	0,148254  	-4,657924  	9293,338190  	79182,354820  	11,484430  	-0,047954  
125,551000  	23,413247  	32,260762  	26,097826  	1256,670793  	80,170082  	72,678117  	0,007635  	0,008342  	0,003962  	0,004272  	0,004326  	-0,000000  	-0,000000  	26,822376  	25,144887  	26,279581  	26,244977  	29,965443  	28,349399  	29,807728  	29,526439  	33,265515  	32,143984  	35,379079  	65,657239  	28,027538  	26,856410  	28,426149  	71,634339  	0,226743  	0,114893  	-4249,987380  	25502,219081  	-0,018518  	-0,050006  	0,284696  	0,144257  	-4,530173  	9338,442834  	79243,864003  	11,493351  	-0,047956  
126,550000  	23,370986  	32,250046  	26,099609  	1256,670793  	80,168957  	72,676995  	0,007629  	0,008338  	0,003961  	0,004268  	0,004320  	0,000000  	-0,000000  	26,820173  	25,145596  	26,274477  	26,236372  	29,964435  	28,345433  	29,808066  	29,524548  	33,262202  	32,143307  	35,373306  	65,653299  	28,031257  	26,847534  	28,426556  	71,632730  	0,223747  	0,113374  	-4208,794663  	25497,747009  	-0,018515  	-0,049996  	0,279714  	0,141733  	-4,450903  	9329,451193  	79123,253469  	11,475858  	-0,047948  
127,551000  	23,338922  	32,240069  	26,101453  	1256,670793  	80,174799  	72,672880  	0,007630  	0,008340  	0,003963  	0,004238  	0,004358  	-0,000000  	-0,000000  	26,814140  	25,130725  	26,269665  	26,236756  	29,957352  	28,338139  	29,808388  	29,519998  	33,257751  	32,138191  	35,369060  	65,645021  	28,021268  	26,854140  	28,424462  	71,632947  	0,199723  	0,101201  	-3766,236105  	25501,763661  	-0,018517  	-0,050005  	0,309810  	0,156983  	-4,936344  	9334,546220  	79134,205224  	11,477446  	-0,047956  
128,550000  	23,366563  	32,229599  	26,103974  	1256,670793  	80,176299  	72,659414  	0,007630  	0,008336  	0,003961  	0,004273  	0,004324  	-0,000000  	-0,000000  	26,823722  	25,127628  	26,281448  	26,237187  	29,963769  	28,349474  	29,809750  	29,517579  	33,260449  	32,147087  	35,368861  	65,651636  	28,030949  	26,867773  	28,421098  	71,638571  	0,228170  	0,115615  	-4284,239185  	25500,279704  	-0,018516  	-0,050002  	0,282637  	0,143214  	-4,512364  	9325,330320  	79134,141674  	11,477437  	-0,047953  
129,553000  	23,389629  	32,209122  	26,105787  	956,927186  	80,169207  	72,657668  	0,007632  	0,008338  	0,003964  	0,004257  	0,004371  	0,000000  	-0,000000  	26,824764  	25,139226  	26,285559  	26,244302  	29,954210  	28,347644  	29,815868  	29,533437  	33,263609  	32,147189  	35,371639  	65,651206  	28,042660  	26,878236  	28,431527  	71,625018  	0,214830  	0,108856  	-4013,932959  	22441,776121  	-0,022143  	-0,049996  	0,319888  	0,162090  	-5,103453  	9329,942161  	79181,345083  	11,484283  	-0,047948  
130,549000  	23,444482  	32,189477  	26,107877  	357,439972  	80,164770  	72,655549  	0,007632  	0,008331  	0,003964  	0,004250  	0,004313  	-0,000001  	-0,000000  	26,827434  	25,145664  	26,272314  	26,247203  	29,968120  	28,352518  	29,803542  	29,528611  	33,268687  	32,149633  	35,372957  	65,655940  	28,044650  	26,880449  	28,428218  	71,640918  	0,209569  	0,106190  	-3882,551399  	12442,254730  	-0,036427  	-0,050008  	0,274453  	0,139067  	-4,377229  	9314,631612  	79189,302935  	11,485437  	-0,047958  
131,551000  	23,493225  	32,181902  	26,110090  	357,439972  	80,158084  	72,652057  	0,007628  	0,008336  	0,003963  	0,004292  	0,004332  	0,000002  	-0,000000  	26,819259  	25,137475  	26,282928  	26,243993  	29,963314  	28,351482  	29,815825  	29,520588  	33,261836  	32,146671  	35,374109  	65,651918  	28,046270  	26,889899  	28,428688  	71,639809  	0,242806  	0,123032  	-4469,331846  	12435,308215  	-0,036407  	-0,049977  	0,289501  	0,146692  	-4,615267  	9326,061819  	79104,216761  	11,473097  	-0,047932  
132,550000  	23,509810  	32,182087  	26,111812  	-242,047242  	80,152585  	72,657294  	0,007627  	0,008341  	0,003963  	0,004290  	0,004421  	0,000000  	-0,000000  	26,823007  	25,132816  	26,264437  	26,230146  	29,962299  	28,346837  	29,806778  	29,514942  	33,258847  	32,140159  	35,363281  	65,644308  	28,042212  	26,894457  	28,418672  	71,635001  	0,241856  	0,122550  	-4443,440940  	-27096,654217  	-0,102508  	-0,049997  	0,359474  	0,182148  	-5,722594  	9336,780335  	79084,848182  	11,470287  	-0,047949  
133,553000  	23,509165  	32,201363  	26,112980  	1256,670793  	80,148648  	72,658416  	0,007627  	0,008328  	0,003962  	0,004247  	0,004336  	0,000002  	-0,000000  	26,811666  	25,122805  	26,280094  	26,229464  	29,962786  	28,338548  	29,807189  	29,520519  	33,255039  	32,140626  	35,366674  	65,652914  	28,050145  	26,894709  	28,422124  	71,635685  	0,206351  	0,104560  	-3799,844216  	25488,943105  	-0,018508  	-0,049978  	0,292521  	0,148222  	-4,653594  	9309,232383  	79070,994317  	11,468278  	-0,047932  
134,551000  	23,478267  	32,225319  	26,114762  	657,183579  	80,148461  	72,670262  	0,007632  	0,008337  	0,003963  	0,004302  	0,004336  	-0,000001  	-0,000000  	26,821823  	25,143475  	26,278021  	26,230617  	29,958333  	28,351412  	29,816563  	29,525012  	33,265137  	32,141040  	35,368763  	65,653834  	28,063951  	26,893444  	28,433534  	71,639450  	0,251597  	0,127486  	-4662,276889  	18410,409728  	-0,027550  	-0,050014  	0,292752  	0,148340  	-4,649803  	9327,754030  	79182,404247  	11,484437  	-0,047963  
135,552000  	23,454403  	32,242040  	26,115869  	657,183579  	80,152460  	72,672475  	0,007637  	0,008335  	0,003962  	0,004312  	0,004372  	0,000000  	-0,000000  	26,814427  	25,124887  	26,268998  	26,225520  	29,958461  	28,344165  	29,805855  	29,517616  	33,255762  	32,137016  	35,372926  	65,650739  	28,057903  	26,890843  	28,426247  	71,634962  	0,259793  	0,131639  	-4836,491893  	18404,219221  	-0,027540  	-0,049995  	0,321050  	0,162678  	-5,100481  	9324,122002  	79288,814923  	11,499870  	-0,047947  
136,551000  	23,448014  	32,250292  	26,117037  	57,696365  	80,150398  	72,668921  	0,007630  	0,008339  	0,003963  	0,004341  	0,004329  	0,000001  	-0,000000  	26,805913  	25,132042  	26,266457  	26,228029  	29,954202  	28,340777  	29,795858  	29,511885  	33,262319  	32,134599  	35,373367  	65,655043  	28,051503  	26,896704  	28,427574  	71,624581  	0,283209  	0,143504  	-5281,213069  	1707,348233  	-0,053741  	-0,049994  	0,286783  	0,145315  	-4,556990  	9331,924425  	79143,751822  	11,478831  	-0,047946  
137,551000  	23,429156  	32,250138  	26,118174  	57,696365  	80,150117  	72,666770  	0,007631  	0,008325  	0,003964  	0,004325  	0,004338  	0,000000  	-0,000000  	26,797221  	25,122248  	26,253013  	26,213413  	29,942025  	28,331288  	29,789578  	29,503415  	33,250473  	32,128010  	35,348343  	65,640654  	28,048754  	26,888186  	28,418066  	71,628056  	0,269859  	0,136740  	-5042,959111  	1707,425230  	-0,053745  	-0,049998  	0,293852  	0,148897  	-4,670481  	9302,817968  	79150,410433  	11,479796  	-0,047950  
138,549000  	23,438247  	32,241578  	26,119035  	1256,670793  	80,155303  	72,665711  	0,007627  	0,008329  	0,003962  	0,004279  	0,004342  	0,000001  	-0,000000  	26,809062  	25,127521  	26,265308  	26,224658  	29,948492  	28,339470  	29,800725  	29,514680  	33,255327  	32,131219  	35,361104  	65,656610  	28,059947  	26,897844  	28,426165  	71,637873  	0,232447  	0,117782  	-4335,122739  	25491,859897  	-0,018510  	-0,049984  	0,297110  	0,150548  	-4,726206  	9310,972700  	79070,591835  	11,468220  	-0,047938  
139,552000  	23,422031  	32,234095  	26,119496  	357,439972  	80,157584  	72,668485  	0,007620  	0,008334  	0,003961  	0,004283  	0,004379  	-0,000000  	-0,000000  	26,818353  	25,132288  	26,274351  	26,229029  	29,956870  	28,340084  	29,804727  	29,528225  	33,260621  	32,136629  	35,368651  	65,664262  	28,064160  	26,907993  	28,429310  	71,649026  	0,235977  	0,119571  	-4405,339043  	12440,937563  	-0,036424  	-0,050005  	0,326041  	0,165207  	-5,186079  	9321,999663  	78932,829904  	11,448239  	-0,047955  
140,550000  	23,383701  	32,225473  	26,120049  	-242,047242  	80,157522  	72,662063  	0,007632  	0,008320  	0,003964  	0,004276  	0,004321  	-0,000000  	-0,000000  	26,814503  	25,131900  	26,273102  	26,224906  	29,953716  	28,339477  	29,802798  	29,523012  	33,256012  	32,135754  	35,367036  	65,659237  	28,060694  	26,903712  	28,430259  	71,648589  	0,230217  	0,116653  	-4312,300121  	-27099,838490  	-0,102517  	-0,050003  	0,280276  	0,142018  	-4,461918  	9291,324798  	79186,217238  	11,484990  	-0,047954  
141,551000  	23,344419  	32,224149  	26,118820  	1256,670793  	80,166801  	72,657637  	0,007623  	0,008354  	0,003962  	0,004282  	0,004350  	-0,000001  	-0,000000  	26,807864  	25,126386  	26,264599  	26,223590  	29,949044  	28,336793  	29,802488  	29,517015  	33,253058  	32,130322  	35,360667  	65,654147  	28,059415  	26,896105  	28,428402  	71,639396  	0,235077  	0,119115  	-4422,250459  	25502,017376  	-0,018518  	-0,050007  	0,303830  	0,153953  	-4,845733  	9365,796946  	78995,828979  	11,457376  	-0,047957  
142,550000  	23,355353  	32,220700  	26,118758  	1256,670793  	80,169425  	72,653460  	0,007630  	0,008328  	0,003961  	0,004274  	0,004365  	0,000000  	-0,000000  	26,809249  	25,131537  	26,263082  	26,230238  	29,950086  	28,335178  	29,803575  	29,516936  	33,255158  	32,129162  	35,360609  	65,650506  	28,065042  	26,900596  	28,428343  	71,639697  	0,228916  	0,115993  	-4299,375786  	25497,649939  	-0,018515  	-0,049997  	0,315424  	0,159828  	-5,035186  	9308,171921  	79136,563629  	11,477788  	-0,047949  
143,550000  	23,380691  	32,205920  	26,118574  	1256,670793  	80,166207  	72,648192  	0,007632  	0,008340  	0,003964  	0,004301  	0,004375  	0,000000  	-0,000000  	26,807180  	25,130461  	26,261372  	26,222455  	29,949841  	28,331162  	29,799188  	29,516334  	33,250053  	32,126508  	35,355876  	65,648068  	28,069743  	26,903488  	28,428637  	71,635463  	0,250428  	0,126894  	-4682,109432  	25498,195552  	-0,018515  	-0,049998  	0,323639  	0,163990  	-5,167729  	9333,930742  	79180,886112  	11,484217  	-0,047950  
144,551000  	23,437142  	32,186952  	26,117283  	1256,670793  	80,164083  	72,658229  	0,007631  	0,008335  	0,003963  	0,004289  	0,004359  	0,000000  	-0,000000  	26,802434  	25,119729  	26,255851  	26,213173  	29,944339  	28,325208  	29,791479  	29,508734  	33,240833  	32,124316  	35,349361  	65,643721  	28,064507  	26,904325  	28,423403  	71,627038  	0,240859  	0,122045  	-4464,710023  	25497,453088  	-0,018515  	-0,049997  	0,310919  	0,157545  	-4,956599  	9324,037108  	79155,395565  	11,480520  	-0,047949  
145,551000  	23,500750  	32,173249  	26,116238  	1256,670793  	80,166270  	72,652681  	0,007627  	0,008346  	0,003962  	0,004251  	0,004365  	0,000002  	-0,000000  	26,803911  	25,118100  	26,258930  	26,218455  	29,945442  	28,328228  	29,787203  	29,507220  	33,239424  	32,125152  	35,355483  	65,644905  	28,058087  	26,912172  	28,424122  	71,632392  	0,210384  	0,106603  	-3865,337165  	25488,059009  	-0,018508  	-0,049976  	0,315250  	0,159740  	-5,030825  	9347,794564  	79069,264349  	11,468027  	-0,047931  
146,549000  	23,545469  	32,174604  	26,115685  	1256,670793  	80,164020  	72,652805  	0,007630  	0,008331  	0,003963  	0,004280  	0,004393  	0,000001  	-0,000000  	26,808253  	25,117965  	26,262046  	26,221498  	29,951413  	28,332123  	29,789696  	29,512311  	33,243747  	32,127188  	35,360173  	65,652139  	28,060343  	26,919368  	28,425972  	71,642089  	0,233531  	0,118332  	-4269,128579  	25494,659089  	-0,018512  	-0,049990  	0,337260  	0,170892  	-5,380361  	9315,064569  	79131,176015  	11,477007  	-0,047943  
147,550000  	23,534965  	32,188091  	26,114762  	1256,670793  	80,161365  	72,657918  	0,007629  	0,008347  	0,003962  	0,004258  	0,004315  	-0,000000  	-0,000000  	26,813248  	25,115081  	26,256694  	26,220210  	29,949055  	28,329992  	29,795834  	29,507058  	33,245269  	32,132312  	35,356781  	65,653517  	28,061841  	26,922580  	28,422476  	71,645023  	0,215846  	0,109371  	-3956,813092  	25499,642847  	-0,018516  	-0,050001  	0,275622  	0,139659  	-4,392488  	9349,921147  	79123,338202  	11,475870  	-0,047953  
148,550000  	23,511131  	32,209646  	26,113717  	1256,670793  	80,162114  	72,663965  	0,007627  	0,008336  	0,003962  	0,004301  	0,004349  	0,000000  	-0,000000  	26,812177  	25,119617  	26,259026  	26,219372  	29,946310  	28,331645  	29,797631  	29,503870  	33,244656  	32,135511  	35,358797  	65,654706  	28,063650  	26,924907  	28,433555  	71,644134  	0,250858  	0,127111  	-4622,761376  	25497,848606  	-0,018515  	-0,049997  	0,302819  	0,153441  	-4,822525  	9326,741675  	79067,845069  	11,467821  	-0,047949  
149,551000  	23,496296  	32,243641  	26,112918  	57,696365  	80,153897  	72,667269  	0,007633  	0,008334  	0,003964  	0,004323  	0,004372  	-0,000001  	-0,000000  	26,803915  	25,124165  	26,265148  	26,220360  	29,944641  	28,327690  	29,796667  	29,505591  	33,248613  	32,136082  	35,362417  	65,655326  	28,074416  	26,925811  	28,442155  	71,641272  	0,268104  	0,135850  	-4968,310813  	1708,230229  	-0,053762  	-0,050015  	0,320617  	0,162459  	-5,098126  	9322,617971  	79209,292891  	11,488337  	-0,047964  
150,551000  	23,498323  	32,259407  	26,111320  	657,183579  	80,146649  	72,671446  	0,007629  	0,008350  	0,003961  	0,004277  	0,004340  	-0,000000  	-0,000000  	26,802074  	25,123649  	26,257442  	26,214036  	29,936796  	28,319395  	29,788549  	29,506067  	33,247879  	32,125614  	35,357884  	65,650933  	28,066594  	26,918645  	28,436434  	71,641664  	0,231044  	0,117071  	-4288,261176  	18406,514957  	-0,027544  	-0,050001  	0,295389  	0,149676  	-4,689812  	9357,078380  	79126,296800  	11,476299  	-0,047953  
151,549000  	23,484502  	32,261901  	26,109107  	-242,047242  	80,145805  	72,659881  	0,007635  	0,008333  	0,003964  	0,004274  	0,004328  	0,000000  	-0,000000  	26,791738  	25,111111  	26,248524  	26,202538  	29,927010  	28,308320  	29,782137  	29,498785  	33,241345  	32,116902  	35,343392  	65,647241  	28,052463  	26,909591  	28,421543  	71,631915  	0,228274  	0,115668  	-4244,758309  	-27095,431589  	-0,102504  	-0,049995  	0,286018  	0,144928  	-4,547537  	9320,770122  	79245,283283  	11,493557  	-0,047947  
152,553000  	23,471664  	32,260854  	26,107386  	956,927186  	80,146867  	72,668111  	0,007629  	0,008311  	0,003964  	0,004246  	0,004322  	-0,000001  	-0,000000  	26,780960  	25,105040  	26,249012  	26,215817  	29,932160  	28,318528  	29,791375  	29,498572  	33,227841  	32,115480  	35,347195  	65,651723  	28,055556  	26,909998  	28,422612  	71,641012  	0,206208  	0,104487  	-3839,588018  	22446,664470  	-0,022148  	-0,050008  	0,281299  	0,142536  	-4,468228  	9272,913513  	79108,933571  	11,473781  	-0,047958  
153,549000  	23,484164  	32,254819  	26,105879  	1256,670793  	80,147117  	72,668298  	0,007628  	0,008274  	0,003961  	0,004296  	0,004330  	0,000001  	-0,000000  	26,791188  	25,118244  	26,257890  	26,216872  	29,939824  	28,331858  	29,790084  	29,506046  	33,245642  	32,121891  	35,354612  	65,659105  	28,084606  	26,916286  	28,432395  	71,644975  	0,246670  	0,124989  	-4583,293684  	25491,917824  	-0,018510  	-0,049984  	0,287479  	0,145668  	-4,566429  	9193,221827  	79101,773623  	11,472742  	-0,047937  
154,552000  	23,512175  	32,253710  	26,104343  	1256,670793  	80,148867  	72,653834  	0,007628  	0,008370  	0,003963  	0,004321  	0,004323  	0,000000  	-0,000000  	26,806844  	25,124201  	26,265644  	26,222414  	29,944318  	28,335976  	29,795023  	29,510358  	33,251789  	32,129895  	35,365960  	65,663299  	28,085214  	26,910484  	28,440838  	71,640857  	0,266798  	0,135189  	-4940,828663  	25497,746892  	-0,018515  	-0,049996  	0,282200  	0,142993  	-4,492274  	9400,468882  	79098,680864  	11,472294  	-0,047948  
155,550000  	23,544149  	32,250107  	26,104988  	1256,670793  	80,153616  	72,653024  	0,007630  	0,008330  	0,003962  	0,004271  	0,004316  	-0,000001  	-0,000000  	26,793638  	25,124748  	26,253127  	26,223333  	29,945611  	28,334112  	29,797900  	29,508895  	33,242146  	32,129517  	35,354958  	65,658853  	28,084522  	26,915400  	28,443991  	71,654265  	0,226410  	0,114724  	-4175,810180  	25502,834955  	-0,018518  	-0,050008  	0,276524  	0,140117  	-4,405194  	9313,864033  	79136,203514  	11,477736  	-0,047958  
156,553000  	23,579839  	32,250169  	26,103759  	1256,670793  	80,154116  	72,653024  	0,007633  	0,008348  	0,003963  	0,004275  	0,004350  	0,000001  	-0,000000  	26,804606  	25,125106  	26,265244  	26,217093  	29,953498  	28,332482  	29,793407  	29,501351  	33,250449  	32,127710  	35,359343  	65,662078  	28,084301  	26,917611  	28,439576  	71,660925  	0,229129  	0,116101  	-4208,648470  	25491,394529  	-0,018510  	-0,049982  	0,303119  	0,153593  	-4,829190  	9351,826300  	79198,602395  	11,486786  	-0,047936  
157,550000  	23,585828  	32,253402  	26,103082  	57,696365  	80,152241  	72,652120  	0,007629  	0,008320  	0,003964  	0,004272  	0,004387  	0,000001  	-0,000000  	26,795934  	25,110193  	26,267856  	26,223392  	29,951050  	28,333709  	29,791647  	29,511305  	33,249839  	32,119769  	35,361618  	65,658260  	28,080381  	26,908851  	28,437957  	71,649278  	0,227338  	0,115194  	-4174,423555  	1707,890268  	-0,053734  	-0,049986  	0,332956  	0,168711  	-5,303847  	9291,638197  	79123,465301  	11,475888  	-0,047939  
158,551000  	23,561687  	32,263625  	26,103021  	1256,670793  	80,154428  	72,664962  	0,007627  	0,008320  	0,003963  	0,004257  	0,004336  	0,000001  	-0,000000  	26,791329  	25,109788  	26,258533  	26,212298  	29,936469  	28,327124  	29,788378  	29,505758  	33,232008  	32,115995  	35,346428  	65,642288  	28,081647  	26,911665  	28,422447  	71,649435  	0,215058  	0,108971  	-3964,600227  	25491,911375  	-0,018510  	-0,049983  	0,292338  	0,148130  	-4,650222  	9290,822512  	79073,409211  	11,468628  	-0,047937  
159,549000  	23,536808  	32,282748  	26,102468  	1256,670793  	80,153366  	72,662967  	0,007627  	0,008318  	0,003962  	0,004271  	0,004387  	-0,000000  	-0,000000  	26,798342  	25,123989  	26,257863  	26,222153  	29,944030  	28,331930  	29,787188  	29,513276  	33,240040  	32,123147  	35,363074  	65,641256  	28,079208  	26,905899  	28,431578  	71,650929  	0,226573  	0,114806  	-4198,001762  	25499,557265  	-0,018516  	-0,050000  	0,332950  	0,168708  	-5,296898  	9288,400216  	79073,974098  	11,468710  	-0,047952  
160,553000  	23,522249  	32,298576  	26,101914  	1256,670793  	80,153054  	72,667207  	0,007633  	0,008351  	0,003963  	0,004309  	0,004336  	-0,000000  	-0,000000  	26,786991  	25,117085  	26,249898  	26,211459  	29,932584  	28,332349  	29,791519  	29,501385  	33,234123  	32,129797  	35,352641  	65,654160  	28,074056  	26,897408  	28,412928  	71,639758  	0,257110  	0,130279  	-4780,355433  	25500,359450  	-0,018516  	-0,050002  	0,292487  	0,148205  	-4,650339  	9357,548832  	79192,882910  	11,485957  	-0,047953  
161,553000  	23,462265  	32,301901  	26,102253  	57,696365  	80,156147  	72,667238  	0,007633  	0,008362  	0,003964  	0,004307  	0,004388  	0,000001  	-0,000000  	26,795589  	25,109756  	26,253721  	26,217688  	29,935815  	28,325759  	29,784388  	29,508228  	33,235586  	32,127412  	35,354512  	65,655405  	28,070338  	26,892884  	28,424413  	71,637698  	0,255434  	0,129430  	-4783,483421  	1708,170967  	-0,053742  	-0,049993  	0,333306  	0,168889  	-5,301500  	9382,541489  	79208,664453  	11,488246  	-0,047946  
162,550000  	23,419082  	32,295373  	26,102744  	1256,670793  	80,158459  	72,655829  	0,007634  	0,008331  	0,003963  	0,004261  	0,004354  	-0,000000  	-0,000000  	26,800231  	25,126398  	26,259112  	26,221789  	29,940086  	28,331608  	29,783579  	29,515219  	33,241564  	32,135816  	35,360460  	65,659947  	28,079491  	26,897553  	28,427641  	71,635075  	0,218028  	0,110477  	-4099,926224  	25499,660348  	-0,018516  	-0,050000  	0,306672  	0,155393  	-4,886797  	9316,032355  	79228,449637  	11,491115  	-0,047952  
163,550000  	23,405169  	32,289646  	26,103943  	1256,670793  	80,156241  	72,650530  	0,007625  	0,008334  	0,003962  	0,004269  	0,004337  	0,000000  	-0,000000  	26,805252  	25,121537  	26,254292  	26,218435  	29,935182  	28,329163  	29,786685  	29,509946  	33,248705  	32,137045  	35,358152  	65,650398  	28,085088  	26,896452  	28,421501  	71,632760  	0,224433  	0,113722  	-4224,259430  	25498,870879  	-0,018515  	-0,049999  	0,292806  	0,148367  	-4,667760  	9322,295376  	79033,655255  	11,462863  	-0,047950  
164,551000  	23,421877  	32,273633  	26,104496  	1256,670793  	80,162677  	72,661502  	0,007632  	0,008345  	0,003962  	0,004283  	0,004360  	-0,000001  	-0,000000  	26,802167  	25,122433  	26,258409  	26,221003  	29,948431  	28,325696  	29,791103  	29,506057  	33,246588  	32,124533  	35,360635  	65,645737  	28,088086  	26,899176  	28,428802  	71,623861  	0,235918  	0,119542  	-4424,075761  	25502,300022  	-0,018518  	-0,050006  	0,311164  	0,157669  	-4,957423  	9344,923040  	79174,792389  	11,483333  	-0,047957  
165,550000  	23,442302  	32,250877  	26,105726  	1256,670793  	80,165239  	72,661658  	0,007633  	0,008265  	0,003963  	0,004333  	0,004329  	-0,000001  	-0,000000  	26,812179  	25,125652  	26,265396  	26,222922  	29,950343  	28,330184  	29,796522  	29,515467  	33,246727  	32,130501  	35,370487  	65,653213  	28,087195  	26,909668  	28,432151  	71,632680  	0,276336  	0,140021  	-5156,719421  	25503,079961  	-0,018518  	-0,050008  	0,286431  	0,145137  	-4,564839  	9173,107011  	79201,709276  	11,487237  	-0,047958  
166,550000  	23,460975  	32,234557  	26,106832  	1256,670793  	80,159552  	72,663341  	0,007631  	0,008395  	0,003962  	0,004288  	0,004355  	0,000001  	-0,000000  	26,811116  	25,126359  	26,267243  	26,223516  	29,952845  	28,335377  	29,793478  	29,517529  	33,252004  	32,139302  	35,367645  	65,656447  	28,093534  	26,920803  	28,421198  	71,649159  	0,239576  	0,121395  	-4452,981860  	25496,194858  	-0,018513  	-0,049993  	0,307194  	0,155658  	-4,890939  	9452,755519  	79154,498806  	11,480389  	-0,047946  
167,551000  	23,463187  	32,226151  	26,107847  	357,439972  	80,156428  	72,653647  	0,007636  	0,008333  	0,003962  	0,004307  	0,004344  	-0,000001  	-0,000000  	26,801554  	25,124447  	26,265863  	26,229600  	29,949844  	28,336838  	29,788572  	29,520618  	33,252391  	32,135565  	35,364712  	65,648839  	28,098722  	26,929008  	28,417804  	71,644970  	0,255271  	0,129348  	-4738,954549  	12443,803161  	-0,036431  	-0,050015  	0,298314  	0,151158  	-4,753713  	9319,852564  	79275,278808  	11,497907  	-0,047964  
168,553000  	23,439967  	32,224303  	26,108769  	956,927186  	80,163052  	72,662999  	0,007627  	0,008339  	0,003963  	0,004251  	0,004338  	0,000000  	-0,000000  	26,809442  	25,127662  	26,270046  	26,233451  	29,954251  	28,338148  	29,795575  	29,522215  	33,256674  	32,138277  	35,364603  	65,651672  	28,100986  	26,943836  	28,428032  	71,635930  	0,210363  	0,106592  	-3914,792247  	22443,078489  	-0,022144  	-0,049999  	0,293880  	0,148911  	-4,681348  	9331,602537  	79077,977738  	11,469291  	-0,047951  
169,549000  	23,464262  	32,228953  	26,110582  	956,927186  	80,161177  	72,655081  	0,007626  	0,008328  	0,003962  	0,004270  	0,004390  	-0,000000  	-0,000000  	26,820038  	25,130332  	26,273581  	26,233153  	29,962347  	28,343643  	29,800649  	29,524389  	33,262099  	32,142388  	35,371528  	65,660758  	28,105732  	26,966012  	28,434174  	71,641998  	0,225036  	0,114027  	-4178,478354  	22445,036743  	-0,022146  	-0,050004  	0,335449  	0,169974  	-5,347821  	9310,008451  	79048,257596  	11,464980  	-0,047955  
170,552000  	23,476117  	32,230431  	26,111812  	357,439972  	80,156178  	72,663248  	0,007630  	0,008349  	0,003963  	0,004285  	0,004348  	-0,000000  	-0,000000  	26,816226  	25,126735  	26,267174  	26,232497  	29,959379  	28,347230  	29,799161  	29,525389  	33,263754  	32,139866  	35,378040  	65,656714  	28,109971  	26,974786  	28,434218  	71,645263  	0,237809  	0,120500  	-4410,431769  	12441,165792  	-0,036424  	-0,050004  	0,301877  	0,152963  	-4,804175  	9353,184596  	79129,170665  	11,476716  	-0,047955  
171,549000  	23,466442  	32,228398  	26,112734  	1256,670793  	80,151273  	72,654271  	0,007629  	0,008348  	0,003962  	0,004290  	0,004395  	0,000000  	-0,000000  	26,811688  	25,126314  	26,263260  	26,230434  	29,953495  	28,345072  	29,799100  	29,522653  	33,261403  	32,134709  	35,374141  	65,651223  	28,107581  	26,968793  	28,429833  	71,635535  	0,241212  	0,122224  	-4477,443638  	25496,771277  	-0,018514  	-0,049995  	0,338829  	0,171687  	-5,395168  	9351,818518  	79107,486047  	11,473571  	-0,047947  
172,551000  	23,468899  	32,228152  	26,114332  	57,696365  	80,150336  	72,671727  	0,007634  	0,008347  	0,003962  	0,004309  	0,004345  	0,000000  	-0,000000  	26,814263  	25,132379  	26,268720  	26,230384  	29,958110  	28,339181  	29,805745  	29,522915  	33,260859  	32,135978  	35,374005  	65,657595  	28,109597  	26,971253  	28,430929  	71,634739  	0,256602  	0,130022  	-4761,650410  	1707,556351  	-0,053743  	-0,049995  	0,299234  	0,151624  	-4,753021  	9349,358020  	79230,214910  	11,491371  	-0,047948  
173,550000  	23,473261  	32,234218  	26,115531  	1256,670793  	80,154272  	72,669451  	0,007632  	0,008341  	0,003964  	0,004310  	0,004376  	0,000000  	-0,000000  	26,815237  	25,132387  	26,270258  	26,230373  	29,956391  	28,334029  	29,811842  	29,522326  	33,260794  	32,140862  	35,371126  	65,658562  	28,112880  	26,975921  	28,437715  	71,642768  	0,257723  	0,130590  	-4783,384786  	25497,886997  	-0,018515  	-0,049997  	0,324273  	0,164312  	-5,155013  	9336,258240  	79190,192633  	11,485566  	-0,047949  
174,550000  	23,485116  	32,238652  	26,116576  	1256,670793  	80,155834  	72,668578  	0,007627  	0,008321  	0,003961  	0,004273  	0,004320  	0,000001  	-0,000000  	26,814955  	25,124355  	26,268880  	26,229216  	29,945100  	28,337941  	29,803111  	29,519776  	33,253126  	32,135312  	35,360976  	65,651547  	28,105604  	26,967754  	28,428970  	71,638553  	0,227578  	0,115315  	-4220,294915  	25495,711392  	-0,018513  	-0,049993  	0,279863  	0,141809  	-4,450472  	9294,477178  	79081,374124  	11,469784  	-0,047945  
175,551000  	23,509534  	32,241424  	26,118973  	357,439972  	80,152898  	72,660692  	0,007623  	0,008357  	0,003962  	0,004302  	0,004302  	0,000000  	-0,000000  	26,817511  	25,126850  	26,270781  	26,235753  	29,961330  	28,344641  	29,799552  	29,523187  	33,257102  	32,139439  	35,375245  	65,656383  	28,115242  	26,966084  	28,430549  	71,636008  	0,251149  	0,127259  	-4645,895089  	12439,302001  	-0,036420  	-0,049997  	0,265065  	0,134311  	-4,217931  	9371,248526  	78982,900117  	11,455501  	-0,047949  
176,551000  	23,547865  	32,243641  	26,119527  	956,927186  	80,149648  	72,663248  	0,007630  	0,008350  	0,003963  	0,004308  	0,004330  	0,000000  	-0,000000  	26,816761  	25,138885  	26,268364  	26,235548  	29,965478  	28,345769  	29,806354  	29,529156  	33,256953  	32,145008  	35,377986  	65,660899  	28,119217  	26,972383  	28,441805  	71,642506  	0,256051  	0,129743  	-4716,964185  	22441,921089  	-0,022144  	-0,049997  	0,287971  	0,145917  	-4,578876  	9357,382582  	79130,448723  	11,476901  	-0,047949  
177,550000  	23,552534  	32,246597  	26,120910  	1256,670793  	80,148180  	72,663279  	0,007637  	0,008327  	0,003964  	0,004254  	0,004332  	0,000000  	-0,000000  	26,822398  	25,140435  	26,270442  	26,250537  	29,968182  	28,345650  	29,822032  	29,534508  	33,258541  	32,146488  	35,382624  	65,664615  	28,120023  	26,996195  	28,442087  	71,645914  	0,212030  	0,107437  	-3905,244883  	25497,755809  	-0,018515  	-0,049998  	0,289485  	0,146684  	-4,602029  	9306,594316  	79296,087850  	11,500925  	-0,047949  
178,551000  	23,531341  	32,253248  	26,123000  	1256,670793  	80,146805  	72,654676  	0,007634  	0,008339  	0,003962  	0,004255  	0,004358  	0,000000  	-0,000000  	26,817242  	25,133906  	26,270584  	26,236229  	29,961161  	28,351685  	29,811490  	29,529247  	33,263443  	32,139481  	35,384171  	65,658856  	28,122280  	27,012415  	28,433896  	71,635327  	0,213306  	0,108084  	-3941,330443  	25498,500406  	-0,018515  	-0,049999  	0,309858  	0,157007  	-4,930653  	9333,521838  	79225,462794  	11,490682  	-0,047951  
179,549000  	23,535303  	32,266366  	26,125029  	357,439972  	80,140962  	72,662344  	0,007627  	0,008341  	0,003963  	0,004270  	0,004338  	-0,000001  	-0,000000  	26,808554  	25,127169  	26,267468  	26,231039  	29,947862  	28,339368  	29,801642  	29,513269  	33,248263  	32,126650  	35,361357  	65,659492  	28,108527  	27,020224  	28,421830  	71,633465  	0,225400  	0,114212  	-4169,175043  	12443,224236  	-0,036432  	-0,050016  	0,294220  	0,149083  	-4,673369  	9337,901638  	79067,216632  	11,467730  	-0,047965  
180,550000  	23,552626  	32,279915  	26,125643  	956,927186  	80,137463  	72,665399  	0,007635  	0,008342  	0,003962  	0,004280  	0,004345  	0,000001  	-0,000000  	26,809011  	25,130247  	26,267790  	26,226532  	29,952187  	28,342087  	29,802318  	29,515354  	33,252575  	32,134192  	35,371528  	65,650148  	28,102871  	27,026589  	28,428095  	71,639205  	0,233334  	0,118232  	-4314,056988  	22437,551772  	-0,022139  	-0,049987  	0,299456  	0,151736  	-4,752370  	9339,724019  	79246,610769  	11,493749  	-0,047940  
181,550000  	23,569979  	32,284595  	26,128010  	1256,670793  	80,138525  	72,652120  	0,007627  	0,008347  	0,003961  	0,004271  	0,004328  	-0,000001  	-0,000000  	26,817410  	25,134092  	26,262101  	26,226041  	29,957235  	28,341515  	29,799800  	29,524502  	33,257488  	32,139559  	35,368532  	65,658662  	28,101492  	27,039455  	28,437964  	71,635939  	0,225811  	0,114420  	-4168,895323  	25503,174397  	-0,018519  	-0,050010  	0,285896  	0,144865  	-4,545871  	9348,906670  	79072,187642  	11,468451  	-0,047960  
182,550000  	23,572559  	32,283980  	26,128563  	1256,670793  	80,144212  	72,651185  	0,007633  	0,008342  	0,003963  	0,004245  	0,004350  	0,000000  	-0,000000  	26,815607  	25,139814  	26,273028  	26,239622  	29,956663  	28,337948  	29,810346  	29,515772  	33,254061  	32,146906  	35,371090  	65,663966  	28,117977  	27,042032  	28,450250  	71,655202  	0,204914  	0,103831  	-3781,706521  	25498,204526  	-0,018515  	-0,049999  	0,303357  	0,153713  	-4,827787  	9339,497636  	79201,045534  	11,487140  	-0,047951  
183,551000  	23,556066  	32,289338  	26,129670  	1256,670793  	80,158428  	72,667893  	0,007626  	0,008337  	0,003963  	0,004284  	0,004408  	0,000000  	-0,000000  	26,805258  	25,113766  	26,256029  	26,227461  	29,945922  	28,336122  	29,798419  	29,512375  	33,252737  	32,130918  	35,372627  	65,642623  	28,108256  	27,025625  	28,428806  	71,639253  	0,236620  	0,119897  	-4377,802359  	25497,180928  	-0,018514  	-0,049997  	0,349207  	0,176946  	-5,555631  	9328,901508  	79042,319217  	11,464119  	-0,047949  
184,551000  	23,484011  	32,297960  	26,129977  	1256,670793  	80,176424  	72,659476  	0,007634  	0,008335  	0,003963  	0,004283  	0,004362  	0,000000  	-0,000000  	26,818819  	25,135098  	26,269928  	26,225878  	29,952719  	28,340172  	29,804668  	29,516530  	33,256218  	32,128464  	35,377562  	65,655206  	28,101744  	27,028831  	28,424724  	71,646236  	0,235897  	0,119531  	-4404,770743  	25496,623873  	-0,018514  	-0,049996  	0,313113  	0,158657  	-4,998961  	9324,409932  	79226,331309  	11,490808  	-0,047948  
185,550000  	23,393928  	32,305966  	26,130561  	1256,670793  	80,180517  	72,661191  	0,007626  	0,008335  	0,003963  	0,004265  	0,004354  	0,000002  	-0,000000  	26,810111  	25,136247  	26,262924  	26,227131  	29,951783  	28,342292  	29,801174  	29,516962  	33,245882  	32,126723  	35,369700  	65,645344  	28,099485  	27,023798  	28,433143  	71,639034  	0,221424  	0,112197  	-4180,564803  	25488,237826  	-0,018508  	-0,049977  	0,306435  	0,155273  	-4,893889  	9324,500485  	79054,040632  	11,465819  	-0,047932  
186,553000  	23,381582  	32,307013  	26,130807  	1256,670793  	80,176080  	72,671477  	0,007623  	0,008335  	0,003963  	0,004321  	0,004357  	-0,000000  	-0,000000  	26,816205  	25,125321  	26,264666  	26,223565  	29,955282  	28,332154  	29,800455  	29,514528  	33,246551  	32,130178  	35,366733  	65,645767  	28,109782  	27,016203  	28,423719  	71,637542  	0,267026  	0,135304  	-5049,111368  	25501,009315  	-0,018517  	-0,050005  	0,309248  	0,156698  	-4,929158  	9324,714134  	78977,738458  	11,454753  	-0,047956  
187,549000  	23,407933  	32,292509  	26,131637  	1256,670793  	80,174081  	72,676558  	0,007634  	0,008335  	0,003963  	0,004306  	0,004353  	0,000000  	-0,000000  	26,803479  	25,127768  	26,263091  	26,228708  	29,953877  	28,340664  	29,807795  	29,512875  	33,253912  	32,132433  	35,359698  	65,644056  	28,108108  	27,006709  	28,425605  	71,628018  	0,254940  	0,129180  	-4798,507678  	25498,226389  	-0,018515  	-0,049999  	0,305715  	0,154908  	-4,868252  	9324,537980  	79224,693135  	11,490570  	-0,047951  
188,551000  	23,429617  	32,263071  	26,130961  	1256,670793  	80,171144  	72,674813  	0,007636  	0,008343  	0,003963  	0,004306  	0,004371  	0,000001  	-0,000000  	26,818829  	25,136353  	26,269376  	26,236062  	29,957202  	28,346500  	29,810574  	29,528989  	33,258032  	32,140479  	35,376378  	65,653605  	28,115482  	27,017296  	28,427386  	71,638452  	0,254535  	0,128975  	-4763,318443  	25494,890970  	-0,018513  	-0,049992  	0,319720  	0,162005  	-5,090458  	9341,970868  	79277,905534  	11,498288  	-0,047945  
189,550000  	23,456184  	32,232340  	26,131330  	1256,670793  	80,166239  	72,680766  	0,007628  	0,008329  	0,003962  	0,004322  	0,004345  	-0,000000  	-0,000000  	26,816628  	25,133364  	26,267274  	26,235970  	29,957863  	28,345176  	29,807737  	29,531074  	33,254809  	32,140754  	35,380627  	65,658740  	28,108490  	27,006457  	28,434596  	71,636849  	0,267155  	0,135369  	-4967,038464  	25500,587204  	-0,018517  	-0,050005  	0,299270  	0,151642  	-4,757952  	9311,329253  	79097,558150  	11,472131  	-0,047955  
190,554000  	23,477008  	32,220639  	26,131883  	1256,670793  	80,167801  	72,681702  	0,007630  	0,008333  	0,003961  	0,004326  	0,004326  	-0,000000  	-0,000000  	26,814121  	25,132735  	26,267091  	26,231805  	29,961592  	28,336933  	29,807165  	29,521520  	33,253747  	32,138262  	35,367231  	65,654419  	28,098204  	26,990634  	28,422712  	71,624423  	0,271135  	0,137386  	-5022,349334  	25499,523633  	-0,018516  	-0,050002  	0,284210  	0,144011  	-4,518910  	9318,704379  	79134,184041  	11,477443  	-0,047953  
191,554000  	23,497924  	32,219992  	26,131699  	357,439972  	80,166801  	72,670262  	0,007629  	0,008345  	0,003962  	0,004295  	0,004346  	-0,000001  	-0,000000  	26,814309  	25,137360  	26,270903  	26,234281  	29,960239  	28,343109  	29,806269  	29,523337  	33,261261  	32,146663  	35,375584  	65,651975  	28,095796  	26,982919  	28,418668  	71,625813  	0,245682  	0,124489  	-4539,642792  	12441,812199  	-0,036428  	-0,050011  	0,299940  	0,151982  	-4,775649  	9345,684253  	79111,122510  	11,474098  	-0,047961  
192,551000  	23,512175  	32,223749  	26,131391  	956,927186  	80,163364  	72,675997  	0,007632  	0,008335  	0,003963  	0,004246  	0,004371  	0,000001  	-0,000000  	26,817253  	25,131527  	26,267436  	26,234131  	29,959576  	28,338102  	29,806192  	29,522085  	33,258402  	32,138303  	35,375001  	65,654127  	28,097269  	26,981153  	28,425732  	71,628536  	0,205905  	0,104334  	-3800,086305  	22439,447788  	-0,022141  	-0,049992  	0,319746  	0,162018  	-5,084781  	9323,224252  	79178,132286  	11,483817  	-0,047945  
193,550000  	23,435084  	32,231539  	26,132037  	956,927186  	80,160146  	72,661159  	0,007631  	0,008331  	0,003963  	0,004295  	0,004316  	0,000000  	-0,000000  	26,817353  	25,132707  	26,269019  	26,243123  	29,962999  	28,344383  	29,807725  	29,525647  	33,255663  	32,133663  	35,373100  	65,661054  	28,094749  	26,984155  	28,426385  	71,633226  	0,245697  	0,124496  	-4578,660153  	22440,378951  	-0,022142  	-0,049995  	0,276654  	0,140183  	-4,406329  	9314,621000  	79157,725726  	11,480857  	-0,047947  
194,551000  	23,374026  	32,242501  	26,131791  	357,439972  	80,161708  	72,667643  	0,007627  	0,008335  	0,003963  	0,004246  	0,004337  	-0,000000  	-0,000000  	26,813864  	25,133659  	26,274157  	26,244041  	29,960387  	28,343106  	29,808783  	29,530181  	33,259668  	32,138388  	35,374000  	65,663352  	28,089454  	26,987217  	28,428615  	71,636149  	0,205555  	0,104156  	-3861,983564  	12440,427551  	-0,036424  	-0,050005  	0,293537  	0,148737  	-4,672156  	9324,220337  	79069,349082  	11,468040  	-0,047956  
195,549000  	23,326576  	32,253033  	26,131145  	1256,670793  	80,158178  	72,672880  	0,007631  	0,008330  	0,003962  	0,004244  	0,004369  	-0,000001  	-0,000000  	26,816959  	25,138235  	26,281468  	26,239077  	29,968169  	28,351780  	29,814230  	29,534209  	33,270438  	32,146960  	35,381191  	65,664607  	28,089786  	26,995579  	28,438778  	71,637921  	0,204587  	0,103666  	-3868,936765  	25502,301706  	-0,018518  	-0,050008  	0,318624  	0,161449  	-5,065529  	9314,209974  	79158,212942  	11,480928  	-0,047959  
196,553000  	23,341870  	32,245396  	26,130838  	1256,670793  	80,153991  	72,669139  	0,007629  	0,008353  	0,003964  	0,004286  	0,004373  	-0,000001  	-0,000000  	26,822070  	25,146010  	26,281231  	26,234749  	29,974324  	28,363836  	29,818003  	29,534414  	33,269433  	32,151673  	35,385170  	65,663241  	28,090370  	27,011635  	28,441017  	71,640101  	0,238256  	0,120726  	-4494,067373  	25505,344070  	-0,018520  	-0,050015  	0,321747  	0,163031  	-5,114872  	9363,414975  	79116,375964  	11,474860  	-0,047964  
197,551000  	23,391594  	32,220947  	26,130285  	956,927186  	80,157490  	72,658354  	0,007635  	0,008337  	0,003961  	0,004316  	0,004307  	-0,000000  	-0,000000  	26,820876  	25,141244  	26,272931  	26,233886  	29,964804  	28,357006  	29,814434  	29,527049  	33,261079  	32,144959  	35,378052  	65,655462  	28,084583  	27,022473  	28,435591  	71,638803  	0,262833  	0,133179  	-4916,327062  	22445,049868  	-0,022147  	-0,050006  	0,269545  	0,136580  	-4,293183  	9328,084407  	79254,144955  	11,494842  	-0,047957  
198,552000  	23,409039  	32,192802  	26,130100  	357,439972  	80,159177  	72,652369  	0,007627  	0,008318  	0,003962  	0,004248  	0,004399  	0,000001  	-0,000000  	26,819709  	25,133821  	26,272432  	26,240317  	29,959972  	28,352437  	29,810809  	29,524457  	33,262853  	32,138799  	35,372165  	65,655387  	28,083365  	27,026356  	28,433950  	71,638441  	0,207405  	0,105094  	-3859,504588  	12435,914362  	-0,036411  	-0,049984  	0,342247  	0,173419  	-5,456717  	9287,766344  	79077,561134  	11,469231  	-0,047938  
199,551000  	23,397890  	32,176729  	26,129363  	357,439972  	80,154272  	72,654520  	0,007626  	0,008352  	0,003964  	0,004329  	0,004354  	0,000001  	-0,000000  	26,819569  	25,132491  	26,274175  	26,241064  	29,962866  	28,349539  	29,811469  	29,526993  	33,261261  	32,137123  	35,370684  	65,660091  	28,088111  	27,030609  	28,436598  	71,637447  	0,273048  	0,138355  	-5078,178931  	12437,813074  	-0,036416  	-0,049993  	0,306932  	0,155525  	-4,889060  	9360,203170  	79056,356670  	11,466155  	-0,047945  
200,551000  	23,407411  	32,178884  	26,128317  	-242,047242  	80,156584  	72,651278  	0,007635  	0,008329  	0,003962  	0,004309  	0,004305  	0,000001  	-0,000000  	26,813963  	25,129681  	26,265802  	26,236672  	29,962383  	28,342764  	29,811610  	29,523276  	33,256532  	32,134955  	35,369914  	65,656182  	28,087189  	27,034696  	28,437737  	71,633542  	0,257022  	0,130235  	-4776,112525  	-27095,129477  	-0,102496  	-0,049993  	0,267660  	0,135625  	-4,266653  	9311,907944  	79238,441084  	11,492564  	-0,047946  
201,550000  	23,408640  	32,188707  	26,128656  	57,696365  	80,158865  	72,656640  	0,007629  	0,008336  	0,003962  	0,004275  	0,004331  	-0,000001  	-0,000000  	26,810245  	25,131363  	26,258613  	26,234957  	29,955247  	28,343033  	29,804935  	29,522357  	33,255671  	32,142826  	35,368714  	65,660184  	28,083838  	27,041940  	28,428537  	71,638104  	0,229752  	0,116417  	-4273,545452  	1707,290198  	-0,053759  	-0,050013  	0,288423  	0,146146  	-4,595744  	9326,234436  	79106,885854  	11,473484  	-0,047963  
202,552000  	23,423996  	32,189815  	26,128594  	1256,670793  	80,154866  	72,661253  	0,007630  	0,008336  	0,003962  	0,004317  	0,004349  	0,000000  	-0,000000  	26,813562  	25,124888  	26,261630  	26,227800  	29,950264  	28,339006  	29,798214  	29,521175  	33,252076  	32,141647  	35,366808  	65,662132  	28,077172  	27,039301  	28,429709  	71,636506  	0,263825  	0,133682  	-4899,368171  	25498,362248  	-0,018515  	-0,049999  	0,302844  	0,153453  	-4,819994  	9326,789781  	79142,600864  	11,478664  	-0,047951  
203,550000  	23,419574  	32,191940  	26,128133  	1256,670793  	80,149648  	72,661222  	0,007630  	0,008331  	0,003964  	0,004286  	0,004355  	0,000001  	-0,000000  	26,805921  	25,119734  	26,255115  	26,213507  	29,949786  	28,331679  	29,788059  	29,508341  	33,250548  	32,132758  	35,360747  	65,651403  	28,078125  	27,037686  	28,431333  	71,640907  	0,238570  	0,120885  	-4433,678615  	25492,971472  	-0,018511  	-0,049988  	0,307250  	0,155686  	-4,886746  	9314,626659  	79143,306974  	11,478766  	-0,047941  
204,552000  	23,453727  	32,192987  	26,127026  	1256,670793  	80,144899  	72,650810  	0,007634  	0,008340  	0,003963  	0,004290  	0,004336  	0,000000  	-0,000000  	26,810440  	25,127655  	26,268349  	26,212586  	29,943837  	28,335272  	29,802741  	29,515067  	33,254064  	32,123815  	35,365373  	65,657624  	28,079655  	27,067396  	28,442721  	71,635019  	0,241562  	0,122401  	-4472,332369  	25496,570014  	-0,018514  	-0,049995  	0,292679  	0,148302  	-4,658499  	9334,372189  	79224,516608  	11,490545  	-0,047947  
205,550000  	23,449089  	32,195450  	26,126381  	1256,670793  	80,141056  	72,655299  	0,007633  	0,008354  	0,003960  	0,004310  	0,004305  	-0,000000  	-0,000000  	26,819401  	25,136603  	26,265553  	26,237686  	29,952511  	28,340689  	29,812449  	29,518150  	33,259636  	32,138960  	35,366853  	65,659264  	28,074190  	27,058693  	28,446280  	71,649225  	0,257808  	0,130633  	-4776,993103  	25499,763382  	-0,018516  	-0,050002  	0,267885  	0,135739  	-4,259127  	9365,269899  	79212,385649  	11,488785  	-0,047953  
206,553000  	23,452099  	32,198037  	26,125274  	1256,670793  	80,142181  	72,656920  	0,007628  	0,008338  	0,003960  	0,004256  	0,004295  	0,000001  	-0,000000  	26,801473  	25,129182  	26,262290  	26,218369  	29,950049  	28,324644  	29,796501  	29,504479  	33,245683  	32,131078  	35,356023  	65,660453  	28,061077  	27,051664  	28,437660  	71,631310  	0,214135  	0,108504  	-3967,567795  	25495,045160  	-0,018513  	-0,049992  	0,259577  	0,131530  	-4,126769  	9330,075868  	79092,361185  	11,471377  	-0,047944  
207,551000  	23,476701  	32,204965  	26,123707  	1256,670793  	80,148430  	72,656484  	0,007630  	0,008338  	0,003963  	0,004290  	0,004326  	0,000000  	-0,000000  	26,806541  	25,127191  	26,253488  	26,217935  	29,943169  	28,323413  	29,791625  	29,514850  	33,252520  	32,131269  	35,356831  	65,654077  	28,052866  	27,059625  	28,420770  	71,645082  	0,241378  	0,122308  	-4463,289533  	25496,550502  	-0,018514  	-0,049995  	0,284290  	0,144052  	-4,523682  	9331,402330  	79132,997777  	11,477271  	-0,047947  
208,551000  	23,480141  	32,209584  	26,122539  	1256,670793  	80,155928  	72,653865  	0,007634  	0,008332  	0,003963  	0,004268  	0,004341  	0,000002  	-0,000000  	26,806419  	25,130612  	26,265777  	26,217395  	29,950126  	28,329693  	29,801644  	29,514974  	33,259674  	32,135571  	35,360815  	65,654113  	28,058644  	27,057231  	28,431402  	71,639317  	0,224046  	0,113526  	-4143,363377  	25489,556182  	-0,018509  	-0,049980  	0,296533  	0,150255  	-4,724866  	9318,045039  	79217,081276  	11,489466  	-0,047934  
209,550000  	23,464722  	32,214757  	26,122416  	-242,047242  	80,159740  	72,648628  	0,007631  	0,008365  	0,003964  	0,004259  	0,004383  	0,000001  	-0,000000  	26,792054  	25,116917  	26,254273  	26,204048  	29,943713  	28,322937  	29,791453  	29,503505  	33,245271  	32,116800  	35,347062  	65,652273  	28,054685  	27,043599  	28,428823  	71,623604  	0,216394  	0,109648  	-4011,299498  	-27092,106528  	-0,102487  	-0,049987  	0,329305  	0,166861  	-5,253370  	9389,807668  	79158,361224  	11,480950  	-0,047941  
210,550000  	23,463555  	32,226458  	26,121432  	357,439972  	80,160490  	72,653117  	0,007624  	0,008328  	0,003963  	0,004300  	0,004359  	-0,000000  	-0,000000  	26,809826  	25,128517  	26,253523  	26,213029  	29,948255  	28,341346  	29,791319  	29,509372  	33,251776  	32,129910  	35,369271  	65,660721  	28,061813  	27,039683  	28,426237  	71,636340  	0,250044  	0,126699  	-4641,896913  	12440,132294  	-0,036422  	-0,050001  	0,310607  	0,157387  	-4,952628  	9308,090565  	79012,754419  	11,459831  	-0,047953  
211,550000  	23,480417  	32,232555  	26,120510  	357,439972  	80,158428  	72,676122  	0,007628  	0,008345  	0,003964  	0,004275  	0,004367  	0,000001  	-0,000000  	26,794492  	25,117357  	26,256509  	26,212182  	29,939623  	28,327543  	29,782890  	29,502904  	33,239674  	32,122286  	35,354601  	65,648869  	28,058468  	27,032486  	28,417200  	71,633121  	0,229111  	0,116092  	-4248,050550  	12435,887613  	-0,036410  	-0,049982  	0,317303  	0,160780  	-5,042512  	9345,169232  	79099,443462  	11,472404  	-0,047936  
212,552000  	23,531034  	32,232679  	26,119773  	956,927186  	80,154116  	72,683852  	0,007633  	0,008342  	0,003963  	0,004305  	0,004361  	-0,000001  	-0,000000  	26,793803  	25,114618  	26,256703  	26,212210  	29,940808  	28,331232  	29,784278  	29,501848  	33,234502  	32,118281  	35,353739  	65,651053  	28,059863  	27,031967  	28,427847  	71,631310  	0,253492  	0,128446  	-4672,983866  	22447,079197  	-0,022149  	-0,050010  	0,312451  	0,158321  	-4,957424  	9339,949694  	79211,397096  	11,488642  	-0,047960  
213,550000  	23,560642  	32,234649  	26,119096  	-242,047242  	80,149086  	72,676184  	0,007631  	0,008360  	0,003962  	0,004272  	0,004334  	-0,000001  	-0,000000  	26,808656  	25,119864  	26,265942  	26,210446  	29,950869  	28,333896  	29,799475  	29,514091  	33,244092  	32,128569  	35,353955  	65,659169  	28,065077  	27,032130  	28,435349  	71,636893  	0,227243  	0,115146  	-4175,790438  	-27102,396545  	-0,102527  	-0,050009  	0,290404  	0,147150  	-4,609239  	9378,865599  	79157,457405  	11,480819  	-0,047959  
214,555000  	23,542459  	32,240808  	26,118482  	357,439972  	80,151585  	72,670262  	0,007635  	0,008334  	0,003963  	0,004334  	0,004343  	-0,000000  	-0,000000  	26,799831  	25,122537  	26,257394  	26,215832  	29,949073  	28,328357  	29,793467  	29,514426  	33,246770  	32,125127  	35,357479  	65,662266  	28,066048  	27,025735  	28,440182  	71,639629  	0,277412  	0,140566  	-5111,985818  	12440,714840  	-0,036424  	-0,050003  	0,297991  	0,150994  	-4,734988  	9321,614105  	79236,534589  	11,492288  	-0,047954  
215,551000  	23,517397  	32,254110  	26,117928  	1256,670793  	80,159146  	72,666272  	0,007636  	0,008355  	0,003963  	0,004250  	0,004335  	0,000001  	-0,000000  	26,789847  	25,116384  	26,262815  	26,214405  	29,942692  	28,320862  	29,785247  	29,503394  	33,245160  	32,123177  	35,359790  	65,657104  	28,068550  	27,016655  	28,436439  	71,632601  	0,208903  	0,105853  	-3866,539081  	25495,122368  	-0,018513  	-0,049992  	0,291669  	0,147791  	-4,641691  	9367,881790  	79261,912158  	11,495968  	-0,047944  
216,551000  	23,490000  	32,272463  	26,117560  	1256,670793  	80,161208  	72,651185  	0,007631  	0,008328  	0,003963  	0,004300  	0,004347  	0,000000  	-0,000000  	26,787650  	25,114184  	26,253168  	26,208297  	29,931977  	28,317178  	29,786197  	29,501493  	33,242553  	32,120622  	35,346512  	65,653652  	28,062136  	27,014710  	28,427103  	71,637102  	0,249824  	0,126588  	-4648,157577  	25498,121955  	-0,018515  	-0,049998  	0,300970  	0,152504  	-4,800661  	9309,610159  	79160,288903  	11,481229  	-0,047950  
217,550000  	23,479342  	32,281516  	26,117068  	1256,670793  	80,163739  	72,645355  	0,007629  	0,008346  	0,003961  	0,004298  	0,004331  	-0,000000  	-0,000000  	26,804385  	25,127274  	26,259348  	26,218910  	29,936703  	28,326771  	29,792580  	29,509336  	33,249021  	32,126969  	35,358139  	65,663389  	28,074699  	27,016944  	28,432837  	71,642236  	0,247683  	0,125503  	-4618,661740  	25499,627966  	-0,018516  	-0,050001  	0,288440  	0,146155  	-4,605912  	9347,870969  	79115,281494  	11,474701  	-0,047953  
218,553000  	23,450226  	32,277575  	26,116391  	1256,670793  	80,172237  	72,654146  	0,007629  	0,008329  	0,003962  	0,004308  	0,004314  	-0,000001  	-0,000000  	26,808947  	25,118338  	26,262601  	26,215750  	29,937962  	28,324777  	29,785593  	29,508978  	33,244857  	32,124706  	35,361730  	65,663398  	28,073530  	27,007744  	28,432405  	71,638378  	0,256146  	0,129791  	-4790,153438  	25503,800827  	-0,018519  	-0,050011  	0,275193  	0,139443  	-4,394223  	9311,133290  	79126,967604  	11,476396  	-0,047960  
219,557000  	23,441196  	32,270646  	26,116115  	1256,670793  	80,173456  	72,673690  	0,007631  	0,008350  	0,003964  	0,004280  	0,004368  	0,000000  	-0,000000  	26,804470  	25,115237  	26,259031  	26,210742  	29,944184  	28,323700  	29,791572  	29,509305  	33,241942  	32,121898  	35,361451  	65,654737  	28,070186  	26,999258  	28,434387  	71,642268  	0,233346  	0,118238  	-4364,801587  	25497,772859  	-0,018515  	-0,049997  	0,317752  	0,161007  	-5,061435  	9355,388999  	79155,106060  	11,480478  	-0,047949  
220,551000  	23,440459  	32,261347  	26,115254  	1256,670793  	80,169832  	72,665461  	0,007629  	0,008340  	0,003961  	0,004304  	0,004360  	0,000000  	-0,000000  	26,798335  	25,121288  	26,251883  	26,213215  	29,941286  	28,324767  	29,791516  	29,503300  	33,245992  	32,121077  	35,357960  	65,656098  	28,065218  	26,997581  	28,431406  	71,640513  	0,253224  	0,128310  	-4732,037878  	25498,222727  	-0,018515  	-0,049998  	0,311252  	0,157714  	-4,960937  	9334,873768  	79120,647925  	11,475480  	-0,047950  
221,549000  	23,445680  	32,252694  	26,114271  	956,927186  	80,170425  	72,665492  	0,007627  	0,008332  	0,003963  	0,004308  	0,004365  	0,000001  	-0,000000  	26,794535  	25,120941  	26,254658  	26,213427  	29,947283  	28,329663  	29,791768  	29,499332  	33,252162  	32,122378  	35,351148  	65,656702  	28,065543  	26,999316  	28,431391  	71,643577  	0,256429  	0,129934  	-4784,384251  	22438,762873  	-0,022140  	-0,049989  	0,315464  	0,159848  	-5,028447  	9317,670093  	79078,316671  	11,469340  	-0,047942  
222,551000  	23,458580  	32,245550  	26,113840  	357,439972  	80,173925  	72,672475  	0,007634  	0,008338  	0,003961  	0,004271  	0,004344  	-0,000000  	-0,000000  	26,797827  	25,116822  	26,258897  	26,218994  	29,948863  	28,335048  	29,797145  	29,506204  	33,251101  	32,124725  	35,349171  	65,653150  	28,069183  	27,002628  	28,431940  	71,647656  	0,226363  	0,114700  	-4213,809873  	12440,958069  	-0,036424  	-0,050003  	0,299085  	0,151549  	-4,765163  	9330,844862  	79233,420646  	11,491836  	-0,047954  
223,551000  	23,469360  	32,238437  	26,113748  	357,439972  	80,172581  	72,674563  	0,007630  	0,008333  	0,003962  	0,004264  	0,004408  	0,000001  	-0,000000  	26,801171  	25,115171  	26,261000  	26,226718  	29,943244  	28,330450  	29,792746  	29,511433  	33,245673  	32,127255  	35,351710  	65,655577  	28,077737  	27,005574  	28,428885  	71,645936  	0,220600  	0,111780  	-4098,168056  	12438,143150  	-0,036416  	-0,049991  	0,349454  	0,177071  	-5,565117  	9318,823230  	79132,574112  	11,477210  	-0,047943  
224,551000  	23,477161  	32,235173  	26,113010  	956,927186  	80,168207  	72,676932  	0,007636  	0,008350  	0,003963  	0,004252  	0,004408  	0,000000  	-0,000000  	26,804116  	25,120002  	26,265366  	26,229426  	29,950773  	28,330061  	29,791586  	29,512129  	33,247319  	32,133101  	35,356031  	65,662952  	28,094213  	27,006319  	28,433897  	71,643760  	0,210524  	0,106674  	-3906,053454  	22442,385389  	-0,022144  	-0,049998  	0,349272  	0,176979  	-5,557217  	9355,446302  	79268,175348  	11,496877  	-0,047950  
225,550000  	23,454771  	32,235142  	26,111935  	57,696365  	80,170238  	72,665835  	0,007629  	0,008349  	0,003961  	0,004281  	0,004328  	-0,000000  	-0,000000  	26,806852  	25,123103  	26,260598  	26,228058  	29,948694  	28,333952  	29,795554  	29,510050  	33,250410  	32,134078  	35,360556  	65,663438  	28,094961  	27,009416  	28,435417  	71,638634  	0,234538  	0,118842  	-4362,720022  	1707,993443  	-0,053753  	-0,050005  	0,285654  	0,144743  	-4,552954  	9354,955334  	79111,962780  	11,474220  	-0,047956  
226,553000  	23,485301  	32,238652  	26,111197  	1256,670793  	80,170300  	72,667581  	0,007625  	0,008346  	0,003963  	0,004309  	0,004339  	0,000000  	-0,000000  	26,802625  	25,119533  	26,257115  	26,217866  	29,944415  	28,325905  	29,791706  	29,505401  	33,248781  	32,126215  	35,362044  	65,655434  	28,091454  	27,020934  	28,432941  	71,639160  	0,256668  	0,130055  	-4759,654602  	25498,555744  	-0,018515  	-0,049999  	0,294512  	0,149231  	-4,693086  	9347,753532  	79036,253738  	11,463239  	-0,047950  
227,550000  	23,502623  	32,245673  	26,110551  	357,439972  	80,166270  	72,675623  	0,007632  	0,008312  	0,003964  	0,004256  	0,004324  	-0,000000  	-0,000000  	26,806603  	25,122632  	26,258836  	26,216306  	29,951465  	28,330972  	29,793846  	29,510433  	33,247881  	32,126726  	35,359821  	65,659115  	28,102970  	27,035031  	28,438724  	71,639856  	0,213755  	0,108311  	-3959,217934  	12441,600309  	-0,036425  	-0,050006  	0,283009  	0,143403  	-4,502546  	9273,965485  	79176,748311  	11,483616  	-0,047956  
228,553000  	23,500105  	32,247952  	26,109875  	956,927186  	80,164645  	72,667705  	0,007628  	0,008331  	0,003963  	0,004261  	0,004291  	0,000001  	-0,000000  	26,808030  	25,118139  	26,256318  	26,215281  	29,949947  	28,335046  	29,798245  	29,512167  	33,246643  	32,130655  	35,355909  	65,657160  	28,094229  	27,044625  	28,427172  	71,648967  	0,217911  	0,110417  	-4038,396644  	22437,913393  	-0,022139  	-0,049986  	0,256393  	0,129916  	-4,082511  	9315,298733  	79101,950150  	11,472768  	-0,047940  
229,549000  	23,518287  	32,249923  	26,109998  	956,927186  	80,165051  	72,666147  	0,007636  	0,008374  	0,003962  	0,004335  	0,004344  	-0,000000  	-0,000000  	26,795177  	25,113632  	26,254593  	26,213077  	29,934343  	28,321733  	29,789423  	29,506856  	33,239181  	32,118264  	35,348339  	65,649942  	28,091436  	27,048202  	28,425005  	71,634926  	0,277887  	0,140807  	-5140,348177  	22445,589034  	-0,022147  	-0,050006  	0,298968  	0,151489  	-4,761676  	9408,315167  	79273,781856  	11,497690  	-0,047956  
230,552000  	23,554530  	32,254049  	26,109506  	-242,047242  	80,164676  	72,680112  	0,007633  	0,008341  	0,003962  	0,004291  	0,004364  	-0,000001  	-0,000000  	26,805389  	25,117550  	26,260602  	26,212156  	29,942278  	28,333585  	29,795565  	29,521740  	33,248043  	32,125009  	35,365274  	65,656048  	28,107126  	27,075398  	28,434693  	71,646612  	0,242628  	0,122941  	-4471,610712  	-27101,583454  	-0,102528  	-0,050007  	0,314754  	0,159488  	-5,003530  	9336,386995  	79206,355476  	11,487911  	-0,047958  
231,550000  	23,581989  	32,260792  	26,108584  	657,183579  	80,168457  	72,678397  	0,007628  	0,008336  	0,003963  	0,004271  	0,004375  	-0,000000  	-0,000000  	26,802003  	25,118173  	26,258123  	26,226376  	29,954465  	28,335392  	29,794889  	29,515630  	33,245169  	32,131259  	35,366959  	65,658266  	28,109678  	27,092208  	28,436859  	71,635884  	0,226554  	0,114797  	-4165,418005  	18406,748332  	-0,027544  	-0,050002  	0,323317  	0,163827  	-5,143413  	9325,444218  	79105,466574  	11,473278  	-0,047953  
232,580000  	23,574494  	32,267197  	26,107847  	1256,670793  	80,171706  	72,672849  	0,007629  	0,008335  	0,003963  	0,004266  	0,004355  	0,000000  	-0,000000  	26,808208  	25,121029  	26,256327  	26,217281  	29,943308  	28,325033  	29,786785  	29,506343  	33,235621  	32,129198  	35,362263  	65,649287  	28,101288  	27,107917  	28,429263  	71,626986  	0,222085  	0,112532  	-4089,797825  	25497,004176  	-0,018514  	-0,049995  	0,307216  	0,155668  	-4,893008  	9324,192746  	79123,239346  	11,475856  	-0,047947  
233,552000  	23,548909  	32,279083  	26,108830  	956,927186  	80,165458  	72,687655  	0,007630  	0,008343  	0,003964  	0,004280  	0,004344  	-0,000001  	-0,000000  	26,796418  	25,123861  	26,253473  	26,223642  	29,946689  	28,336602  	29,789751  	29,512657  	33,243231  	32,135056  	35,355024  	65,655377  	28,109620  	27,121818  	28,430731  	71,631611  	0,233548  	0,118341  	-4319,439626  	22445,940887  	-0,022147  	-0,050006  	0,298885  	0,151447  	-4,746968  	9341,576820  	79145,044002  	11,479018  	-0,047957  
234,550000  	23,527655  	32,294234  	26,108400  	-242,047242  	80,162396  	72,700062  	0,007634  	0,008350  	0,003963  	0,004251  	0,004341  	0,000001  	-0,000000  	26,799257  	25,116520  	26,248806  	26,216321  	29,944463  	28,331049  	29,796109  	29,509768  	33,241671  	32,136794  	35,355413  	65,655759  	28,098973  	27,132818  	28,428033  	71,631563  	0,209669  	0,106241  	-3893,968989  	-27092,458302  	-0,102493  	-0,049989  	0,295943  	0,149957  	-4,690541  	9356,262695  	79224,629585  	11,490561  	-0,047942  
235,554000  	23,523509  	32,305689  	26,107293  	-242,047242  	80,161864  	72,697225  	0,007637  	0,008339  	0,003960  	0,004326  	0,004355  	0,000002  	-0,000000  	26,799208  	25,118546  	26,251006  	26,225433  	29,942523  	28,315135  	29,793994  	29,514488  	33,247290  	32,130047  	35,357800  	65,657204  	28,099766  	27,140978  	28,433654  	71,629201  	0,270406  	0,137017  	-5030,913826  	-27088,772324  	-0,102480  	-0,049981  	0,307044  	0,155582  	-4,867981  	9331,857218  	79289,323322  	11,499944  	-0,047935  
236,550000  	23,512759  	32,308152  	26,107355  	-242,047242  	80,159802  	72,687500  	0,007627  	0,008338  	0,003962  	0,004272  	0,004336  	-0,000000  	-0,000000  	26,802400  	25,125507  	26,255656  	26,222121  	29,955532  	28,339733  	29,804451  	29,522872  	33,250371  	32,131152  	35,365391  	65,667015  	28,110942  	27,164981  	28,431804  	71,642225  	0,226694  	0,114867  	-4223,998054  	-27098,870067  	-0,102518  	-0,050002  	0,292593  	0,148259  	-4,643626  	9330,503873  	79065,317198  	11,467455  	-0,047953  
237,550000  	23,474858  	32,299561  	26,107140  	1256,670793  	80,162271  	72,674065  	0,007629  	0,008340  	0,003962  	0,004290  	0,004327  	0,000001  	-0,000000  	26,808207  	25,121720  	26,264364  	26,223502  	29,948929  	28,340502  	29,797448  	29,521989  	33,246113  	32,141140  	35,360048  	65,659812  	28,108248  	27,169172  	28,438722  	71,642369  	0,241555  	0,122398  	-4515,917850  	25493,456776  	-0,018511  	-0,049987  	0,285202  	0,144514  	-4,535945  	9335,071853  	79114,956684  	11,474654  	-0,047940  
238,551000  	23,446540  	32,292540  	26,106709  	1256,670793  	80,168582  	72,666521  	0,007627  	0,008351  	0,003963  	0,004293  	0,004372  	-0,000000  	-0,000000  	26,812273  	25,117434  	26,259755  	26,217474  	29,939139  	28,333525  	29,791068  	29,512103  	33,246058  	32,140315  	35,360082  	65,656512  	28,091503  	27,170385  	28,431362  	71,628277  	0,244150  	0,123713  	-4575,463313  	25499,459152  	-0,018516  	-0,050000  	0,320858  	0,162581  	-5,112463  	9358,373006  	79069,716259  	11,468093  	-0,047952  
239,551000  	23,455478  	32,286351  	26,106617  	1256,670793  	80,168519  	72,677992  	0,007630  	0,008355  	0,003964  	0,004273  	0,004380  	0,000000  	-0,000000  	26,815384  	25,127662  	26,260135  	26,240967  	29,957314  	28,343115  	29,804475  	29,523258  	33,258354  	32,135991  	35,375771  	65,663942  	28,091458  	27,201333  	28,431897  	71,634518  	0,227617  	0,115335  	-4258,319613  	25498,825387  	-0,018515  	-0,049999  	0,327573  	0,165984  	-5,211450  	9367,577588  	79130,787655  	11,476950  	-0,047950  
240,550000  	23,491843  	32,274834  	26,105511  	1256,670793  	80,161083  	72,667643  	0,007635  	0,008295  	0,003962  	0,004392  	0,004275  	0,000000  	-0,000000  	26,805702  	25,116563  	26,254500  	26,223720  	29,948026  	28,338083  	29,794637  	29,519809  	33,252866  	32,132513  	35,357095  	65,651360  	28,074493  	27,210429  	28,433220  	71,626318  	0,324634  	0,164494  	-6040,400273  	25498,429862  	-0,018515  	-0,049998  	0,243768  	0,123519  	-3,879679  	9238,029343  	79247,712299  	11,493909  	-0,047950  
241,551000  	23,520622  	32,260916  	26,103974  	1256,670793  	80,160146  	72,667425  	0,007624  	0,008373  	0,003961  	0,004244  	0,004335  	-0,000001  	-0,000000  	26,809663  	25,124175  	26,264121  	26,233009  	29,961406  	28,339500  	29,803575  	29,518927  	33,259485  	32,137288  	35,365704  	65,666193  	28,083742  	27,235337  	28,437978  	71,635916  	0,203944  	0,103340  	-3776,287780  	25504,501696  	-0,018519  	-0,050011  	0,291884  	0,147900  	-4,645020  	9406,949088  	79009,929982  	11,459422  	-0,047961  
242,561000  	23,546299  	32,253464  	26,103421  	1256,670793  	80,160583  	72,663622  	0,007630  	0,008340  	0,003962  	0,004285  	0,004360  	-0,000001  	-0,000000  	26,813864  	25,129932  	26,264717  	26,233108  	29,965085  	28,350924  	29,804237  	29,524647  	33,262604  	32,142554  	35,375471  	65,665772  	28,087283  	27,259099  	28,440635  	71,646237  	0,237347  	0,120265  	-4378,126694  	25506,116164  	-0,018521  	-0,050015  	0,311152  	0,157663  	-4,954441  	9335,170188  	79137,545121  	11,477931  	-0,047964  
243,549000  	23,562608  	32,255404  	26,102683  	1256,670793  	80,157647  	72,670854  	0,007629  	0,008327  	0,003963  	0,004239  	0,004356  	0,000000  	-0,000000  	26,811064  	25,127035  	26,259291  	26,228603  	29,953011  	28,343998  	29,801417  	29,515958  	33,252425  	32,133428  	35,368004  	65,654300  	28,084733  	27,261712  	28,437608  	71,639728  	0,200110  	0,101397  	-3685,155238  	25498,997574  	-0,018515  	-0,049999  	0,307940  	0,156036  	-4,896658  	9307,647703  	79123,790112  	11,475936  	-0,047951  
244,550000  	23,573849  	32,263533  	26,103359  	1256,670793  	80,156772  	72,673597  	0,007633  	0,008336  	0,003962  	0,004281  	0,004316  	0,000000  	-0,000000  	26,802665  	25,122240  	26,262062  	26,222527  	29,947250  	28,338481  	29,791646  	29,511077  	33,244266  	32,126506  	35,354485  	65,645771  	28,076198  	27,262820  	28,425692  	71,627484  	0,234442  	0,118793  	-4315,847303  	25497,704041  	-0,018515  	-0,049996  	0,276377  	0,140042  	-4,392646  	9326,648292  	79210,825148  	11,488559  	-0,047948  
245,551000  	23,557417  	32,275727  	26,102068  	-242,047242  	80,159240  	72,670885  	0,007636  	0,008334  	0,003962  	0,004306  	0,004326  	0,000000  	-0,000000  	26,801030  	25,123785  	26,265842  	26,223957  	29,949640  	28,342753  	29,798337  	29,513660  	33,251317  	32,134445  	35,357515  	65,646082  	28,078642  	27,271066  	28,428080  	71,628117  	0,254715  	0,129066  	-4704,512440  	-27097,381825  	-0,102515  	-0,049999  	0,284838  	0,144329  	-4,530245  	9321,144361  	79261,940402  	11,495973  	-0,047951  
246,554000  	23,540094  	32,289584  	26,101515  	-242,047242  	80,158615  	72,667020  	0,007625  	0,008338  	0,003963  	0,004291  	0,004323  	-0,000000  	-0,000000  	26,810924  	25,129137  	26,269999  	26,224981  	29,958392  	28,345569  	29,804088  	29,513321  	33,250539  	32,144151  	35,367740  	65,653619  	28,086123  	27,268627  	28,433737  	71,637884  	0,242656  	0,122955  	-4497,817287  	-27099,948092  	-0,102525  	-0,050004  	0,281791  	0,142785  	-4,483718  	9330,997671  	79041,570741  	11,464011  	-0,047955  
247,550000  	23,520929  	32,297991  	26,100962  	657,183579  	80,160209  	72,666022  	0,007628  	0,008339  	0,003963  	0,004273  	0,004357  	0,000000  	-0,000000  	26,812922  	25,129256  	26,271155  	26,233583  	29,964402  	28,346764  	29,804960  	29,524083  	33,257537  	32,142642  	35,371065  	65,658018  	28,089369  	27,261804  	28,433202  	71,645680  	0,227779  	0,115418  	-4235,382114  	18405,736105  	-0,027542  	-0,049998  	0,309163  	0,156655  	-4,920947  	9332,018515  	79104,103783  	11,473080  	-0,047949  
248,553000  	23,512943  	32,302178  	26,101146  	57,696365  	80,161083  	72,676496  	0,007634  	0,008334  	0,003963  	0,004286  	0,004283  	0,000000  	-0,000000  	26,812255  	25,129695  	26,272754  	26,237394  	29,960706  	28,347092  	29,810357  	29,529867  	33,268354  	32,138184  	35,367065  	65,658182  	28,090530  	27,256779  	28,436791  	71,646273  	0,238115  	0,120655  	-4433,709012  	1708,297080  	-0,053744  	-0,049995  	0,250735  	0,127050  	-3,985855  	9322,891045  	79219,835103  	11,489866  	-0,047947  
249,550000  	23,537084  	32,301316  	26,101423  	956,927186  	80,160490  	72,674781  	0,007631  	0,008344  	0,003963  	0,004258  	0,004340  	0,000001  	-0,000000  	26,815588  	25,131142  	26,271361  	26,232675  	29,958529  	28,344910  	29,809042  	29,524014  	33,266284  	32,140062  	35,366075  	65,658233  	28,090804  	27,242699  	28,437809  	71,641812  	0,215344  	0,109116  	-3998,289913  	22440,798967  	-0,022142  	-0,049993  	0,295818  	0,149893  	-4,703224  	9343,289547  	79164,158382  	11,481790  	-0,047945  
250,552000  	23,540463  	32,298114  	26,100009  	357,439972  	80,163614  	72,691427  	0,007637  	0,008342  	0,003961  	0,004297  	0,004377  	-0,000001  	-0,000000  	26,821058  	25,137433  	26,270275  	26,240141  	29,966042  	28,352543  	29,808251  	29,531585  	33,270460  	32,148018  	35,376109  	65,665080  	28,096859  	27,233641  	28,438105  	71,642619  	0,247555  	0,125438  	-4592,901038  	12442,942231  	-0,036428  	-0,050009  	0,324910  	0,164634  	-5,156437  	9338,734302  	79290,191837  	11,500070  	-0,047959  
251,550000  	23,508950  	32,291555  	26,099917  	1256,670793  	80,170019  	72,672880  	0,007634  	0,008337  	0,003962  	0,004270  	0,004334  	-0,000001  	-0,000000  	26,827306  	25,145959  	26,281474  	26,249736  	29,971664  	28,363279  	29,814977  	29,538202  	33,272797  	32,152749  	35,383314  	65,670023  	28,099697  	27,231924  	28,444667  	71,644549  	0,225490  	0,114257  	-4195,464389  	25504,750718  	-0,018520  	-0,050011  	0,290641  	0,147270  	-4,627963  	9328,164349  	79234,006717  	11,491921  	-0,047961  
252,553000  	23,448199  	32,289276  	26,099917  	1256,670793  	80,174768  	72,665711  	0,007628  	0,008352  	0,003963  	0,004261  	0,004386  	0,000001  	-0,000000  	26,821413  	25,141976  	26,286514  	26,247330  	29,970148  	28,356954  	29,812187  	29,530879  	33,263815  	32,147203  	35,379307  	65,658566  	28,089113  	27,215218  	28,439457  	71,642843  	0,218495  	0,110713  	-4092,386861  	25495,692342  	-0,018513  	-0,049992  	0,332195  	0,168326  	-5,298048  	9361,503456  	79099,867127  	11,472466  	-0,047944  
253,551000  	23,438186  	32,291093  	26,099056  	1256,670793  	80,169675  	72,677306  	0,007626  	0,008340  	0,003963  	0,004295  	0,004324  	-0,000000  	-0,000000  	26,819825  	25,144730  	26,280470  	26,243342  	29,969718  	28,355726  	29,811742  	29,534032  	33,269447  	32,147269  	35,381297  	65,655867  	28,095284  	27,207988  	28,433477  	71,650298  	0,245617  	0,124456  	-4606,538168  	25499,630376  	-0,018516  	-0,050000  	0,282823  	0,143309  	-4,500619  	9334,475476  	79045,616748  	11,464597  	-0,047952  
254,552000  	23,479219  	32,287706  	26,098626  	657,183579  	80,168176  	72,681234  	0,007636  	0,008341  	0,003961  	0,004281  	0,004366  	-0,000000  	-0,000000  	26,819072  	25,139770  	26,277428  	26,251137  	29,966136  	28,356410  	29,815510  	29,540535  	33,268182  	32,150952  	35,384607  	65,657338  	28,104191  	27,210274  	28,439512  	71,644571  	0,233911  	0,118524  	-4364,972794  	18407,652232  	-0,027545  	-0,050003  	0,315827  	0,160032  	-5,022179  	9336,531314  	79261,163682  	11,495860  	-0,047954  
255,550000  	23,542337  	32,271262  	26,099087  	657,183579  	80,172050  	72,677587  	0,007627  	0,008334  	0,003963  	0,004254  	0,004383  	0,000000  	-0,000000  	26,821796  	25,140431  	26,281063  	26,247473  	29,965542  	28,350153  	29,810686  	29,538848  	33,269642  	32,148252  	35,379800  	65,660456  	28,097033  	27,208818  	28,434371  	71,643102  	0,212274  	0,107561  	-3925,421998  	18405,930253  	-0,027542  	-0,049998  	0,329544  	0,166982  	-5,245553  	9321,247648  	79068,996028  	11,467988  	-0,047950  
256,551000  	23,585767  	32,255065  	26,097734  	57,696365  	80,170363  	72,675031  	0,007630  	0,008341  	0,003963  	0,004303  	0,004360  	-0,000001  	-0,000000  	26,817347  	25,128854  	26,271848  	26,236968  	29,952576  	28,342694  	29,806323  	29,523892  	33,259316  	32,136083  	35,374002  	65,649966  	28,093182  	27,195425  	28,419742  	71,623529  	0,251988  	0,127684  	-4627,979493  	1708,861723  	-0,053756  	-0,050007  	0,311266  	0,157721  	-4,955193  	9336,515751  	79135,158472  	11,477584  	-0,047958  
257,550000  	23,566447  	32,254264  	26,097027  	1256,670793  	80,171862  	72,675966  	0,007629  	0,008341  	0,003962  	0,004252  	0,004306  	0,000000  	-0,000000  	26,830425  	25,144609  	26,278728  	26,250898  	29,970066  	28,349737  	29,817793  	29,531937  	33,268430  	32,147269  	35,382199  	65,652011  	28,113440  	27,209928  	28,437263  	71,645309  	0,210431  	0,106627  	-3873,003853  	25498,280619  	-0,018515  	-0,049997  	0,268921  	0,136264  	-4,281402  	9336,715250  	79113,565648  	11,474453  	-0,047949  
258,552000  	23,508950  	32,266458  	26,096597  	657,183579  	80,173675  	72,679208  	0,007627  	0,008357  	0,003961  	0,004332  	0,004372  	0,000001  	-0,000000  	26,829991  	25,146315  	26,278481  	26,252697  	29,973990  	28,357067  	29,823588  	29,536339  	33,266354  	32,153915  	35,379323  	65,659800  	28,115402  	27,202758  	28,444080  	71,651032  	0,275672  	0,139685  	-5114,493889  	18403,205296  	-0,027538  	-0,049989  	0,320761  	0,162532  	-5,105759  	9371,757887  	79073,303294  	11,468613  	-0,047942  
259,551000  	23,458180  	32,289461  	26,096413  	657,183579  	80,169738  	72,679800  	0,007629  	0,008329  	0,003963  	0,004271  	0,004363  	-0,000000  	-0,000000  	26,837747  	25,150855  	26,275758  	26,250435  	29,968182  	28,359110  	29,823525  	29,536225  	33,261544  	32,156037  	35,377326  	65,666542  	28,118488  	27,195239  	28,439808  	71,649925  	0,225820  	0,114425  	-4224,908997  	18407,615419  	-0,027545  	-0,050003  	0,313650  	0,158929  	-4,989556  	9310,764004  	79123,825417  	11,475941  	-0,047954  
260,553000  	23,415366  	32,300485  	26,095859  	57,696365  	80,166301  	72,682044  	0,007637  	0,008336  	0,003962  	0,004254  	0,004353  	0,000000  	-0,000000  	26,833217  	25,150302  	26,269740  	26,250388  	29,963947  	28,364961  	29,809308  	29,536839  	33,265671  	32,144553  	35,368823  	65,659279  	28,120524  	27,171423  	28,432794  	71,642239  	0,212342  	0,107595  	-3996,964956  	1708,616347  	-0,053745  	-0,049996  	0,305458  	0,154778  	-4,855546  	9326,276883  	79298,580415  	11,501287  	-0,047948  
261,549000  	23,370126  	32,294511  	26,097519  	-242,047242  	80,160209  	72,682044  	0,007636  	0,008348  	0,003962  	0,004296  	0,004357  	0,000001  	-0,000000  	26,828949  	25,147641  	26,279685  	26,244897  	29,961231  	28,362308  	29,826406  	29,536648  	33,274178  	32,151007  	35,387630  	65,651737  	28,127731  	27,171501  	28,436321  	71,645224  	0,246297  	0,124801  	-4656,625453  	-27092,217914  	-0,102497  	-0,049989  	0,308645  	0,156393  	-4,902220  	9351,096215  	79269,043862  	11,497003  	-0,047942  
262,550000  	23,360482  	32,276712  	26,096044  	357,439972  	80,161021  	72,672631  	0,007629  	0,008331  	0,003963  	0,004272  	0,004330  	-0,000001  	-0,000000  	26,828447  	25,144925  	26,280759  	26,252827  	29,980153  	28,361807  	29,824803  	29,544554  	33,277881  	32,161312  	35,390338  	65,663426  	28,127367  	27,158098  	28,440812  	71,636706  	0,227310  	0,115180  	-4293,714334  	12442,587832  	-0,036427  	-0,050007  	0,287911  	0,145887  	-4,579146  	9316,006179  	79123,429996  	11,475883  	-0,047957  
263,550000  	23,361127  	32,253433  	26,096228  	1256,670793  	80,167176  	72,672007  	0,007626  	0,008354  	0,003964  	0,004267  	0,004363  	0,000001  	-0,000000  	26,818717  	25,141453  	26,272750  	26,239593  	29,967213  	28,350610  	29,826674  	29,540657  	33,269613  	32,154153  	35,379023  	65,650644  	28,115634  	27,144117  	28,428862  	71,640184  	0,222826  	0,112907  	-4197,713832  	25496,106776  	-0,018513  	-0,049992  	0,313439  	0,158822  	-4,989668  	9363,982347  	79055,897699  	11,466089  	-0,047945  
264,567000  	23,369604  	32,226274  	26,095736  	1256,670793  	80,165051  	72,671384  	0,007632  	0,008334  	0,003963  	0,004282  	0,004368  	0,000002  	-0,000000  	26,832656  	25,150082  	26,292696  	26,246896  	29,983968  	28,365412  	29,825014  	29,548747  	33,278718  	32,164752  	35,397238  	65,665766  	28,126669  	27,146508  	28,446736  	71,649884  	0,235353  	0,119255  	-4415,938613  	25488,784084  	-0,018508  	-0,049976  	0,317658  	0,160959  	-5,055817  	9321,534164  	79190,962292  	11,485678  	-0,047931  
265,552000  	23,407657  	32,204534  	26,095829  	57,696365  	80,161396  	72,682606  	0,007632  	0,008333  	0,003962  	0,004282  	0,004363  	0,000002  	-0,000000  	26,823853  	25,147049  	26,285225  	26,241637  	29,971150  	28,358305  	29,819185  	29,543696  	33,262727  	32,150669  	35,378754  	65,665354  	28,119815  	27,125145  	28,434256  	71,639884  	0,235453  	0,119306  	-4387,981854  	1708,059755  	-0,053727  	-0,049978  	0,313677  	0,158942  	-4,982557  	9320,515441  	79179,791643  	11,484058  	-0,047932  
266,550000  	23,451516  	32,191478  	26,095951  	657,183579  	80,169144  	72,667830  	0,007625  	0,008346  	0,003963  	0,004312  	0,004314  	0,000001  	-0,000000  	26,816420  	25,143441  	26,283112  	26,241736  	29,964784  	28,362029  	29,822316  	29,537768  	33,273738  	32,148641  	35,388248  	65,654629  	28,109725  	27,116555  	28,428436  	71,650440  	0,259389  	0,131434  	-4802,771880  	18404,081875  	-0,027539  	-0,049992  	0,274588  	0,139136  	-4,374784  	9347,757777  	79034,424915  	11,462974  	-0,047944  
267,553000  	23,508551  	32,186952  	26,096597  	657,183579  	80,173987  	72,658011  	0,007631  	0,008335  	0,003963  	0,004288  	0,004376  	-0,000000  	-0,000000  	26,828388  	25,147311  	26,285274  	26,251444  	29,966635  	28,362364  	29,824598  	29,532840  	33,282632  	32,152981  	35,392969  	65,653559  	28,106686  	27,106829  	28,435340  	71,657482  	0,240362  	0,121793  	-4419,113432  	18407,577937  	-0,027545  	-0,050003  	0,324163  	0,164256  	-5,174707  	9324,720501  	79154,654150  	11,480412  	-0,047954  
268,551000  	23,566478  	32,189846  	26,097519  	1256,670793  	80,173987  	72,674969  	0,007631  	0,008364  	0,003962  	0,004282  	0,004381  	0,000000  	-0,000000  	26,828503  	25,161927  	26,288246  	26,258508  	29,981994  	28,361927  	29,829672  	29,541039  	33,279322  	32,158521  	35,396318  	65,661575  	28,107188  	27,098933  	28,444173  	71,656251  	0,235122  	0,119138  	-4295,337977  	25499,428043  	-0,018516  	-0,050000  	0,328054  	0,166228  	-5,225021  	9385,717922  	79168,479771  	11,482417  	-0,047951  
269,550000  	23,616174  	32,205858  	26,097212  	956,927186  	80,170488  	72,667144  	0,007627  	0,008329  	0,003963  	0,004370  	0,004363  	-0,000000  	-0,000000  	26,839084  	25,162147  	26,290431  	26,260463  	29,984713  	28,363250  	29,836761  	29,547389  	33,282720  	32,160217  	35,397672  	65,671425  	28,100990  	27,095887  	28,442511  	71,652314  	0,306552  	0,155332  	-5578,381778  	22444,666277  	-0,022146  	-0,050002  	0,313439  	0,158822  	-4,995107  	9311,522386  	79078,697970  	11,469395  	-0,047953  
270,551000  	23,617280  	32,230492  	26,099056  	357,439972  	80,167988  	72,673877  	0,007634  	0,008341  	0,003961  	0,004314  	0,004354  	-0,000001  	-0,000000  	26,822249  	25,143736  	26,276470  	26,247829  	29,965879  	28,349309  	29,821002  	29,529575  	33,268997  	32,150586  	35,383853  	65,652997  	28,087444  	27,082549  	28,431986  	71,645865  	0,260726  	0,132112  	-4757,464933  	12442,811176  	-0,036428  	-0,050008  	0,306930  	0,155524  	-4,885364  	9337,336388  	79230,200788  	11,491369  	-0,047959  
271,552000  	23,568720  	32,259407  	26,099056  	1256,670793  	80,166770  	72,691022  	0,007637  	0,008334  	0,003962  	0,004271  	0,004306  	-0,000000  	-0,000000  	26,810618  	25,142797  	26,268604  	26,232249  	29,958040  	28,342302  	29,805326  	29,522753  	33,257997  	32,136138  	35,365472  	65,641072  	28,082790  	27,058056  	28,425651  	71,643029  	0,226579  	0,114809  	-4171,584523  	25501,449149  	-0,018517  	-0,050004  	0,268996  	0,136303  	-4,271104  	9322,036450  	79285,658615  	11,499413  	-0,047955  
272,551000  	23,462880  	32,287921  	26,100039  	57,696365  	80,165145  	72,696508  	0,007628  	0,008325  	0,003961  	0,004309  	0,004331  	-0,000000  	-0,000000  	26,812909  	25,140110  	26,274910  	26,236620  	29,960155  	28,348802  	29,809080  	29,522554  	33,262541  	32,140154  	35,372858  	65,653262  	28,086289  	27,047673  	28,431815  	71,647884  	0,257045  	0,130247  	-4805,696049  	1708,573958  	-0,053751  	-0,050002  	0,288640  	0,146256  	-4,578641  	9302,463538  	79087,305442  	11,470644  	-0,047953  
273,553000  	23,407503  	32,310955  	26,101576  	1256,670793  	80,156459  	72,689619  	0,007622  	0,008345  	0,003961  	0,004287  	0,004320  	0,000000  	-0,000000  	26,819084  	25,136166  	26,275367  	26,237961  	29,960766  	28,347564  	29,816202  	29,522008  	33,267910  	32,144806  	35,378038  	65,660860  	28,088055  	27,041042  	28,430546  	71,651258  	0,238758  	0,120980  	-4503,477113  	25499,324699  	-0,018516  	-0,050000  	0,279432  	0,141590  	-4,431509  	9346,270725  	78965,155589  	11,452928  	-0,047951  
274,549000  	23,408425  	32,311201  	26,101884  	657,183579  	80,155772  	72,680829  	0,007626  	0,008354  	0,003962  	0,004256  	0,004348  	-0,000001  	-0,000000  	26,822789  	25,138990  	26,272709  	26,236631  	29,964509  	28,350381  	29,810197  	29,526304  	33,266149  	32,139963  	35,370049  	65,660230  	28,086083  	27,035863  	28,431885  	71,652347  	0,214205  	0,108539  	-4040,046052  	18409,925332  	-0,027548  	-0,050010  	0,301860  	0,152955  	-4,792391  	9364,934569  	79056,490831  	11,466175  	-0,047960  
275,552000  	23,403265  	32,289399  	26,103175  	-242,047242  	80,154116  	72,672537  	0,007634  	0,008320  	0,003962  	0,004277  	0,004318  	-0,000000  	-0,000000  	26,823246  	25,139283  	26,273221  	26,239723  	29,966434  	28,352024  	29,809588  	29,529074  	33,265614  	32,139135  	35,369532  	65,658602  	28,083446  	27,030047  	28,434354  	71,648134  	0,231321  	0,117212  	-4354,712161  	-27099,353307  	-0,102522  	-0,050003  	0,278354  	0,141044  	-4,423123  	9291,871654  	79230,292582  	11,491382  	-0,047954  
276,550000  	23,413523  	32,259345  	26,103851  	-242,047242  	80,151554  	72,668796  	0,007634  	0,008340  	0,003963  	0,004288  	0,004348  	-0,000000  	-0,000000  	26,826098  	25,142434  	26,278274  	26,242380  	29,966345  	28,347183  	29,820624  	29,534461  	33,271037  	32,146487  	35,378051  	65,659951  	28,086671  	27,020640  	28,435829  	71,645775  	0,240130  	0,121676  	-4500,036431  	-27098,140925  	-0,102517  	-0,050001  	0,301561  	0,152803  	-4,792628  	9334,489625  	79230,412621  	11,491400  	-0,047952  
277,550000  	23,448045  	32,236435  	26,104742  	1256,670793  	80,153210  	72,670106  	0,007635  	0,008307  	0,003962  	0,004286  	0,004370  	-0,000000  	-0,000000  	26,829393  	25,145983  	26,284868  	26,249140  	29,968783  	28,352680  	29,817903  	29,538140  	33,266464  	32,148206  	35,385877  	65,664615  	28,089693  	27,016703  	28,447790  	71,653523  	0,237949  	0,120570  	-4430,199504  	25499,752519  	-0,018516  	-0,050001  	0,319313  	0,161798  	-5,074995  	9264,576967  	79249,647039  	11,494190  	-0,047952  
278,551000  	23,483488  	32,221901  	26,105972  	1256,670793  	80,151710  	72,666926  	0,007629  	0,008355  	0,003961  	0,004265  	0,004391  	-0,000000  	-0,000000  	26,826264  	25,139676  	26,277829  	26,243649  	29,967719  	28,352720  	29,808023  	29,527889  	33,253246  	32,138126  	35,379954  	65,659236  	28,075928  	27,007418  	28,439474  	71,651731  	0,221567  	0,112270  	-4101,741457  	25500,558604  	-0,018517  	-0,050003  	0,336237  	0,170374  	-5,345183  	9367,291073  	79118,967385  	11,475236  	-0,047954  
279,551000  	23,486529  	32,214419  	26,106617  	357,439972  	80,151085  	72,659788  	0,007631  	0,008342  	0,003962  	0,004274  	0,004391  	0,000001  	-0,000000  	26,816712  	25,135118  	26,274283  	26,235920  	29,971570  	28,354071  	29,810411  	29,526385  	33,259053  	32,144773  	35,372175  	65,656240  	28,060864  	27,005757  	28,429372  	71,647761  	0,228879  	0,115975  	-4231,990643  	12438,796483  	-0,036417  	-0,049992  	0,336026  	0,170267  	-5,346460  	9338,759770  	79160,211231  	11,481218  	-0,047945  
280,550000  	23,496112  	32,215465  	26,106802  	956,927186  	80,149648  	72,656920  	0,007630  	0,008352  	0,003962  	0,004290  	0,004348  	0,000001  	-0,000000  	26,824866  	25,138801  	26,276623  	26,237761  	29,974341  	28,350128  	29,816502  	29,531087  	33,264892  	32,148639  	35,375530  	65,655282  	28,061427  	27,004718  	28,435177  	71,650081  	0,241334  	0,122286  	-4457,917636  	22440,484887  	-0,022142  	-0,049993  	0,301890  	0,152970  	-4,804247  	9360,505957  	79132,708272  	11,477229  	-0,047945  
281,551000  	23,535149  	32,228121  	26,108338  	1256,670793  	80,151741  	72,661253  	0,007636  	0,008337  	0,003961  	0,004289  	0,004332  	-0,000000  	-0,000000  	26,819117  	25,134981  	26,274303  	26,237994  	29,976300  	28,351893  	29,813066  	29,528113  	33,268236  	32,146066  	35,379289  	65,663450  	28,051624  	26,992419  	28,438501  	71,652404  	0,241053  	0,122143  	-4439,251810  	25500,065569  	-0,018516  	-0,050002  	0,289307  	0,146594  	-4,602633  	9329,038045  	79270,576119  	11,497225  	-0,047953  
282,550000  	23,536992  	32,239761  	26,109629  	657,183579  	80,156865  	72,663497  	0,007633  	0,008345  	0,003963  	0,004286  	0,004361  	-0,000000  	-0,000000  	26,802920  	25,132781  	26,268463  	26,229611  	29,958910  	28,347161  	29,809076  	29,523137  	33,262911  	32,135567  	35,366839  	65,653927  	28,047662  	26,983259  	28,439727  	71,645004  	0,238008  	0,120600  	-4388,105537  	18407,070598  	-0,027544  	-0,050003  	0,311908  	0,158046  	-4,964097  	9345,610678  	79197,380826  	11,486609  	-0,047954  
283,553000  	23,554499  	32,247336  	26,111658  	657,183579  	80,159490  	72,659351  	0,007625  	0,008345  	0,003962  	0,004343  	0,004370  	-0,000000  	-0,000000  	26,816952  	25,125470  	26,278149  	26,239906  	29,950076  	28,350798  	29,802292  	29,523477  	33,260284  	32,141295  	35,373700  	65,651435  	28,042647  	26,984676  	28,435100  	71,641145  	0,284781  	0,144300  	-5244,450284  	18407,674602  	-0,027545  	-0,050005  	0,319227  	0,161754  	-5,085165  	9345,015008  	79022,082124  	11,461184  	-0,047956  
284,555000  	23,580545  	32,259345  	26,112457  	1256,670793  	80,161177  	72,663092  	0,007631  	0,008331  	0,003964  	0,004246  	0,004298  	0,000000  	-0,000000  	26,823932  	25,140301  	26,272064  	26,243312  	29,971213  	28,351384  	29,810887  	29,529133  	33,265390  	32,139093  	35,381827  	65,654478  	28,044133  	26,984654  	28,431491  	71,649090  	0,205961  	0,104362  	-3786,789802  	25499,075133  	-0,018516  	-0,050000  	0,262163  	0,132840  	-4,175015  	9314,483048  	79150,473983  	11,479806  	-0,047951  
285,550000  	23,575047  	32,271077  	26,114301  	956,927186  	80,161989  	72,670168  	0,007632  	0,008346  	0,003961  	0,004334  	0,004311  	-0,000000  	-0,000000  	26,818180  	25,147280  	26,271282  	26,235103  	29,971426  	28,349025  	29,803553  	29,521491  	33,258378  	32,138691  	35,383082  	65,662770  	28,044477  	26,979813  	28,438998  	71,653926  	0,277275  	0,140497  	-5108,092073  	22443,539414  	-0,022145  	-0,050001  	0,272562  	0,138109  	-4,337010  	9347,201017  	79176,882472  	11,483636  	-0,047952  
286,550000  	23,556311  	32,283210  	26,115346  	357,439972  	80,160052  	72,662562  	0,007630  	0,008322  	0,003962  	0,004272  	0,004311  	0,000000  	-0,000000  	26,814263  	25,133394  	26,275375  	26,238974  	29,963823  	28,345114  	29,811991  	29,528217  	33,259368  	32,146720  	35,383498  	65,669415  	28,027895  	26,976033  	28,436990  	71,637148  	0,227126  	0,115086  	-4199,088048  	12439,094719  	-0,036419  	-0,049995  	0,272616  	0,138137  	-4,341151  	9296,815995  	79132,793006  	11,477241  	-0,047947  
287,552000  	23,574740  	32,295496  	26,115070  	357,439972  	80,160521  	72,673722  	0,007635  	0,008347  	0,003960  	0,004310  	0,004353  	-0,000000  	-0,000000  	26,831328  	25,139878  	26,284019  	26,246236  	29,968534  	28,355947  	29,815691  	29,535456  	33,274821  	32,156462  	35,376417  	65,668967  	28,036865  	26,982710  	28,437909  	71,654379  	0,257701  	0,130579  	-4760,992480  	12441,047087  	-0,036424  	-0,050004  	0,305736  	0,154919  	-4,861614  	9350,425557  	79251,016891  	11,494388  	-0,047955  
288,551000  	23,562270  	32,305104  	26,115930  	956,927186  	80,158021  	72,666926  	0,007635  	0,008337  	0,003962  	0,004271  	0,004336  	0,000000  	-0,000000  	26,805994  	25,139743  	26,273216  	26,243838  	29,963940  	28,347866  	29,811369  	29,528215  	33,270901  	32,145939  	35,383218  	65,660152  	28,033776  	26,970777  	28,446299  	71,654382  	0,226290  	0,114663  	-4191,273220  	22443,040810  	-0,022145  	-0,050000  	0,292200  	0,148060  	-4,649033  	9329,076954  	79238,998910  	11,492645  	-0,047951  
289,551000  	23,515677  	32,307382  	26,117191  	1256,670793  	80,156209  	72,669576  	0,007630  	0,008352  	0,003962  	0,004271  	0,004336  	0,000000  	-0,000000  	26,820265  	25,138751  	26,272037  	26,243857  	29,960699  	28,337873  	29,807249  	29,527398  	33,258012  	32,136134  	35,368536  	65,662832  	28,016674  	26,964304  	28,438989  	71,644662  	0,226526  	0,114783  	-4219,108794  	25496,565380  	-0,018514  	-0,049995  	0,292659  	0,148292  	-4,653564  	9359,667633  	79140,807346  	11,478404  	-0,047947  
290,550000  	23,443868  	32,311078  	26,118543  	657,183579  	80,159521  	72,673753  	0,007621  	0,008343  	0,003963  	0,004300  	0,004314  	0,000003  	-0,000000  	26,819349  	25,136818  	26,272439  	26,236020  	29,965948  	28,343285  	29,808503  	29,528625  	33,263812  	32,143846  	35,378649  	65,661084  	28,015357  	26,975290  	28,442124  	71,653621  	0,250093  	0,126724  	-4698,064471  	18393,833783  	-0,027525  	-0,049964  	0,275118  	0,139404  	-4,374142  	9340,605497  	78950,849814  	11,450853  	-0,047920  
291,551000  	23,387663  	32,311817  	26,119189  	657,183579  	80,163958  	72,687188  	0,007626  	0,008327  	0,003962  	0,004299  	0,004362  	-0,000000  	-0,000000  	26,820246  	25,145521  	26,273063  	26,241123  	29,968802  	28,355577  	29,806642  	29,537654  	33,272040  	32,147107  	35,386273  	65,667324  	28,019556  	26,979492  	28,439672  	71,658646  	0,249012  	0,126176  	-4707,813628  	18406,690469  	-0,027544  	-0,050003  	0,312649  	0,158421  	-4,964884  	9307,202012  	79059,463552  	11,466606  	-0,047954  
292,551000  	23,408609  	32,304426  	26,120111  	57,696365  	80,166082  	72,674719  	0,007634  	0,008332  	0,003963  	0,004264  	0,004355  	0,000001  	-0,000000  	26,820691  	25,142830  	26,276366  	26,236094  	29,965407  	28,353556  	29,809584  	29,526541  	33,269461  	32,150684  	35,385693  	65,654318  	28,010140  	26,981929  	28,437544  	71,648160  	0,220222  	0,111588  	-4150,285520  	1706,991328  	-0,053735  	-0,049988  	0,307655  	0,155891  	-4,895112  	9317,372258  	79224,509547  	11,490544  	-0,047941  
293,551000  	23,402037  	32,278283  	26,121586  	1256,670793  	80,166582  	72,674470  	0,007633  	0,008353  	0,003963  	0,004280  	0,004375  	0,000000  	-0,000000  	26,820202  	25,137156  	26,284274  	26,244280  	29,969101  	28,352838  	29,811971  	29,519606  	33,267184  	32,147231  	35,386563  	65,661909  	28,010822  	26,998949  	28,432698  	71,645109  	0,233598  	0,118366  	-4392,682075  	25496,363342  	-0,018514  	-0,049995  	0,322968  	0,163650  	-5,139273  	9363,219720  	79201,652788  	11,487229  	-0,047947  
294,551000  	23,357626  	32,249892  	26,122139  	1256,670793  	80,170457  	72,665991  	0,007625  	0,008329  	0,003963  	0,004328  	0,004329  	0,000001  	-0,000000  	26,824168  	25,142180  	26,283435  	26,250076  	29,974436  	28,356577  	29,818902  	29,528747  	33,271623  	32,155524  	35,380131  	65,664204  	28,018368  	27,025785  	28,437813  	71,653471  	0,272541  	0,138098  	-5134,255587  	25495,843136  	-0,018513  	-0,049993  	0,286864  	0,145356  	-4,572282  	9310,103956  	79030,739024  	11,462440  	-0,047946  
295,549000  	23,337079  	32,231231  	26,122785  	1256,670793  	80,172081  	72,666677  	0,007629  	0,008330  	0,003962  	0,004292  	0,004352  	0,000001  	-0,000000  	26,824950  	25,145592  	26,283308  	26,247506  	29,971232  	28,359980  	29,823704  	29,535078  	33,273794  	32,153638  	35,380940  	65,666978  	28,015640  	27,041757  	28,437587  	71,651327  	0,243466  	0,123366  	-4587,505840  	25493,032545  	-0,018511  	-0,049987  	0,304963  	0,154527  	-4,861371  	9313,821586  	79109,795025  	11,473906  	-0,047941  
296,550000  	23,367177  	32,219469  	26,125121  	57,696365  	80,165333  	72,660068  	0,007631  	0,008339  	0,003962  	0,004292  	0,004317  	-0,000001  	-0,000000  	26,830449  	25,145860  	26,289662  	26,248405  	29,976022  	28,357966  	29,826690  	29,540384  	33,270659  	32,152699  	35,383190  	65,663952  	28,021439  	27,060232  	28,438381  	71,652386  	0,243250  	0,123257  	-4561,864751  	1707,435738  	-0,053757  	-0,050012  	0,277714  	0,140720  	-4,426902  	9331,990218  	79154,195179  	11,480345  	-0,047961  
297,551000  	23,402712  	32,203148  	26,126320  	1256,670793  	80,158209  	72,674657  	0,007634  	0,008347  	0,003963  	0,004240  	0,004346  	0,000000  	-0,000000  	26,823323  	25,141269  	26,273593  	26,240049  	29,974307  	28,353196  	29,816526  	29,532688  	33,265242  	32,149667  	35,382383  	65,655552  	28,015961  	27,067043  	28,438534  	71,655569  	0,201432  	0,102067  	-3755,477718  	25498,624477  	-0,018515  	-0,050000  	0,300285  	0,152157  	-4,772870  	9349,686275  	79226,034743  	11,490765  	-0,047951  
298,550000  	23,472800  	32,186397  	26,127733  	657,183579  	80,160521  	72,668859  	0,007633  	0,008338  	0,003963  	0,004302  	0,004347  	-0,000000  	-0,000000  	26,821050  	25,140248  	26,275437  	26,237544  	29,974051  	28,358118  	29,814094  	29,533994  	33,265848  	32,152693  	35,387774  	65,657327  	28,012319  	27,071814  	28,443667  	71,652598  	0,251186  	0,127278  	-4636,859651  	18407,114913  	-0,027545  	-0,050005  	0,301368  	0,152705  	-4,795261  	9330,441618  	79198,129302  	11,486718  	-0,047956  
299,553000  	23,543934  	32,179839  	26,129670  	657,183579  	80,166364  	72,666053  	0,007629  	0,008334  	0,003962  	0,004297  	0,004347  	0,000000  	-0,000000  	26,824667  	25,141380  	26,287241  	26,241414  	29,977145  	28,359486  	29,817168  	29,538237  	33,269124  	32,156065  	35,389904  	65,660052  	28,019330  	27,081198  	28,444191  	71,650030  	0,246942  	0,125127  	-4517,842566  	18404,388309  	-0,027541  	-0,049997  	0,301470  	0,152757  	-4,802428  	9321,341738  	79125,640118  	11,476204  	-0,047949  
300,551000  	23,559598  	32,181994  	26,131883  	1256,670793  	80,162114  	72,663373  	0,007628  	0,008335  	0,003964  	0,004312  	0,004327  	-0,000001  	-0,000000  	26,829969  	25,147132  	26,286433  	26,244144  	29,981188  	28,358710  	29,825541  	29,542061  	33,268980  	32,158010  	35,388345  	65,664760  	28,029132  	27,084821  	28,449465  	71,654733  	0,259415  	0,131448  	-4738,610204  	25501,359136  	-0,018518  	-0,050006  	0,284884  	0,144353  	-4,537260  	9324,553544  	79101,625340  	11,472721  	-0,047957  
301,551000  	23,529006  	32,203179  	26,134403  	1256,670793  	80,157022  	72,671664  	0,007633  	0,008333  	0,003961  	0,004289  	0,004376  	0,000000  	-0,000000  	26,827722  	25,150287  	26,282303  	26,246612  	29,978771  	28,360227  	29,832833  	29,540783  	33,264575  	32,160309  	35,386160  	65,670117  	28,029121  	27,082323  	28,449012  	71,656808  	0,240552  	0,121889  	-4420,435832  	25497,770853  	-0,018515  	-0,049999  	0,323851  	0,164098  	-5,148674  	9320,489266  	79193,963257  	11,486113  	-0,047950  
302,550000  	23,512912  	32,235388  	26,137969  	1256,670793  	80,153522  	72,673098  	0,007634  	0,008345  	0,003962  	0,004249  	0,004332  	0,000001  	-0,000000  	26,817885  	25,138313  	26,277272  	26,239535  	29,965897  	28,354801  	29,821297  	29,527904  	33,260932  	32,152502  	35,380970  	65,668235  	28,025348  	27,076485  	28,436100  	71,650738  	0,208270  	0,105532  	-3848,535183  	25493,668887  	-0,018512  	-0,049990  	0,288917  	0,146396  	-4,590254  	9345,949545  	79235,383630  	11,492121  	-0,047943  
303,553000  	23,486560  	32,264210  	26,139444  	1256,670793  	80,149211  	72,672631  	0,007628  	0,008336  	0,003961  	0,004315  	0,004326  	-0,000000  	-0,000000  	26,821663  	25,134016  	26,276995  	26,230660  	29,959809  	28,349882  	29,811508  	29,525643  	33,264503  	32,143979  	35,379567  	65,665569  	28,035666  	27,071811  	28,434081  	71,650331  	0,261703  	0,132607  	-4866,492609  	25499,269495  	-0,018516  	-0,050002  	0,284363  	0,144089  	-4,515587  	9326,104266  	79098,765597  	11,472306  	-0,047953  
