06/22/2020 15:08:52
Tempo T_f_e T_f_s AR AR T_q_e T_q_s Corrente_P_f Corrente_P_q Corrente_P_RESERVA Corrente_eletromag_f Corrente_eletromag_q AR AR T_1 T_2 T_3 T_4 T_5 T_6 T_7 T_8 T_9 T_10 T_11 T_12 T_13 T_14 T_15 T_16 Velocidade_f_(m/s) Vazao_f_(L/s) q_f_(W) AR AR AR Velocidade_q_(m/s) Vazao_q_(L/s) q_q_(W) DeltaP_q_(Pa) DeltaP_f_(Pa) DeltaP_f_(Psi) AR
0,008000  	24,558734  	33,861054  	25,071683  	1256,670793  	80,463756  	74,634661  	0,007578  	0,012059  	0,003962  	0,004311  	0,004487  	-0,000000  	-0,000000  	28,783557  	26,365663  	27,452646  	27,457709  	31,547417  	29,721569  	31,228959  	30,965682  	34,798058  	33,692050  	36,842480  	67,567755  	27,569344  	26,739503  	29,903223  	73,779685  	0,258518  	0,130993  	-5094,283591  	25533,953832  	-0,018527  	-0,050002  	0,411822  	0,208673  	-5,100175  	17355,476479  	78018,439503  	11,315618  	-0,047953  
2,574000  	24,528379  	33,883482  	25,070638  	1256,670793  	80,464256  	74,630981  	0,007578  	0,012068  	0,003963  	0,004326  	0,004461  	-0,000000  	-0,000000  	28,781067  	26,359851  	27,448411  	27,453032  	31,553101  	29,715996  	31,239023  	30,951112  	34,802847  	33,684106  	36,831093  	67,553567  	27,556973  	26,758957  	29,894407  	73,776033  	0,270654  	0,137142  	-5363,708005  	25534,945009  	-0,018528  	-0,050005  	0,391641  	0,198447  	-4,853716  	17375,026046  	78024,286089  	11,316466  	-0,047955  
3,572000  	24,499991  	33,885885  	25,069624  	1256,670793  	80,469287  	74,626988  	0,007579  	0,012022  	0,003962  	0,004258  	0,004478  	0,000000  	-0,000000  	28,783898  	26,357887  	27,453573  	27,448648  	31,552751  	29,726512  	31,227392  	30,958569  	34,801830  	33,692450  	36,837322  	67,562235  	27,544591  	26,768018  	29,896351  	73,783692  	0,215366  	0,109127  	-4282,085085  	25531,709523  	-0,018525  	-0,049997  	0,405030  	0,205232  	-5,027409  	17275,185587  	78049,734269  	11,320157  	-0,047949  
4,572000  	24,473200  	33,883667  	25,067657  	1256,670793  	80,472224  	74,624431  	0,007589  	0,012056  	0,003960  	0,004338  	0,004462  	-0,000000  	-0,000000  	28,784458  	26,360678  	27,459585  	27,458894  	31,546727  	29,725326  	31,239764  	30,956927  	34,816284  	33,690465  	36,843076  	67,567131  	27,545739  	26,780846  	29,900545  	73,780583  	0,280581  	0,142172  	-5593,357584  	25534,529293  	-0,018527  	-0,050003  	0,391992  	0,198625  	-4,870154  	17349,093193  	78253,729255  	11,349744  	-0,047954  
5,575000  	24,498455  	33,873654  	25,068333  	57,696365  	80,469568  	74,632072  	0,007581  	0,012057  	0,003961  	0,004250  	0,004481  	0,000000  	-0,000000  	28,786278  	26,353767  	27,447518  	27,455250  	31,541611  	29,726236  	31,242791  	30,955194  	34,809758  	33,684453  	36,837674  	67,569217  	27,561523  	26,782909  	29,906128  	73,774451  	0,209011  	0,105907  	-4150,994406  	1767,012529  	-0,053836  	-0,049999  	0,407435  	0,206450  	-5,053105  	17351,141249  	78093,661330  	11,326528  	-0,047950  
6,575000  	24,481004  	33,861516  	25,067227  	657,183579  	80,469380  	74,631074  	0,007582  	0,012089  	0,003960  	0,004283  	0,004466  	0,000000  	-0,000000  	28,780377  	26,353493  	27,450505  	27,455660  	31,544000  	29,720414  	31,242481  	30,961438  	34,806764  	33,692255  	36,833133  	67,562790  	27,558305  	26,791736  	29,902036  	73,779915  	0,236124  	0,119646  	-4692,141293  	18449,641204  	-0,027565  	-0,049998  	0,395001  	0,200150  	-4,899582  	17418,541766  	78102,819568  	11,327856  	-0,047949  
7,572000  	24,466534  	33,847005  	25,066121  	657,183579  	80,475255  	74,629827  	0,007580  	0,012055  	0,003961  	0,004267  	0,004486  	0,000000  	-0,000000  	28,790411  	26,362241  	27,455516  	27,462281  	31,549487  	29,733451  	31,248336  	30,965835  	34,817170  	33,701409  	36,844676  	67,565611  	27,571531  	26,790677  	29,902945  	73,778053  	0,222625  	0,112806  	-4423,873871  	18450,227324  	-0,027566  	-0,049999  	0,411395  	0,208457  	-5,109159  	17346,091499  	78063,284507  	11,322122  	-0,047951  
8,573000  	24,466964  	33,838503  	25,066121  	57,696365  	80,474567  	74,631698  	0,007582  	0,012066  	0,003962  	0,004270  	0,004481  	-0,000001  	-0,000000  	28,784199  	26,356014  	27,455997  	27,458786  	31,555908  	29,732150  	31,240047  	30,963728  	34,806733  	33,696177  	36,835356  	67,565491  	27,564339  	26,781932  	29,897256  	73,774926  	0,225516  	0,114271  	-4477,056592  	1767,469680  	-0,053846  	-0,050009  	0,407105  	0,206283  	-5,053664  	17369,393360  	78112,577999  	11,329272  	-0,047959  
9,577000  	24,495874  	33,834344  	25,064892  	956,927186  	80,470130  	74,633164  	0,007581  	0,012058  	0,003959  	0,004287  	0,004488  	-0,000000  	-0,000000  	28,774863  	26,348454  	27,439973  	27,450283  	31,547116  	29,717651  	31,233099  	30,956372  	34,805748  	33,682288  	36,830272  	67,556424  	27,556660  	26,776173  	29,897181  	73,773286  	0,238993  	0,121099  	-4727,854040  	22483,023351  	-0,022161  	-0,050003  	0,412774  	0,209156  	-5,118861  	17353,159593  	78074,801150  	11,323793  	-0,047954  
10,576000  	24,532373  	33,827812  	25,065015  	-242,047242  	80,471505  	74,633725  	0,007580  	0,012104  	0,003958  	0,004273  	0,004519  	0,000000  	-0,000000  	28,787141  	26,347270  	27,442267  	27,450220  	31,547201  	29,726905  	31,235516  	30,962549  	34,804150  	33,685008  	36,831027  	67,556449  	27,555655  	26,773988  	29,898602  	73,775745  	0,227480  	0,115266  	-4479,351037  	-27076,274326  	-0,102839  	-0,050000  	0,437706  	0,221789  	-5,428803  	17451,462772  	78070,903427  	11,323227  	-0,047951  
11,572000  	24,538641  	33,823838  	25,064830  	-242,047242  	80,476880  	74,631823  	0,007585  	0,012005  	0,003959  	0,004281  	0,004473  	0,000000  	-0,000000  	28,793349  	26,352718  	27,446212  	27,451459  	31,549535  	29,730572  	31,233730  	30,960232  	34,799209  	33,689725  	36,833848  	67,554355  	27,554056  	26,773437  	29,897888  	73,777439  	0,233917  	0,118528  	-4601,039295  	-27074,712027  	-0,102833  	-0,049997  	0,401008  	0,203194  	-4,979839  	17239,310286  	78168,734874  	11,337416  	-0,047949  
12,574000  	24,553634  	33,826118  	25,063847  	-242,047242  	80,475380  	74,632135  	0,007586  	0,012071  	0,003962  	0,004294  	0,004496  	-0,000001  	-0,000000  	28,785164  	26,354208  	27,445542  	27,456809  	31,548226  	29,728622  	31,235543  	30,959088  	34,800318  	33,687687  	36,829218  	67,556115  	27,558644  	26,775100  	29,897194  	73,779394  	0,245110  	0,124199  	-4814,584492  	-27079,577212  	-0,102852  	-0,050007  	0,419366  	0,212496  	-5,206206  	17380,304302  	78192,163582  	11,340815  	-0,047957  
13,575000  	24,555108  	33,836623  	25,062710  	1256,670793  	80,472193  	74,636813  	0,007581  	0,012062  	0,003968  	0,004287  	0,004483  	-0,000001  	-0,000000  	28,785768  	26,357108  	27,446609  	27,461070  	31,552452  	29,732983  	31,237531  	30,961087  	34,805034  	33,690066  	36,824955  	67,564014  	27,563742  	26,778156  	29,901454  	73,785470  	0,239177  	0,121192  	-4702,612730  	25538,167421  	-0,018530  	-0,050011  	0,408829  	0,207157  	-5,068561  	17360,145624  	78076,241613  	11,324001  	-0,047961  
14,575000  	24,560270  	33,846667  	25,061543  	1256,670793  	80,469693  	74,635441  	0,007585  	0,012083  	0,003961  	0,004284  	0,004477  	0,000001  	-0,000000  	28,788923  	26,358722  	27,443485  	27,458388  	31,548900  	29,732056  	31,231873  	30,955771  	34,806978  	33,689486  	36,829730  	67,555265  	27,562042  	26,779660  	29,899978  	73,783924  	0,237043  	0,120111  	-4663,106096  	25528,727332  	-0,018523  	-0,049990  	0,404066  	0,204743  	-5,008543  	17405,848767  	78178,154373  	11,338783  	-0,047943  
15,575000  	24,563035  	33,854985  	25,060805  	1256,670793  	80,468380  	74,635410  	0,007581  	0,012049  	0,003962  	0,004272  	0,004524  	0,000000  	-0,000000  	28,786527  	26,355086  	27,444743  	27,457133  	31,544294  	29,728359  	31,230263  	30,952493  	34,805713  	33,687021  	36,834213  	67,551650  	27,563572  	26,771613  	29,898025  	73,781752  	0,227246  	0,115147  	-4473,059453  	25531,701750  	-0,018525  	-0,049997  	0,441466  	0,223694  	-5,470935  	17334,150516  	78073,685497  	11,323631  	-0,047949  
16,573000  	24,553326  	33,861208  	25,059760  	1256,670793  	80,469130  	74,634162  	0,007590  	0,012016  	0,003963  	0,004300  	0,004451  	0,000001  	-0,000000  	28,786373  	26,356276  	27,453860  	27,459014  	31,550826  	29,731088  	31,235025  	30,958496  	34,805296  	33,691380  	36,831051  	67,564686  	27,573323  	26,763244  	29,901638  	73,782839  	0,249799  	0,126575  	-4925,428912  	25529,415198  	-0,018524  	-0,049992  	0,383837  	0,194493  	-4,758378  	17262,218099  	78276,790785  	11,353089  	-0,047944  
17,574000  	24,527765  	33,868109  	25,058439  	1256,670793  	80,465412  	74,627893  	0,007578  	0,012061  	0,003962  	0,004276  	0,004496  	0,000000  	-0,000000  	28,781014  	26,358286  	27,451543  	27,453799  	31,549234  	29,728986  	31,233613  	30,959078  	34,799431  	33,689215  	36,828958  	67,559810  	27,576376  	26,766382  	29,898953  	73,777241  	0,230038  	0,116562  	-4551,603660  	25532,430981  	-0,018526  	-0,049998  	0,418985  	0,212303  	-5,196378  	17358,643716  	78026,778655  	11,316827  	-0,047950  
18,573000  	24,530161  	33,871929  	25,058070  	1256,670793  	80,462350  	74,632135  	0,007582  	0,012041  	0,003960  	0,004278  	0,004464  	-0,000001  	-0,000000  	28,776743  	26,355185  	27,445488  	27,448111  	31,545843  	29,721045  	31,231333  	30,952822  	34,793563  	33,683707  	36,829368  	67,550396  	27,572592  	26,768564  	29,897823  	73,780508  	0,232017  	0,117565  	-4591,460642  	25537,016443  	-0,018529  	-0,050008  	0,393434  	0,199356  	-4,873385  	17315,307688  	78114,216173  	11,329509  	-0,047958  
19,575000  	24,532557  	33,873408  	25,057978  	1256,670793  	80,462600  	74,635784  	0,007584  	0,012076  	0,003958  	0,004257  	0,004455  	0,000000  	-0,000000  	28,779049  	26,351526  	27,449656  	27,452399  	31,546291  	29,722559  	31,234423  	30,956702  	34,806150  	33,685426  	36,821440  	67,548677  	27,574904  	26,766603  	29,897796  	73,779793  	0,215053  	0,108969  	-4255,334147  	25532,322511  	-0,018526  	-0,049998  	0,386724  	0,195956  	-4,787470  	17390,379750  	78150,051222  	11,334707  	-0,047950  
20,574000  	24,520207  	33,867246  	25,058408  	1256,670793  	80,465287  	74,621686  	0,007585  	0,012082  	0,003957  	0,004268  	0,004437  	0,000002  	-0,000000  	28,763631  	26,344807  	27,440584  	27,444929  	31,536043  	29,723302  	31,229222  	30,951953  	34,799005  	33,678933  	36,825925  	67,547114  	27,563192  	26,754661  	29,899225  	73,767921  	0,223856  	0,113429  	-4432,460251  	25521,856434  	-0,018518  	-0,049975  	0,372267  	0,188631  	-4,621771  	17404,090763  	78167,781627  	11,337278  	-0,047930  
21,576000  	24,516735  	33,861547  	25,058070  	1256,670793  	80,466318  	74,629515  	0,007578  	0,012028  	0,003962  	0,004249  	0,004431  	0,000000  	-0,000000  	28,774178  	26,351748  	27,444990  	27,448949  	31,545017  	29,725793  	31,234782  	30,967180  	34,797768  	33,683112  	36,833300  	67,553369  	27,571957  	26,753909  	29,898897  	73,774529  	0,208317  	0,105556  	-4123,808690  	25531,695013  	-0,018525  	-0,049997  	0,367389  	0,186158  	-4,555901  	17287,659985  	78018,453626  	11,315620  	-0,047948  
22,574000  	24,521466  	33,862409  	25,058193  	1256,670793  	80,462381  	74,625398  	0,007580  	0,012059  	0,003959  	0,004269  	0,004494  	-0,000001  	-0,000000  	28,774477  	26,349725  	27,442409  	27,453142  	31,545820  	29,728039  	31,239006  	30,960314  	34,809940  	33,686549  	36,834348  	67,559199  	27,586379  	26,746677  	29,897271  	73,772586  	0,224383  	0,113697  	-4440,009590  	25537,343412  	-0,018529  	-0,050009  	0,417267  	0,211432  	-5,174587  	17355,113560  	78060,686025  	11,321745  	-0,047959  
23,576000  	24,534370  	33,858527  	25,058193  	1256,670793  	80,462100  	74,631386  	0,007582  	0,012081  	0,003960  	0,004234  	0,004454  	0,000001  	-0,000000  	28,780149  	26,359751  	27,443173  	27,449598  	31,541987  	29,732109  	31,244198  	30,962176  	34,801649  	33,692168  	36,836991  	67,554834  	27,599150  	26,729725  	29,898939  	73,774077  	0,196516  	0,099576  	-3881,587892  	25525,674038  	-0,018521  	-0,049983  	0,385930  	0,195554  	-4,780842  	17402,866174  	78102,932546  	11,327873  	-0,047937  
24,576000  	24,563434  	33,856679  	25,058439  	57,696365  	80,466599  	74,627643  	0,007581  	0,012037  	0,003958  	0,004220  	0,004460  	0,000001  	-0,000000  	28,790834  	26,364028  	27,455701  	27,459880  	31,559602  	29,733929  	31,247959  	30,964607  	34,813999  	33,692579  	36,837474  	67,561363  	27,606706  	26,720523  	29,903429  	73,784629  	0,185079  	0,093781  	-3643,570209  	1767,311557  	-0,053828  	-0,049991  	0,390849  	0,198046  	-4,848609  	17308,291944  	78085,138591  	11,325292  	-0,047943  
25,572000  	24,546137  	33,856556  	25,058501  	-242,047242  	80,468380  	74,625616  	0,007586  	0,012043  	0,003965  	0,004280  	0,004455  	-0,000001  	-0,000000  	28,781220  	26,354789  	27,452709  	27,452377  	31,548790  	29,724921  	31,231260  	30,964634  	34,812344  	33,692469  	36,828720  	67,558780  	27,608672  	26,703358  	29,894223  	73,778503  	0,233270  	0,118200  	-4600,770425  	-27080,130467  	-0,102856  	-0,050008  	0,386661  	0,195924  	-4,799782  	17321,170294  	78183,647904  	11,339579  	-0,047958  
26,573000  	24,523463  	33,857726  	25,059730  	357,439972  	80,471630  	74,627550  	0,007583  	0,012054  	0,003960  	0,004224  	0,004455  	0,000002  	-0,000000  	28,789245  	26,357082  	27,447580  	27,455865  	31,553145  	29,737127  	31,245870  	30,965908  	34,808567  	33,690445  	36,836385  	67,562219  	27,601161  	26,668869  	29,902599  	73,780866  	0,188068  	0,095296  	-3718,761093  	12486,148713  	-0,036443  	-0,049970  	0,386458  	0,195821  	-4,798355  	17344,448102  	78118,572868  	11,330141  	-0,047926  
27,578000  	24,516458  	33,864473  	25,059453  	1256,670793  	80,472880  	74,623370  	0,007583  	0,012036  	0,003963  	0,004283  	0,004486  	-0,000001  	-0,000000  	28,781978  	26,365002  	27,442398  	27,455976  	31,550963  	29,726652  	31,236098  	30,966019  	34,805935  	33,678888  	36,830756  	67,543482  	27,591342  	26,655587  	29,901296  	73,772660  	0,235764  	0,119464  	-4668,747976  	25536,242407  	-0,018529  	-0,050007  	0,411010  	0,208262  	-5,107933  	17305,036277  	78118,608173  	11,330146  	-0,047957  
28,575000  	24,520575  	33,867677  	25,060252  	1256,670793  	80,467881  	74,631355  	0,007581  	0,012043  	0,003963  	0,004267  	0,004495  	0,000001  	-0,000000  	28,775039  	26,359596  	27,453176  	27,457033  	31,549816  	29,730741  	31,242383  	30,970155  	34,798429  	33,698168  	36,837850  	67,552381  	27,588778  	26,635334  	29,897415  	73,772530  	0,223015  	0,113003  	-4415,840062  	25524,932345  	-0,018520  	-0,049982  	0,418453  	0,212033  	-5,188900  	17319,176003  	78085,498707  	11,325344  	-0,047936  
29,573000  	24,499407  	33,862563  	25,059883  	-242,047242  	80,457819  	74,631293  	0,007583  	0,012059  	0,003962  	0,004273  	0,004474  	-0,000000  	-0,000000  	28,775396  	26,371462  	27,443308  	27,454170  	31,548137  	29,720994  	31,242867  	30,958779  	34,804480  	33,685979  	36,831380  	67,556411  	27,587563  	26,626176  	29,895936  	73,770005  	0,228185  	0,115623  	-4525,977096  	-27076,417658  	-0,102841  	-0,050000  	0,401468  	0,203427  	-4,969746  	17355,473650  	78124,843118  	11,331051  	-0,047952  
30,572000  	24,480297  	33,857388  	25,062157  	357,439972  	80,452257  	74,628236  	0,007577  	0,012065  	0,003965  	0,004270  	0,004464  	-0,000002  	-0,000000  	28,786631  	26,366284  	27,448869  	27,455515  	31,552008  	29,730088  	31,244555  	30,964009  	34,804408  	33,687041  	36,828974  	67,562827  	27,588265  	26,613890  	29,905912  	73,775682  	0,224999  	0,114009  	-4469,440452  	12496,916773  	-0,036475  	-0,050019  	0,393859  	0,199571  	-4,873456  	17368,490659  	78005,701291  	11,313770  	-0,047968  
31,573000  	24,488316  	33,853876  	25,062434  	357,439972  	80,454132  	74,632447  	0,007582  	0,012055  	0,003964  	0,004243  	0,004467  	-0,000001  	-0,000000  	28,798689  	26,367865  	27,452766  	27,456043  	31,560759  	29,738112  	31,243158  	30,966325  	34,804823  	33,696489  	36,843446  	67,566446  	27,587759  	26,615760  	29,908025  	73,781903  	0,203300  	0,103014  	-4033,439089  	12494,962592  	-0,036470  	-0,050010  	0,396454  	0,200886  	-4,903601  	17346,651089  	78114,392700  	11,329535  	-0,047960  
32,573000  	24,460543  	33,849686  	25,062925  	956,927186  	80,457069  	74,628205  	0,007584  	0,012069  	0,003963  	0,004310  	0,004490  	-0,000000  	-0,000000  	28,787719  	26,363800  	27,449812  	27,457912  	31,554038  	29,732847  	31,242743  	30,962169  	34,806533  	33,691978  	36,836428  	67,556977  	27,588964  	26,592314  	29,907647  	73,773122  	0,257701  	0,130579  	-5125,621537  	22483,897384  	-0,022162  	-0,050005  	0,414523  	0,210042  	-5,133416  	17375,922380  	78153,186347  	11,335161  	-0,047956  
33,575000  	24,461925  	33,841861  	25,064185  	57,696365  	80,456507  	74,616664  	0,007584  	0,012052  	0,003963  	0,004341  	0,004488  	-0,000001  	-0,000000  	28,777576  	26,359255  	27,447267  	27,457227  	31,553099  	29,729556  	31,244373  	30,965853  	34,812059  	33,693978  	36,834874  	67,554852  	27,591079  	26,581772  	29,900748  	73,774274  	0,282532  	0,143161  	-5613,999965  	1767,867671  	-0,053855  	-0,050019  	0,413053  	0,209297  	-5,124830  	17338,869889  	78155,721280  	11,335529  	-0,047967  
34,574000  	24,466042  	33,838410  	25,065414  	657,183579  	80,456444  	74,615230  	0,007582  	0,012028  	0,003961  	0,004260  	0,004489  	0,000000  	-0,000000  	28,787162  	26,363333  	27,459720  	27,459573  	31,557306  	29,736819  	31,244746  	30,969237  	34,817022  	33,699275  	36,833537  	67,562890  	27,596633  	26,572075  	29,905904  	73,776721  	0,217073  	0,109993  	-4309,829283  	18449,341304  	-0,027565  	-0,049996  	0,413824  	0,209688  	-5,135604  	17288,887404  	78095,652559  	11,326817  	-0,047948  
35,573000  	24,470927  	33,829260  	25,066244  	-242,047242  	80,454694  	74,613857  	0,007581  	0,012090  	0,003961  	0,004302  	0,004477  	-0,000001  	-0,000000  	28,794543  	26,364235  	27,465437  	27,465989  	31,554482  	29,738122  	31,244992  	30,968604  	34,815102  	33,697829  	36,841030  	67,569681  	27,601291  	26,568603  	29,910828  	73,783373  	0,251376  	0,127374  	-4983,409292  	-27083,683753  	-0,102866  	-0,050015  	0,403946  	0,204683  	-5,012696  	17422,277789  	78072,619272  	11,323476  	-0,047964  
36,576000  	24,483339  	33,820449  	25,066551  	-242,047242  	80,454757  	74,617912  	0,007586  	0,012053  	0,003959  	0,004253  	0,004487  	-0,000000  	-0,000000  	28,790681  	26,364271  	27,454549  	27,461287  	31,555373  	29,727282  	31,251852  	30,962964  	34,810798  	33,691251  	36,842510  	67,568555  	27,607718  	26,565381  	29,910922  	73,778381  	0,211505  	0,107171  	-4183,467445  	-27078,893756  	-0,102848  	-0,050005  	0,411604  	0,208563  	-5,104236  	17341,473291  	78185,836842  	11,339897  	-0,047956  
37,573000  	24,494092  	33,813733  	25,067934  	1256,670793  	80,453601  	74,621530  	0,007587  	0,012063  	0,003960  	0,004286  	0,004406  	0,000000  	-0,000000  	28,784234  	26,356482  	27,447412  	27,455973  	31,549172  	29,722246  	31,242201  	30,954227  	34,804287  	33,685474  	36,838072  	67,554605  	27,602772  	26,563388  	29,896399  	73,778404  	0,238517  	0,120858  	-4708,928208  	25532,740310  	-0,018526  	-0,049999  	0,347423  	0,176042  	-4,304814  	17363,632626  	78218,918065  	11,344695  	-0,047951  
38,575000  	24,500544  	33,811207  	25,068671  	1256,670793  	80,455038  	74,621842  	0,007585  	0,012067  	0,003961  	0,004244  	0,004467  	-0,000001  	-0,000000  	28,775250  	26,345857  	27,441770  	27,446318  	31,532970  	29,715383  	31,228560  	30,947264  	34,795430  	33,678749  	36,828194  	67,539230  	27,590580  	26,549287  	29,887816  	73,774103  	0,204633  	0,103689  	-4036,073431  	25541,182718  	-0,018532  	-0,050018  	0,395758  	0,200533  	-4,904660  	17370,988651  	78176,946926  	11,338608  	-0,047967  
39,578000  	24,469391  	33,815736  	25,068487  	1256,670793  	80,458444  	74,620158  	0,007583  	0,012037  	0,003961  	0,004275  	0,004495  	-0,000000  	-0,000000  	28,771794  	26,344466  	27,444510  	27,442291  	31,527006  	29,712022  	31,228533  	30,948150  	34,794539  	33,682625  	36,826059  	67,540904  	27,591169  	26,540212  	29,892435  	73,768813  	0,229756  	0,116419  	-4548,972754  	25533,741409  	-0,018527  	-0,050002  	0,418569  	0,212092  	-5,191883  	17308,173093  	78122,647118  	11,330732  	-0,047953  
40,573000  	24,413537  	33,821281  	25,069347  	57,696365  	80,455632  	74,619783  	0,007586  	0,012091  	0,003960  	0,004301  	0,004483  	-0,000002  	-0,000000  	28,780833  	26,357285  	27,449958  	27,449507  	31,540026  	29,720061  	31,239422  	30,954021  	34,806313  	33,691885  	36,837731  	67,551611  	27,604048  	26,544480  	29,900216  	73,771885  	0,250573  	0,126967  	-4993,726215  	1767,640700  	-0,053856  	-0,050021  	0,409017  	0,207252  	-5,071292  	17424,148276  	78182,998283  	11,339485  	-0,047969  
41,575000  	24,436057  	33,825533  	25,069685  	57,696365  	80,457757  	74,621904  	0,007590  	0,012057  	0,003967  	0,004284  	0,004525  	-0,000001  	-0,000000  	28,787554  	26,364297  	27,447569  	27,451849  	31,547906  	29,725811  	31,241404  	30,954465  	34,811527  	33,688896  	36,836665  	67,551889  	27,607703  	26,542077  	29,900604  	73,777955  	0,236602  	0,119888  	-4706,144130  	1767,204445  	-0,053844  	-0,050007  	0,441790  	0,223858  	-5,477638  	17349,606799  	78272,073975  	11,352405  	-0,047958  
42,575000  	24,463154  	33,820357  	25,069624  	657,183579  	80,460944  	74,618972  	0,007577  	0,012061  	0,003970  	0,004274  	0,004487  	-0,000000  	-0,000000  	28,779586  	26,358597  	27,445396  	27,448019  	31,539324  	29,725089  	31,233620  	30,949786  	34,802330  	33,680862  	36,827264  	67,549056  	27,602454  	26,537689  	29,897184  	73,779080  	0,228368  	0,115716  	-4526,742617  	18451,576799  	-0,027568  	-0,050004  	0,412261  	0,208896  	-5,116877  	17360,031725  	77993,690371  	11,312028  	-0,047955  
43,575000  	24,497625  	33,802427  	25,069624  	657,183579  	80,457538  	74,618411  	0,007585  	0,012060  	0,003965  	0,004272  	0,004495  	0,000000  	-0,000000  	28,772543  	26,358642  	27,447748  	27,445843  	31,538779  	29,725244  	31,233940  	30,951305  	34,799319  	33,680867  	36,829748  	67,555793  	27,602999  	26,542186  	29,899822  	73,772226  	0,226799  	0,114921  	-4470,449868  	18449,492035  	-0,027565  	-0,049997  	0,418112  	0,211860  	-5,186961  	17356,404649  	78159,964997  	11,336145  	-0,047949  
44,576000  	24,550899  	33,793678  	25,069685  	1256,670793  	80,456413  	74,624337  	0,007584  	0,012049  	0,003964  	0,004317  	0,004481  	-0,000000  	-0,000000  	28,778495  	26,361586  	27,454614  	27,445050  	31,548551  	29,725680  	31,237457  	30,958221  	34,806648  	33,685349  	36,830926  	67,560032  	27,609415  	26,544629  	29,903726  	73,769229  	0,263353  	0,133443  	-5156,347875  	25533,904506  	-0,018527  	-0,050002  	0,407288  	0,206376  	-5,046595  	17333,389303  	78148,144726  	11,334430  	-0,047953  
45,575000  	24,589365  	33,795188  	25,071191  	1256,670793  	80,457694  	74,623651  	0,007587  	0,012084  	0,003963  	0,004316  	0,004423  	0,000000  	-0,000000  	28,784971  	26,362750  	27,459226  	27,448346  	31,548983  	29,727768  	31,242129  	30,960368  	34,809995  	33,688708  	36,841490  	67,557593  	27,621322  	26,545547  	29,909757  	73,772958  	0,262780  	0,133152  	-5124,548972  	25531,228695  	-0,018525  	-0,049996  	0,361611  	0,183231  	-4,482131  	17409,504849  	78214,271865  	11,344021  	-0,047948  
46,574000  	24,566507  	33,808373  	25,071683  	1256,670793  	80,460256  	74,620220  	0,007582  	0,012055  	0,003959  	0,004276  	0,004457  	0,000001  	-0,000000  	28,787259  	26,354539  	27,455501  	27,444179  	31,546593  	29,729117  	31,236982  	30,957481  	34,805528  	33,688300  	36,840750  	67,559553  	27,619361  	26,545077  	29,903006  	73,774595  	0,230341  	0,116716  	-4509,544689  	25526,478530  	-0,018522  	-0,049986  	0,388081  	0,196643  	-4,815156  	17346,170733  	78106,844392  	11,328440  	-0,047939  
47,583000  	24,532496  	33,828059  	25,071959  	1256,670793  	80,462256  	74,627456  	0,007581  	0,012068  	0,003960  	0,004328  	0,004429  	-0,000001  	-0,000000  	28,771316  	26,351874  	27,444324  	27,433185  	31,535596  	29,722107  	31,236467  	30,947020  	34,797335  	33,681443  	36,831229  	67,556531  	27,618004  	26,541876  	29,899889  	73,774467  	0,272452  	0,138054  	-5364,987689  	25536,001605  	-0,018529  	-0,050007  	0,365705  	0,185305  	-4,533466  	17373,863005  	78085,802334  	11,325388  	-0,047957  
48,579000  	24,521989  	33,848084  	25,072512  	57,696365  	80,465131  	74,624275  	0,007583  	0,012078  	0,003959  	0,004286  	0,004446  	0,000001  	-0,000000  	28,770091  	26,358424  	27,445317  	27,438192  	31,538713  	29,720737  	31,237153  	30,956413  	34,795761  	33,678843  	36,820376  	67,552649  	27,619868  	26,546395  	29,907076  	73,771840  	0,238199  	0,120697  	-4705,903934  	1766,499968  	-0,053827  	-0,049990  	0,379436  	0,192263  	-4,708558  	17396,269946  	78133,019865  	11,332236  	-0,047943  
49,576000  	24,523033  	33,859821  	25,072328  	-242,047242  	80,468068  	74,627300  	0,007594  	0,012056  	0,003955  	0,004258  	0,004477  	-0,000000  	-0,000000  	28,763862  	26,351296  	27,439859  	27,433507  	31,540868  	29,706770  	31,234763  	30,948056  	34,796347  	33,674076  	36,812102  	67,549578  	27,610169  	26,536632  	29,897288  	73,758918  	0,215571  	0,109231  	-4263,732841  	-27078,896669  	-0,102846  	-0,050005  	0,403959  	0,204689  	-5,012802  	17349,070555  	78366,388998  	11,366084  	-0,047956  
50,573000  	24,504046  	33,859328  	25,073004  	-242,047242  	80,471005  	74,629733  	0,007581  	0,012084  	0,003960  	0,004303  	0,004480  	-0,000001  	-0,000000  	28,776317  	26,355947  	27,444463  	27,451164  	31,540081  	29,723770  	31,236219  	30,953544  	34,802528  	33,674425  	36,829194  	67,556755  	27,613052  	26,556432  	29,906813  	73,776131  	0,252410  	0,127898  	-5002,261880  	-27080,094432  	-0,102850  	-0,050007  	0,406351  	0,205901  	-5,042923  	17407,840935  	78075,627298  	11,323912  	-0,047958  
51,578000  	24,479068  	33,855262  	25,073926  	657,183579  	80,464506  	74,631854  	0,007583  	0,012094  	0,003953  	0,004251  	0,004460  	-0,000001  	-0,000000  	28,781301  	26,361735  	27,449786  	27,444070  	31,541954  	29,718802  	31,231827  	30,955014  	34,805154  	33,688557  	36,830953  	67,561733  	27,613271  	26,542822  	29,911302  	73,776504  	0,209649  	0,106231  	-4164,119742  	18454,723022  	-0,027573  	-0,050014  	0,390949  	0,198097  	-4,844617  	17430,961690  	78123,868688  	11,330909  	-0,047963  
52,579000  	24,495536  	33,852797  	25,074970  	57,696365  	80,467631  	74,632041  	0,007584  	0,012055  	0,003961  	0,004290  	0,004449  	-0,000000  	-0,000000  	28,761907  	26,340969  	27,437268  	27,443481  	31,538287  	29,709124  	31,230749  	30,936592  	34,784385  	33,666009  	36,809664  	67,549649  	27,605272  	26,513146  	29,899353  	73,762711  	0,241468  	0,122354  	-4786,434275  	1766,755910  	-0,053839  	-0,050003  	0,381652  	0,193386  	-4,731795  	17346,658163  	78147,855222  	11,334388  	-0,047954  
53,574000  	24,506996  	33,845681  	25,075401  	956,927186  	80,470255  	74,629234  	0,007584  	0,012039  	0,003961  	0,004279  	0,004436  	0,000000  	-0,000000  	28,770682  	26,340319  	27,432688  	27,437751  	31,535101  	29,706869  	31,223681  	30,944414  	34,787379  	33,667634  	36,814552  	67,545937  	27,603759  	26,504722  	29,902895  	73,766163  	0,232564  	0,117842  	-4600,768134  	22481,032028  	-0,022159  	-0,049999  	0,371379  	0,188180  	-4,608709  	17312,289015  	78139,749086  	11,333212  	-0,047951  
54,583000  	24,487149  	33,837917  	25,076261  	357,439972  	80,466318  	74,633102  	0,007581  	0,012046  	0,003958  	0,004254  	0,004465  	-0,000000  	-0,000000  	28,777505  	26,345609  	27,437832  	27,444662  	31,540445  	29,708174  	31,228727  	30,954385  	34,799289  	33,673626  	36,822426  	67,544208  	27,607062  	26,505596  	29,902885  	73,773027  	0,212053  	0,107449  	-4200,448174  	12492,098171  	-0,036463  	-0,050001  	0,394664  	0,199979  	-4,891137  	17327,422703  	78086,896803  	11,325547  	-0,047952  
55,575000  	24,487241  	33,835329  	25,076445  	1256,670793  	80,459788  	74,641554  	0,007583  	0,012086  	0,003962  	0,004260  	0,004473  	-0,000001  	-0,000000  	28,779870  	26,356393  	27,448349  	27,444455  	31,547345  	29,718970  	31,242195  	30,953463  	34,803919  	33,691274  	36,830995  	67,556758  	27,599213  	26,509716  	29,903152  	73,782426  	0,217287  	0,110101  	-4302,889204  	25537,424919  	-0,018530  	-0,050010  	0,400569  	0,202971  	-4,951574  	17413,424808  	78128,938553  	11,331644  	-0,047960  
56,574000  	24,482448  	33,837301  	25,076322  	1256,670793  	80,456850  	74,635378  	0,007584  	0,012071  	0,003963  	0,004260  	0,004491  	0,000000  	-0,000000  	28,761957  	26,351340  	27,445463  	27,448326  	31,542948  	29,715769  	31,235385  	30,948972  	34,788858  	33,682987  	36,836382  	67,559091  	27,586829  	26,494924  	29,897977  	73,762990  	0,217254  	0,110084  	-4305,340660  	25530,968919  	-0,018525  	-0,049996  	0,414776  	0,210170  	-5,130035  	17380,161398  	78146,591286  	11,334205  	-0,047948  
57,575000  	24,487333  	33,836007  	25,077736  	57,696365  	80,452476  	74,626520  	0,007584  	0,012039  	0,003964  	0,004267  	0,004513  	0,000000  	-0,000000  	28,773026  	26,345709  	27,449159  	27,451524  	31,539725  	29,714456  	31,229312  	30,952765  	34,789018  	33,675845  	36,825874  	67,548130  	27,579790  	26,496502  	29,898200  	73,759636  	0,223055  	0,113023  	-4417,380485  	1766,423194  	-0,053833  	-0,049997  	0,432721  	0,219263  	-5,356092  	17311,665755  	78140,617601  	11,333338  	-0,047949  
58,577000  	24,511051  	33,830339  	25,078228  	657,183579  	80,447226  	74,620470  	0,007584  	0,012044  	0,003962  	0,004287  	0,004491  	-0,000000  	-0,000000  	28,761464  	26,333937  	27,432897  	27,439019  	31,528845  	29,702207  	31,218842  	30,938980  	34,773600  	33,676993  	36,810398  	67,545443  	27,565653  	26,479844  	29,890999  	73,748574  	0,238835  	0,121019  	-4715,012453  	18450,216639  	-0,027567  	-0,050001  	0,414954  	0,210260  	-5,136882  	17322,435915  	78139,480765  	11,333174  	-0,047952  
59,572000  	24,534462  	33,825440  	25,078135  	-242,047242  	80,449164  	74,612048  	0,007575  	0,012051  	0,003962  	0,004290  	0,004455  	-0,000001  	-0,000000  	28,767362  	26,346455  	27,443566  	27,443180  	31,538510  	29,713142  	31,226395  	30,948467  	34,785859  	33,682667  	36,821083  	67,548855  	27,567604  	26,486689  	29,897511  	73,762993  	0,241293  	0,122265  	-4749,067176  	-27083,238604  	-0,102860  	-0,050014  	0,386524  	0,195854  	-4,793433  	17338,475134  	77958,942731  	11,306989  	-0,047963  
60,575000  	24,542204  	33,822914  	25,079057  	956,927186  	80,450914  	74,608680  	0,007581  	0,012088  	0,003962  	0,004374  	0,004454  	-0,000001  	-0,000000  	28,772087  	26,344390  	27,443688  	27,440761  	31,530378  	29,713012  	31,224505  	30,949359  	34,795798  	33,673948  	36,826744  	67,542804  	27,561220  	26,492958  	29,895109  	73,763014  	0,309827  	0,156992  	-6091,204957  	22485,158260  	-0,022164  	-0,050010  	0,385635  	0,195404  	-4,786601  	17416,727874  	78088,464366  	11,325774  	-0,047960  
61,576000  	24,565186  	33,830554  	25,079825  	57,696365  	80,450382  	74,618349  	0,007586  	0,012064  	0,003964  	0,004244  	0,004485  	-0,000000  	-0,000000  	28,770959  	26,344605  	27,444275  	27,435180  	31,533063  	29,717250  	31,226205  	30,947026  	34,794900  	33,672289  	36,828489  	67,550545  	27,563597  	26,503132  	29,893173  	73,759570  	0,204072  	0,103405  	-4005,420836  	1766,510641  	-0,053839  	-0,050004  	0,410423  	0,207965  	-5,085398  	17366,187214  	78193,554617  	11,341016  	-0,047955  
62,573000  	24,612992  	33,838379  	25,080624  	1256,670793  	80,449383  	74,622590  	0,007581  	0,012057  	0,003963  	0,004362  	0,004437  	0,000000  	-0,000000  	28,767403  	26,345169  	27,441086  	27,435305  	31,532967  	29,713697  	31,220822  	30,939884  	34,792099  	33,669412  	36,824540  	67,545738  	27,568524  	26,511675  	29,886407  	73,760495  	0,299971  	0,151998  	-5862,250212  	25531,769995  	-0,018526  	-0,049998  	0,372727  	0,188864  	-4,614172  	17350,664431  	78078,543530  	11,324335  	-0,047950  
63,587000  	24,621656  	33,846605  	25,080624  	1256,670793  	80,451945  	74,626177  	0,007575  	0,012066  	0,003963  	0,004264  	0,004451  	-0,000001  	-0,000000  	28,770171  	26,348193  	27,437468  	27,444003  	31,532389  	29,713707  	31,221658  	30,944728  	34,797336  	33,677647  	36,828883  	67,549839  	27,575003  	26,518962  	29,890916  	73,759277  	0,220783  	0,111872  	-4314,494764  	25537,291335  	-0,018530  	-0,050010  	0,383307  	0,194225  	-4,744316  	17370,022987  	77949,558538  	11,305628  	-0,047960  
64,574000  	24,581224  	33,855970  	25,081177  	1256,670793  	80,457007  	74,624680  	0,007581  	0,012035  	0,003965  	0,004291  	0,004441  	0,000001  	-0,000000  	28,773468  	26,350429  	27,441052  	27,446133  	31,536032  	29,714356  	31,233148  	30,951475  	34,797038  	33,680149  	36,827880  	67,551614  	27,581170  	26,526757  	29,893268  	73,756897  	0,242644  	0,122949  	-4767,300951  	25525,720297  	-0,018521  	-0,049985  	0,375747  	0,190394  	-4,655973  	17303,591672  	78085,435157  	11,325335  	-0,047939  
65,575000  	24,513601  	33,875379  	25,080686  	1256,670793  	80,458913  	74,619191  	0,007583  	0,012049  	0,003963  	0,004286  	0,004471  	-0,000000  	-0,000000  	28,770358  	26,350499  	27,446448  	27,443245  	31,536521  	29,720994  	31,238703  	30,951844  	34,799124  	33,676545  	36,827625  	67,552286  	27,570383  	26,527559  	29,896840  	73,764147  	0,238609  	0,120905  	-4732,036286  	25534,684797  	-0,018528  	-0,050005  	0,399201  	0,202278  	-4,952863  	17333,287431  	78130,167183  	11,331823  	-0,047955  
66,574000  	24,482202  	33,889428  	25,080993  	657,183579  	80,463475  	74,620750  	0,007582  	0,012055  	0,003962  	0,004263  	0,004456  	0,000000  	-0,000001  	28,769364  	26,349945  	27,446901  	27,439390  	31,535761  	29,723528  	31,231657  	30,948882  	34,798039  	33,673372  	36,828780  	67,549873  	27,560614  	26,527509  	29,896791  	73,768395  	0,219720  	0,111334  	-4378,597473  	18449,627554  	-0,027566  	-0,049999  	0,387713  	0,196457  	-4,812814  	17346,097866  	78110,092495  	11,328911  	-0,047951  
67,577000  	24,468377  	33,892200  	25,080348  	657,183579  	80,464662  	74,622871  	0,007579  	0,012050  	0,003957  	0,004289  	0,004460  	-0,000000  	-0,000000  	28,773981  	26,352269  	27,449005  	27,443187  	31,535180  	29,718984  	31,231339  	30,950474  	34,795100  	33,679599  	36,827626  	67,546240  	27,569776  	26,535418  	29,899173  	73,766582  	0,240474  	0,121850  	-4800,637687  	18451,077669  	-0,027568  	-0,050004  	0,390433  	0,197835  	-4,845798  	17335,499615  	78038,613047  	11,318544  	-0,047955  
68,576000  	24,505183  	33,881356  	25,080471  	57,696365  	80,462537  	74,618442  	0,007580  	0,012051  	0,003960  	0,004281  	0,004472  	-0,000000  	-0,000000  	28,772808  	26,352403  	27,447811  	27,447903  	31,538337  	29,718730  	31,234517  	30,954258  	34,794171  	33,685276  	36,827757  	67,545957  	27,571658  	26,539015  	29,902869  	73,768107  	0,233974  	0,118556  	-4647,257997  	1766,475648  	-0,053839  	-0,050004  	0,399983  	0,202675  	-4,966289  	17336,683880  	78062,832597  	11,322057  	-0,047955  
69,596000  	24,507303  	33,858928  	25,080686  	1256,670793  	80,454726  	74,615510  	0,007591  	0,012085  	0,003958  	0,004291  	0,004473  	-0,000000  	-0,000000  	28,764004  	26,344407  	27,438033  	27,442047  	31,541993  	29,711064  	31,226173  	30,951751  	34,787340  	33,671602  	36,823291  	67,542782  	27,561188  	26,533538  	29,890632  	73,764075  	0,242322  	0,122787  	-4800,469018  	25533,675138  	-0,018527  	-0,050002  	0,401224  	0,203303  	-4,977537  	17411,683783  	78298,489525  	11,356236  	-0,047954  
70,577000  	24,495690  	33,843894  	25,081239  	657,183579  	80,452663  	74,619066  	0,007583  	0,012062  	0,003964  	0,004278  	0,004460  	-0,000000  	-0,000001  	28,765854  	26,344271  	27,439702  	27,447913  	31,538888  	29,710487  	31,229340  	30,953854  	34,795579  	33,670992  	36,823925  	67,548134  	27,565510  	26,535284  	29,894209  	73,760115  	0,231577  	0,117342  	-4585,920672  	18449,999459  	-0,027566  	-0,050000  	0,390795  	0,198019  	-4,843492  	17360,170385  	78120,338141  	11,330397  	-0,047952  
71,574000  	24,479652  	33,842877  	25,081700  	-242,047242  	80,453163  	74,619222  	0,007582  	0,012053  	0,003961  	0,004234  	0,004518  	0,000001  	-0,000000  	28,778707  	26,354712  	27,444593  	27,452776  	31,547785  	29,729208  	31,238751  	30,956407  	34,807447  	33,683284  	36,830641  	67,545188  	27,573785  	26,540011  	29,903595  	73,762514  	0,195950  	0,099290  	-3886,649895  	-27073,368770  	-0,102821  	-0,049993  	0,436866  	0,221363  	-5,414812  	17341,834795  	78106,406604  	11,328377  	-0,047946  
72,572000  	24,441249  	33,844418  	25,081331  	956,927186  	80,459663  	74,624150  	0,007585  	0,012043  	0,003952  	0,004270  	0,004530  	-0,000001  	-0,000000  	28,772512  	26,352870  	27,438098  	27,444128  	31,546212  	29,720758  	31,233175  	30,949604  	34,806537  	33,680672  	36,829176  	67,539880  	27,570650  	26,528914  	29,889447  	73,758392  	0,225726  	0,114377  	-4496,359892  	22483,874551  	-0,022162  	-0,050007  	0,446269  	0,226128  	-5,532845  	17320,363098  	78170,394231  	11,337657  	-0,047957  
73,574000  	24,417162  	33,839519  	25,081730  	-242,047242  	80,460038  	74,619721  	0,007584  	0,012060  	0,003959  	0,004257  	0,004473  	-0,000000  	-0,000000  	28,767635  	26,337081  	27,442798  	27,442338  	31,530867  	29,714663  	31,224906  	30,941325  	34,798196  	33,682306  	36,823134  	67,534432  	27,576842  	26,515230  	29,880169  	73,757710  	0,214690  	0,108785  	-4285,255458  	-27077,705826  	-0,102838  	-0,050002  	0,401089  	0,203235  	-4,976803  	17356,500154  	78138,831144  	11,333079  	-0,047953  
74,574000  	24,396886  	33,832310  	25,081792  	-242,047242  	80,458413  	74,616352  	0,007580  	0,012038  	0,003962  	0,004256  	0,004520  	0,000002  	-0,000000  	28,775688  	26,354404  	27,443573  	27,446427  	31,535271  	29,720615  	31,231840  	30,949657  	34,801233  	33,683882  	36,828098  	67,547295  	27,576917  	26,518805  	29,893762  	73,759751  	0,213690  	0,108278  	-4271,215503  	-27067,089122  	-0,102797  	-0,049980  	0,438443  	0,222163  	-5,441921  	17310,379618  	78071,433009  	11,323304  	-0,047934  
75,574000  	24,378084  	33,818077  	25,082345  	657,183579  	80,462475  	74,611549  	0,007578  	0,012064  	0,003962  	0,004268  	0,004462  	-0,000000  	-0,000000  	28,771303  	26,344010  	27,447367  	27,439340  	31,536987  	29,722296  	31,223970  	30,947796  	34,793757  	33,674393  	36,832273  	67,550400  	27,573121  	26,520589  	29,892234  	73,759201  	0,223630  	0,113315  	-4472,066121  	18450,156448  	-0,027567  	-0,050001  	0,391946  	0,198602  	-4,872175  	17365,158587  	78015,516211  	11,315194  	-0,047952  
76,574000  	24,398238  	33,803475  	25,082161  	57,696365  	80,464412  	74,622466  	0,007587  	0,012025  	0,003964  	0,004328  	0,004463  	0,000000  	-0,000000  	28,775735  	26,345688  	27,439288  	27,436471  	31,535651  	29,716805  	31,230722  	30,946093  	34,805315  	33,685414  	36,829788  	67,543463  	27,573982  	26,519313  	29,885379  	73,750444  	0,272523  	0,138089  	-5429,726367  	1766,100864  	-0,053831  	-0,049995  	0,393151  	0,199212  	-4,879662  	17281,892884  	78204,216868  	11,342563  	-0,047947  
77,572000  	24,432862  	33,788749  	25,082622  	1256,670793  	80,465787  	74,614606  	0,007583  	0,012084  	0,003957  	0,004287  	0,004482  	-0,000000  	-0,000000  	28,781734  	26,352816  	27,447464  	27,444030  	31,535258  	29,715965  	31,233754  	30,951104  	34,804667  	33,685599  	36,829658  	67,543757  	27,570373  	26,510126  	29,895893  	73,768191  	0,239160  	0,121184  	-4740,006778  	25535,194195  	-0,018528  	-0,050006  	0,408076  	0,206775  	-5,072910  	17409,312423  	78135,872546  	11,332650  	-0,047956  
78,571000  	24,458484  	33,774208  	25,083789  	1256,670793  	80,467974  	74,611736  	0,007579  	0,012043  	0,003961  	0,004287  	0,004446  	-0,000001  	-0,000000  	28,771756  	26,349228  	27,444947  	27,441955  	31,535392  	29,714372  	31,233925  	30,959384  	34,793611  	33,679363  	36,829730  	67,544042  	27,563155  	26,511525  	29,903018  	73,767402  	0,239512  	0,121363  	-4726,593284  	25535,511600  	-0,018528  	-0,050007  	0,379115  	0,192100  	-4,716957  	17319,681827  	78030,972944  	11,317436  	-0,047957  
79,571000  	24,444567  	33,768385  	25,084342  	1256,670793  	80,465849  	74,611674  	0,007577  	0,012056  	0,003959  	0,004299  	0,004478  	0,000001  	-0,000000  	28,764873  	26,348089  	27,445624  	27,444934  	31,551884  	29,726785  	31,228434  	30,942169  	34,799083  	33,685756  	36,833367  	67,546269  	27,567054  	26,505524  	29,895658  	73,761572  	0,249228  	0,126286  	-4922,611198  	25524,426740  	-0,018520  	-0,049982  	0,404552  	0,204989  	-5,031672  	17349,078337  	77989,121844  	11,311366  	-0,047936  
80,572000  	24,411878  	33,769433  	25,083789  	1256,670793  	80,464350  	74,616852  	0,007584  	0,012064  	0,003955  	0,004287  	0,004445  	-0,000000  	-0,000000  	28,757002  	26,336661  	27,434784  	27,429675  	31,531623  	29,709221  	31,219701  	30,939512  	34,785905  	33,671246  	36,816468  	67,534194  	27,547136  	26,484701  	29,882176  	73,757669  	0,238937  	0,121071  	-4736,422922  	25533,161347  	-0,018527  	-0,050002  	0,378596  	0,191837  	-4,703470  	17365,929704  	78155,940173  	11,335561  	-0,047953  
81,573000  	24,371417  	33,779384  	25,084557  	956,927186  	80,463318  	74,616446  	0,007591  	0,012076  	0,003957  	0,004287  	0,004467  	-0,000001  	-0,000000  	28,764719  	26,345944  	27,437180  	27,432522  	31,538888  	29,716104  	31,225464  	30,933798  	34,787342  	33,673261  	36,820647  	67,550846  	27,561181  	26,482831  	29,890754  	73,760444  	0,239214  	0,121212  	-4767,488939  	22486,248439  	-0,022165  	-0,050013  	0,396103  	0,200708  	-4,920440  	17392,060642  	78288,992355  	11,354858  	-0,047963  
82,570000  	24,341003  	33,785545  	25,083328  	357,439972  	80,466506  	74,617631  	0,007589  	0,012067  	0,003956  	0,004241  	0,004444  	-0,000001  	-0,000000  	28,768273  	26,341139  	27,434656  	27,434711  	31,525535  	29,707291  	31,220369  	30,940641  	34,797031  	33,662681  	36,823647  	67,545407  	27,561631  	26,476223  	29,892322  	73,768739  	0,201537  	0,102120  	-4032,210247  	12495,309918  	-0,036473  	-0,050017  	0,377663  	0,191365  	-4,692987  	17372,539373  	78257,655223  	11,350313  	-0,047966  
83,572000  	24,356671  	33,782772  	25,083697  	1256,670793  	80,465568  	74,621935  	0,007579  	0,012034  	0,003959  	0,004337  	0,004454  	-0,000001  	-0,000000  	28,772864  	26,343418  	27,440659  	27,437677  	31,533633  	29,710197  	31,228610  	30,957249  	34,790076  	33,672163  	36,826403  	67,555475  	27,563555  	26,489758  	29,903913  	73,762421  	0,279610  	0,141680  	-5583,303904  	25538,203262  	-0,018530  	-0,050013  	0,385484  	0,195327  	-4,785883  	17301,484897  	78046,316700  	11,319661  	-0,047962  
84,575000  	24,396056  	33,767862  	25,082714  	1256,670793  	80,465443  	74,618068  	0,007580  	0,012066  	0,003959  	0,004255  	0,004450  	0,000001  	-0,000000  	28,757227  	26,344848  	27,433720  	27,422858  	31,523934  	29,707067  	31,215944  	30,940534  	34,786622  	33,663581  	36,816915  	67,548884  	27,554462  	26,501626  	29,894436  	73,753042  	0,212896  	0,107876  	-4226,661713  	25529,424947  	-0,018524  	-0,049993  	0,382370  	0,193750  	-4,750267  	17370,126982  	78070,423272  	11,323158  	-0,047946  
85,573000  	24,474153  	33,748546  	25,082130  	1256,670793  	80,468287  	74,610395  	0,007588  	0,012076  	0,003958  	0,004288  	0,004453  	0,000000  	-0,000000  	28,763685  	26,346898  	27,438532  	27,431297  	31,526114  	29,708090  	31,225506  	30,937908  	34,784791  	33,665290  	36,821883  	67,548243  	27,564333  	26,525437  	29,888204  	73,756492  	0,240069  	0,121645  	-4716,569668  	25530,006655  	-0,018524  	-0,049995  	0,384668  	0,194914  	-4,787401  	17391,728142  	78240,129589  	11,347771  	-0,047947  
86,574000  	24,505797  	33,738873  	25,082376  	1256,670793  	80,469724  	74,615947  	0,007587  	0,012046  	0,003958  	0,004218  	0,004484  	-0,000001  	-0,000000  	28,760347  	26,338963  	27,430715  	27,423203  	31,525204  	29,698747  	31,222671  	30,937108  	34,781854  	33,672892  	36,817272  	67,545276  	27,560014  	26,544441  	29,893703  	73,756534  	0,183550  	0,093006  	-3590,076003  	25539,740009  	-0,018531  	-0,050016  	0,409976  	0,207738  	-5,098786  	17326,916171  	78217,873023  	11,344543  	-0,047965  
87,574000  	24,516950  	33,741645  	25,081638  	357,439972  	80,466631  	74,620064  	0,007585  	0,012107  	0,003960  	0,004299  	0,004435  	0,000001  	-0,000000  	28,758658  	26,341731  	27,427356  	27,430808  	31,526461  	29,703583  	31,227251  	30,934851  	34,786060  	33,671319  	36,821631  	67,550262  	27,563178  	26,570732  	29,900239  	73,757489  	0,249108  	0,126225  	-4867,916160  	12489,391698  	-0,036455  	-0,049990  	0,371040  	0,188009  	-4,608866  	17458,396452  	78162,337524  	11,336489  	-0,047943  
88,572000  	24,513140  	33,758342  	25,080778  	956,927186  	80,468568  	74,631667  	0,007578  	0,012030  	0,003963  	0,004261  	0,004475  	0,000001  	-0,000000  	28,758596  	26,343512  	27,425766  	27,428703  	31,518642  	29,699846  	31,219778  	30,934148  	34,784774  	33,666298  	36,810315  	67,550619  	27,563323  	26,592619  	29,892376  	73,758633  	0,218228  	0,110578  	-4273,959741  	22475,087257  	-0,022154  	-0,049985  	0,402440  	0,203919  	-4,990656  	17292,911358  	78022,344288  	11,316184  	-0,047939  
89,573000  	24,537504  	33,784467  	25,080993  	1256,670793  	80,471568  	74,629577  	0,007585  	0,012077  	0,003963  	0,004276  	0,004464  	0,000001  	-0,000000  	28,766134  	26,347694  	27,432244  	27,429713  	31,522784  	29,704621  	31,219923  	30,938925  	34,786710  	33,674742  	36,818952  	67,551063  	27,569771  	26,619580  	29,898783  	73,761977  	0,230410  	0,116750  	-4513,381837  	25524,690436  	-0,018520  	-0,049983  	0,393550  	0,199415  	-4,884657  	17393,063093  	78165,310244  	11,336920  	-0,047937  
90,571000  	24,551821  	33,802828  	25,082099  	1256,670793  	80,473442  	74,636377  	0,007583  	0,012039  	0,003962  	0,004249  	0,004499  	0,000000  	-0,000000  	28,758986  	26,331794  	27,433972  	27,421038  	31,525605  	29,699170  	31,215892  	30,932004  	34,783068  	33,669962  	36,816331  	67,549135  	27,565784  	26,634621  	29,902004  	73,759853  	0,208365  	0,105580  	-4083,336840  	25529,751497  	-0,018524  	-0,049994  	0,421178  	0,213414  	-5,223173  	17312,177946  	78115,593086  	11,329709  	-0,047946  
91,573000  	24,571269  	33,816414  	25,082284  	1256,670793  	80,472161  	74,636439  	0,007581  	0,012063  	0,003961  	0,004297  	0,004445  	-0,000000  	-0,000000  	28,748902  	26,319891  	27,423129  	27,414357  	31,512301  	29,690060  	31,209180  	30,919904  	34,777137  	33,657756  	36,807694  	67,542197  	27,562152  	26,645127  	29,895212  	73,752249  	0,247489  	0,125405  	-4846,978641  	25534,522696  	-0,018528  	-0,050004  	0,378933  	0,192008  	-4,698197  	17363,324179  	78072,393317  	11,323443  	-0,047955  
92,572000  	24,567213  	33,827689  	25,081669  	1256,670793  	80,464912  	74,629577  	0,007581  	0,012016  	0,003962  	0,004250  	0,004475  	-0,000000  	-0,000000  	28,747790  	26,323973  	27,422121  	27,418541  	31,502494  	29,694681  	31,201136  	30,917468  	34,771638  	33,660268  	36,807431  	67,543551  	27,564648  	26,659895  	29,894065  	73,754891  	0,209381  	0,106095  	-4107,448019  	25534,787549  	-0,018528  	-0,050005  	0,402472  	0,203936  	-4,989708  	17261,283563  	78081,332661  	11,324740  	-0,047956  
93,574000  	24,595141  	33,839827  	25,082775  	1256,670793  	80,465412  	74,634505  	0,007581  	0,012070  	0,003962  	0,004314  	0,004529  	-0,000001  	-0,000000  	28,745173  	26,324824  	27,424810  	27,416516  	31,503485  	29,698321  	31,195838  	30,921001  	34,771337  	33,661330  	36,806764  	67,545467  	27,569277  	26,681312  	29,896094  	73,759168  	0,261067  	0,132284  	-5112,627486  	25537,077647  	-0,018529  	-0,050010  	0,445119  	0,225545  	-5,514251  	17379,209883  	78073,099427  	11,323546  	-0,047960  
94,572000  	24,650814  	33,850487  	25,083636  	1256,670793  	80,459538  	74,626209  	0,007580  	0,012070  	0,003961  	0,004298  	0,004451  	-0,000001  	-0,000000  	28,742892  	26,326518  	27,418079  	27,416560  	31,506977  	29,695914  	31,204073  	30,921137  	34,773831  	33,656817  	36,807810  	67,542051  	27,580714  	26,703997  	29,896247  	73,755523  	0,248345  	0,125838  	-4839,794225  	25537,055369  	-0,018529  	-0,050010  	0,383135  	0,194137  	-4,748340  	17378,099900  	78061,370951  	11,321845  	-0,047960  
95,574000  	24,665100  	33,858527  	25,084465  	1256,670793  	80,456288  	74,628174  	0,007579  	0,012063  	0,003961  	0,004316  	0,004502  	-0,000001  	-0,000000  	28,736860  	26,325089  	27,414137  	27,418473  	31,507480  	29,691072  	31,205210  	30,916465  	34,766296  	33,656000  	36,805163  	67,540340  	27,585720  	26,707791  	29,891461  	73,752846  	0,262647  	0,133085  	-5115,039873  	25535,444816  	-0,018528  	-0,050007  	0,424031  	0,214860  	-5,250488  	17364,207072  	78049,783697  	11,320164  	-0,047957  
96,573000  	24,656067  	33,868016  	25,084772  	1256,670793  	80,454601  	74,633725  	0,007584  	0,012083  	0,003958  	0,004366  	0,004454  	-0,000001  	-0,000000  	28,734732  	26,318460  	27,410123  	27,412839  	31,503114  	29,685934  	31,198832  	30,917602  	34,763992  	33,651937  	36,800572  	67,537767  	27,589556  	26,706914  	29,890073  	73,750991  	0,303567  	0,153820  	-5923,863325  	25537,598134  	-0,018530  	-0,050011  	0,386112  	0,195646  	-4,775025  	17406,725293  	78156,003723  	11,335570  	-0,047961  
97,574000  	24,620243  	33,893587  	25,085602  	57,696365  	80,448945  	74,638965  	0,007583  	0,012040  	0,003959  	0,004269  	0,004479  	-0,000001  	-0,000000  	28,752535  	26,322555  	27,414800  	27,420231  	31,508332  	29,691963  	31,206998  	30,928961  	34,770492  	33,654426  	36,797643  	67,547826  	27,604577  	26,705145  	29,902287  	73,755332  	0,224227  	0,113618  	-4404,784084  	1766,457534  	-0,053847  	-0,050012  	0,405918  	0,205682  	-5,010577  	17313,260338  	78124,758385  	11,331038  	-0,047962  
98,573000  	24,570102  	33,913057  	25,086585  	1256,670793  	80,452132  	74,636033  	0,007584  	0,012074  	0,003961  	0,004295  	0,004449  	0,000000  	-0,000000  	28,752319  	26,321840  	27,424165  	27,423024  	31,515846  	29,698581  	31,212671  	30,937910  	34,775734  	33,655226  	36,806944  	67,547175  	27,610755  	26,681926  	29,894952  	73,751781  	0,245893  	0,124596  	-4866,672377  	25530,892498  	-0,018525  	-0,049997  	0,381585  	0,193352  	-4,715166  	17387,460119  	78140,681151  	11,333348  	-0,047949  
99,572000  	24,485398  	33,923132  	25,087692  	1256,670793  	80,454694  	74,626926  	0,007574  	0,012049  	0,003960  	0,004283  	0,004482  	-0,000000  	-0,000000  	28,757401  	26,323644  	27,419831  	27,428576  	31,516288  	29,700305  	31,214146  	30,928251  	34,771869  	33,662631  	36,802354  	67,547533  	27,619250  	26,669425  	29,894704  	73,756391  	0,236041  	0,119604  	-4719,089626  	25534,953213  	-0,018528  	-0,050006  	0,408097  	0,206786  	-5,052885  	17332,325304  	77927,238422  	11,302390  	-0,047956  
100,573000  	24,449943  	33,922700  	25,088429  	1256,670793  	80,458756  	74,624680  	0,007588  	0,012071  	0,003963  	0,004285  	0,004460  	0,000001  	-0,000000  	28,764391  	26,331019  	27,419692  	27,432487  	31,520073  	29,700969  	31,217744  	30,934828  	34,778495  	33,658539  	36,811604  	67,550809  	27,628875  	26,665351  	29,903757  	73,754867  	0,237453  	0,120319  	-4764,947699  	25525,197416  	-0,018521  	-0,049984  	0,390459  	0,197849  	-4,839728  	17380,600722  	78234,812586  	11,347000  	-0,047938  
101,574000  	24,466165  	33,910408  	25,089658  	-242,047242  	80,465037  	74,623620  	0,007583  	0,012028  	0,003960  	0,004292  	0,004488  	-0,000000  	-0,000000  	28,753397  	26,326082  	27,428790  	27,424188  	31,525946  	29,707125  	31,216131  	30,934235  	34,784158  	33,657207  	36,813073  	67,551177  	27,628894  	26,665315  	29,899864  	73,749945  	0,243227  	0,123245  	-4866,127986  	-27078,911329  	-0,102839  	-0,050004  	0,412568  	0,209051  	-5,120196  	17286,946879  	78134,898115  	11,332509  	-0,047955  
102,576000  	24,472924  	33,884098  	25,091072  	357,439972  	80,464912  	74,626115  	0,007590  	0,012056  	0,003959  	0,004249  	0,004497  	-0,000000  	-0,000000  	28,752221  	26,333344  	27,422743  	27,418232  	31,514695  	29,693918  	31,209437  	30,930997  	34,774733  	33,656100  	36,805616  	67,538231  	27,627152  	26,652775  	29,890484  	73,752332  	0,208591  	0,105695  	-4158,565348  	12491,994025  	-0,036464  	-0,050003  	0,420268  	0,212953  	-5,213426  	17347,452625  	78276,127043  	11,352992  	-0,047954  
103,572000  	24,465643  	33,855724  	25,092270  	357,439972  	80,463006  	74,624680  	0,007582  	0,012055  	0,003957  	0,004300  	0,004530  	-0,000001  	-0,000000  	28,742442  	26,315442  	27,417196  	27,414222  	31,507344  	29,694545  	31,207972  	30,926817  	34,771637  	33,642477  	36,804556  	67,531861  	27,620440  	26,657720  	29,882097  	73,749466  	0,249370  	0,126357  	-4960,406103  	12493,172693  	-0,036467  	-0,050009  	0,445713  	0,225846  	-5,528621  	17346,629158  	78106,477215  	11,328387  	-0,047959  
104,573000  	24,464721  	33,838472  	25,093007  	956,927186  	80,462131  	74,627674  	0,007584  	0,012056  	0,003957  	0,004273  	0,004476  	0,000001  	-0,000000  	28,766329  	26,333192  	27,440837  	27,449352  	31,537717  	29,719513  	31,228281  	30,937168  	34,797529  	33,673447  	36,817815  	67,555411  	27,635582  	26,688351  	29,902276  	73,758176  	0,228126  	0,115593  	-4529,930966  	22476,325401  	-0,022155  	-0,049989  	0,403599  	0,204506  	-5,002920  	17348,851246  	78140,377524  	11,333304  	-0,047942  
105,576000  	24,454122  	33,830092  	25,094298  	1256,670793  	80,462350  	74,620688  	0,007583  	0,012068  	0,003964  	0,004258  	0,004497  	0,000001  	-0,000000  	28,761820  	26,330515  	27,429646  	27,425504  	31,521526  	29,696637  	31,222177  	30,935648  	34,778873  	33,663923  	36,819956  	67,538702  	27,631989  	26,685906  	29,904201  	73,744836  	0,215582  	0,109237  	-4281,864472  	25527,938973  	-0,018523  	-0,049991  	0,419811  	0,212722  	-5,210311  	17374,895169  	78134,672160  	11,332476  	-0,047944  
106,576000  	24,454122  	33,823561  	25,094851  	1256,670793  	80,467474  	74,616758  	0,007589  	0,012060  	0,003963  	0,004260  	0,004520  	0,000001  	-0,000000  	28,767336  	26,338919  	27,426146  	27,435259  	31,522440  	29,700605  	31,221957  	30,940967  	34,782637  	33,660224  	36,818491  	67,539199  	27,637801  	26,692165  	29,899421  	73,742111  	0,217099  	0,110006  	-4309,002250  	25527,947227  	-0,018523  	-0,049991  	0,438216  	0,222047  	-5,447153  	17357,402148  	78261,531763  	11,350876  	-0,047944  
107,575000  	24,468315  	33,819217  	25,095404  	1256,670793  	80,464881  	74,620438  	0,007582  	0,012046  	0,003963  	0,004307  	0,004509  	-0,000002  	-0,000000  	28,764344  	26,338160  	27,434964  	27,429385  	31,538367  	29,717199  	31,233290  	30,942526  	34,786440  	33,667508  	36,822184  	67,544965  	27,651355  	26,673334  	29,897931  	73,757826  	0,255370  	0,129398  	-5058,562259  	25541,701546  	-0,018533  	-0,050021  	0,429590  	0,217677  	-5,334214  	17326,645219  	78101,379105  	11,327647  	-0,047969  
108,577000  	24,479744  	33,813857  	25,096080  	57,696365  	80,461381  	74,622497  	0,007583  	0,012056  	0,003960  	0,004294  	0,004476  	-0,000000  	-0,000000  	28,758532  	26,331100  	27,427470  	27,426641  	31,534735  	29,710070  	31,228354  	30,949534  	34,791411  	33,669995  	36,829356  	67,543120  	27,649698  	26,672302  	29,895010  	73,748392  	0,244947  	0,124116  	-4843,384157  	1765,604537  	-0,053838  	-0,050004  	0,403215  	0,204312  	-5,001956  	17348,368061  	78132,384366  	11,332144  	-0,047955  
109,574000  	24,494276  	33,809790  	25,097985  	57,696365  	80,455882  	74,624462  	0,007577  	0,012041  	0,003963  	0,004338  	0,004497  	-0,000000  	-0,000000  	28,761316  	26,331955  	27,424730  	27,430336  	31,522818  	29,704915  	31,223564  	30,938849  	34,777775  	33,657498  	36,811655  	67,539556  	27,652939  	26,655123  	29,902101  	73,735406  	0,280289  	0,142025  	-5531,167252  	1765,391422  	-0,053835  	-0,050001  	0,419850  	0,212741  	-5,201662  	17315,952878  	77989,164210  	11,311372  	-0,047952  
110,585000  	24,514861  	33,809605  	25,097309  	657,183579  	80,451757  	74,622965  	0,007587  	0,012072  	0,003959  	0,004311  	0,004479  	-0,000000  	-0,000000  	28,765632  	26,332263  	27,438516  	27,442980  	31,535634  	29,714408  	31,222037  	30,946644  	34,787773  	33,665420  	36,823800  	67,540371  	27,665041  	26,650361  	29,902973  	73,749861  	0,258690  	0,131080  	-5093,542855  	18451,121290  	-0,027569  	-0,050006  	0,405454  	0,205447  	-5,021036  	17381,785694  	78203,920302  	11,342520  	-0,047956  
111,573000  	24,508040  	33,813025  	25,097125  	657,183579  	80,450570  	74,624805  	0,007582  	0,012062  	0,003963  	0,004338  	0,004432  	0,000001  	-0,000000  	28,755624  	26,329715  	27,433982  	27,430199  	31,519151  	29,703794  	31,215657  	30,936061  	34,780345  	33,666257  	36,820199  	67,537767  	27,657332  	26,633468  	29,898577  	73,744261  	0,280529  	0,142146  	-5529,640005  	18445,553446  	-0,027560  	-0,049989  	0,368464  	0,186703  	-4,560591  	17362,179532  	78104,012893  	11,328029  	-0,047942  
112,572000  	24,535384  	33,817584  	25,098538  	1256,670793  	80,448695  	74,616009  	0,007584  	0,012045  	0,003964  	0,004268  	0,004467  	-0,000001  	-0,000000  	28,760015  	26,340253  	27,438708  	27,439453  	31,529085  	29,709448  	31,219047  	30,942973  	34,787177  	33,671284  	36,826042  	67,547641  	27,659305  	26,640363  	29,909307  	73,746985  	0,223969  	0,113487  	-4403,929310  	25535,220533  	-0,018528  	-0,050007  	0,396389  	0,200853  	-4,912052  	17325,158168  	78149,895878  	11,334684  	-0,047957  
113,576000  	24,568596  	33,827843  	25,096326  	1256,670793  	80,451539  	74,618567  	0,007585  	0,012055  	0,003963  	0,004267  	0,004506  	0,000000  	-0,000000  	28,765292  	26,348306  	27,444777  	27,441500  	31,536635  	29,719708  	31,221634  	30,948160  	34,787830  	33,668432  	36,829247  	67,545306  	27,663255  	26,638974  	29,913231  	73,756099  	0,222630  	0,112808  	-4366,771864  	25529,378372  	-0,018524  	-0,049994  	0,426878  	0,216302  	-5,290136  	17346,814509  	78163,086000  	11,336597  	-0,047946  
114,577000  	24,566507  	33,832218  	25,096203  	657,183579  	80,455976  	74,614824  	0,007585  	0,012036  	0,003956  	0,004253  	0,004493  	-0,000000  	-0,000000  	28,770052  	26,341650  	27,439429  	27,442411  	31,525365  	29,712192  	31,223373  	30,945691  	34,785590  	33,667288  	36,827642  	67,545665  	27,656482  	26,624898  	29,909632  	73,760037  	0,211972  	0,107408  	-4160,635233  	18450,653575  	-0,027568  	-0,050004  	0,416500  	0,211044  	-5,168757  	17305,235777  	78168,756058  	11,337420  	-0,047955  
115,575000  	24,557751  	33,838872  	25,095558  	657,183579  	80,458069  	74,620314  	0,007586  	0,012053  	0,003959  	0,004263  	0,004441  	0,000001  	-0,000000  	28,774511  	26,342222  	27,435331  	27,448310  	31,530168  	29,713864  	31,223970  	30,946451  	34,789226  	33,675019  	36,821999  	67,546574  	27,658162  	26,615332  	29,912135  	73,769887  	0,219596  	0,111271  	-4317,439012  	18445,041806  	-0,027559  	-0,049987  	0,375180  	0,190106  	-4,653271  	17342,540827  	78196,470849  	11,341439  	-0,047941  
116,577000  	24,529055  	33,849532  	25,094513  	1256,670793  	80,462444  	74,620438  	0,007581  	0,012034  	0,003957  	0,004264  	0,004445  	0,000000  	-0,000000  	28,767752  	26,340866  	27,432556  	27,438870  	31,529036  	29,708673  	31,225115  	30,944273  	34,786617  	33,670705  	36,817775  	67,539956  	27,655669  	26,590929  	29,902373  	73,764241  	0,220630  	0,111795  	-4356,179977  	25531,402178  	-0,018525  	-0,049998  	0,378327  	0,191701  	-4,695721  	17301,327844  	78091,211131  	11,326173  	-0,047950  
117,572000  	24,516889  	33,857973  	25,092731  	956,927186  	80,465599  	74,619378  	0,007583  	0,012046  	0,003958  	0,004270  	0,004482  	-0,000001  	-0,000000  	28,761184  	26,335702  	27,427242  	27,427058  	31,519855  	29,699878  	31,219572  	30,936399  	34,779942  	33,659795  	36,813693  	67,531990  	27,651846  	26,549588  	29,895022  	73,757372  	0,225466  	0,114245  	-4461,506389  	22485,386655  	-0,022164  	-0,050012  	0,407782  	0,206626  	-5,064965  	17327,087373  	78116,595761  	11,329854  	-0,047961  
118,571000  	24,482417  	33,862224  	25,091010  	-242,047242  	80,467349  	74,627425  	0,007588  	0,012000  	0,003966  	0,004280  	0,004459  	-0,000001  	-0,000000  	28,758054  	26,329579  	27,425847  	27,427762  	31,523527  	29,698294  	31,211496  	30,931595  	34,777678  	33,657419  	36,814369  	67,532869  	27,658934  	26,519315  	29,898459  	73,757821  	0,233205  	0,118167  	-4633,777309  	-27081,729228  	-0,102849  	-0,050010  	0,390108  	0,197670  	-4,840221  	17226,780000  	78241,365280  	11,347951  	-0,047960  
119,576000  	24,463891  	33,859452  	25,089443  	657,183579  	80,468568  	74,621249  	0,007581  	0,012067  	0,003962  	0,004248  	0,004458  	0,000002  	-0,000000  	28,758380  	26,331537  	27,429320  	27,433324  	31,532324  	29,704949  	31,215233  	30,938580  	34,786201  	33,668248  	36,826556  	67,544393  	27,669975  	26,508044  	29,905536  	73,757737  	0,207699  	0,105243  	-4133,916744  	18440,763501  	-0,027553  	-0,049973  	0,389105  	0,197162  	-4,833889  	17371,077082  	78082,363581  	11,324889  	-0,047929  
120,575000  	24,484660  	33,853352  	25,088398  	57,696365  	80,469193  	74,624119  	0,007581  	0,012042  	0,003964  	0,004263  	0,004485  	0,000001  	-0,000000  	28,756886  	26,338609  	27,429389  	27,432933  	31,532044  	29,713523  	31,219410  	30,940024  	34,791644  	33,671354  	36,829403  	67,546901  	27,664894  	26,491847  	29,908199  	73,755893  	0,219901  	0,111425  	-4364,246793  	1765,699080  	-0,053829  	-0,049993  	0,410127  	0,207814  	-5,093090  	17318,012254  	78082,977896  	11,324978  	-0,047946  
121,573000  	24,529270  	33,841768  	25,085479  	57,696365  	80,468130  	74,618910  	0,007582  	0,012060  	0,003964  	0,004280  	0,004487  	0,000001  	-0,000000  	28,755605  	26,339177  	27,431707  	27,431219  	31,530722  	29,712629  	31,219921  	30,936280  	34,784376  	33,663639  	36,822088  	67,542166  	27,651884  	26,469867  	29,899845  	73,755109  	0,233174  	0,118151  	-4599,899962  	1765,841932  	-0,053828  	-0,049993  	0,412187  	0,208858  	-5,122303  	17357,664610  	78112,542694  	11,329266  	-0,047945  
122,572000  	24,511942  	33,831540  	25,085418  	1256,670793  	80,463194  	74,618661  	0,007584  	0,012062  	0,003963  	0,004266  	0,004463  	0,000001  	-0,000000  	28,768733  	26,343932  	27,438727  	27,441038  	31,537641  	29,715164  	31,229130  	30,949882  	34,787105  	33,672082  	36,831441  	67,548051  	27,659256  	26,460000  	29,900589  	73,765357  	0,222364  	0,112673  	-4389,997976  	25525,033214  	-0,018521  	-0,049984  	0,393129  	0,199201  	-4,881546  	17362,247446  	78138,887633  	11,333087  	-0,047938  
123,572000  	24,475904  	33,827196  	25,084588  	1256,670793  	80,458975  	74,628953  	0,007582  	0,012044  	0,003962  	0,004272  	0,004486  	-0,000000  	-0,000000  	28,764246  	26,337684  	27,434870  	27,444582  	31,535844  	29,714401  	31,221764  	30,949240  	34,788577  	33,668137  	36,832215  	67,539388  	27,658611  	26,441875  	29,904427  	73,762948  	0,227125  	0,115086  	-4499,243878  	25533,653371  	-0,018527  	-0,050003  	0,411461  	0,208491  	-5,096509  	17322,969329  	78113,347659  	11,329383  	-0,047954  
124,574000  	24,475720  	33,831694  	25,083359  	57,696365  	80,456663  	74,626146  	0,007583  	0,012048  	0,003964  	0,004316  	0,004454  	-0,000000  	-0,000000  	28,760333  	26,335309  	27,437701  	27,440122  	31,533327  	29,706358  	31,209715  	30,949144  	34,784367  	33,670018  	36,823161  	67,539367  	27,648318  	26,420458  	29,897132  	73,756483  	0,262782  	0,133154  	-5208,214714  	1766,222634  	-0,053836  	-0,050001  	0,385997  	0,195588  	-4,781506  	17332,058597  	78127,116790  	11,331380  	-0,047952  
125,573000  	24,486258  	33,834929  	25,081054  	1256,670793  	80,459413  	74,627550  	0,007580  	0,012010  	0,003962  	0,004231  	0,004496  	0,000000  	-0,000000  	28,764432  	26,342763  	27,431239  	27,439800  	31,536912  	29,706090  	31,220014  	30,944529  	34,784340  	33,671729  	36,825482  	67,543545  	27,644788  	26,392986  	29,890661  	73,756164  	0,193740  	0,098170  	-3836,836840  	25530,379927  	-0,018525  	-0,049995  	0,418774  	0,212196  	-5,188720  	17248,191565  	78061,879349  	11,321918  	-0,047947  
126,576000  	24,519193  	33,830431  	25,078965  	1256,670793  	80,460475  	74,628485  	0,007589  	0,012075  	0,003960  	0,004348  	0,004438  	-0,000000  	-0,000000  	28,763986  	26,340842  	27,437633  	27,436878  	31,528977  	29,710715  	31,217478  	30,945984  	34,782536  	33,667434  	36,830045  	67,534946  	27,655685  	26,377580  	29,905098  	73,751439  	0,288980  	0,146428  	-5700,039849  	25535,022897  	-0,018528  	-0,050005  	0,372946  	0,188975  	-4,621009  	17389,687160  	78255,762850  	11,350039  	-0,047956  
127,573000  	24,558734  	33,823037  	25,076292  	1256,670793  	80,460881  	74,621873  	0,007577  	0,012073  	0,003962  	0,004289  	0,004485  	0,000001  	-0,000000  	28,766606  	26,345679  	27,438739  	27,437653  	31,528154  	29,720911  	31,218056  	30,942821  	34,777574  	33,665898  	36,829667  	67,543417  	27,656740  	26,367192  	29,900145  	73,757728  	0,240441  	0,121833  	-4718,704685  	25529,719052  	-0,018524  	-0,049993  	0,410645  	0,208077  	-5,094228  	17384,993962  	78002,629715  	11,313325  	-0,047946  
128,574000  	24,571945  	33,821497  	25,074632  	57,696365  	80,463318  	74,624119  	0,007579  	0,012012  	0,003960  	0,004269  	0,004448  	-0,000001  	-0,000000  	28,767946  	26,342047  	27,428501  	27,435515  	31,531434  	29,717014  	31,221521  	30,942360  	34,789620  	33,665292  	36,830651  	67,539796  	27,652799  	26,354953  	29,905745  	73,761915  	0,224710  	0,113862  	-4402,948733  	1767,022224  	-0,053846  	-0,050011  	0,380807  	0,192958  	-4,724240  	17252,597539  	78049,176443  	11,320076  	-0,047960  
129,574000  	24,527457  	33,828798  	25,071652  	1256,670793  	80,462194  	74,622154  	0,007584  	0,012073  	0,003963  	0,004283  	0,004474  	0,000000  	-0,000001  	28,763196  	26,338014  	27,431909  	27,429939  	31,527713  	29,712075  	31,217855  	30,946408  	34,782382  	33,660956  	36,824993  	67,529306  	27,648712  	26,338965  	29,899435  	73,754915  	0,235628  	0,119395  	-4642,754027  	25530,854765  	-0,018525  	-0,049996  	0,401631  	0,203510  	-4,983292  	17384,293591  	78145,751016  	11,334083  	-0,047948  
130,573000  	24,508347  	33,844325  	25,069255  	1256,670793  	80,461944  	74,618286  	0,007585  	0,012054  	0,003961  	0,004303  	0,004455  	0,000000  	-0,000001  	28,771050  	26,337924  	27,436166  	27,442149  	31,538336  	29,710223  	31,221068  	30,951091  	34,783977  	33,671777  	36,826653  	67,536096  	27,653700  	26,333123  	29,896478  	73,756329  	0,252028  	0,127705  	-4984,393314  	25532,523602  	-0,018526  	-0,049999  	0,386951  	0,196071  	-4,804112  	17343,526299  	78164,667685  	11,336827  	-0,047951  
131,574000  	24,487886  	33,858558  	25,065199  	1256,670793  	80,459225  	74,613015  	0,007584  	0,012060  	0,003963  	0,004287  	0,004474  	-0,000001  	-0,000000  	28,769359  	26,346826  	27,436357  	27,444182  	31,532566  	29,715421  	31,224654  	30,951282  	34,788738  	33,672654  	36,833484  	67,544816  	27,649085  	26,319518  	29,898301  	73,757883  	0,239312  	0,121261  	-4750,498935  	25538,152187  	-0,018530  	-0,050011  	0,401643  	0,203516  	-4,988701  	17355,924293  	78145,292045  	11,334016  	-0,047961  
132,573000  	24,456610  	33,859051  	25,061696  	57,696365  	80,457725  	74,618941  	0,007578  	0,012062  	0,003961  	0,004275  	0,004469  	0,000000  	-0,000000  	28,770202  	26,350766  	27,452172  	27,447624  	31,539297  	29,707886  	31,234300  	30,948107  	34,802468  	33,671464  	36,838092  	67,545256  	27,655722  	26,303604  	29,911756  	73,761973  	0,229449  	0,116264  	-4570,161413  	1767,336924  	-0,053835  	-0,049997  	0,397464  	0,201398  	-4,930530  	17362,067048  	78018,291220  	11,315596  	-0,047949  
133,574000  	24,443461  	33,849439  	25,059730  	-242,047242  	80,460225  	74,623994  	0,007582  	0,012012  	0,003959  	0,004247  	0,004467  	-0,000001  	-0,000000  	28,767027  	26,344534  	27,445197  	27,439287  	31,538300  	29,706689  	31,225804  	30,945431  	34,792726  	33,678349  	36,832625  	67,539307  	27,659604  	26,299769  	29,903452  	73,759886  	0,206540  	0,104655  	-4115,408780  	-27085,245782  	-0,102875  	-0,050019  	0,396397  	0,200857  	-4,915147  	17252,421385  	78109,456996  	11,328819  	-0,047967  
134,574000  	24,453845  	33,840505  	25,058070  	357,439972  	80,461537  	74,623495  	0,007586  	0,012040  	0,003961  	0,004307  	0,004469  	-0,000000  	-0,000000  	28,774056  	26,342789  	27,442449  	27,448616  	31,534902  	29,711490  	31,224048  	30,943334  	34,797804  	33,670437  	36,831384  	67,541403  	27,658149  	26,296304  	29,910616  	73,759546  	0,255611  	0,129520  	-5082,696988  	12493,939163  	-0,036466  	-0,050005  	0,397651  	0,201493  	-4,932217  	17313,703200  	78194,649087  	11,341175  	-0,047955  
135,572000  	24,456241  	33,828213  	25,056688  	1256,670793  	80,456975  	74,621655  	0,007583  	0,012046  	0,003963  	0,004250  	0,004472  	-0,000000  	-0,000000  	28,759961  	26,336789  	27,441130  	27,440643  	31,542089  	29,709036  	31,223882  	30,946672  	34,788761  	33,670554  	36,834014  	67,538610  	27,664529  	26,287598  	29,894197  	73,743787  	0,209412  	0,106111  	-4157,539959  	25536,122623  	-0,018528  	-0,050006  	0,400163  	0,202765  	-4,961057  	17326,894948  	78127,801717  	11,331480  	-0,047957  
136,573000  	24,442785  	33,812809  	25,055704  	57,696365  	80,454538  	74,618037  	0,007574  	0,012040  	0,003966  	0,004289  	0,004499  	0,000001  	-0,000000  	28,761526  	26,342338  	27,437485  	27,439464  	31,542676  	29,710122  	31,217849  	30,947589  	34,783641  	33,669749  	36,834948  	67,542537  	27,658293  	26,271512  	29,892199  	73,742269  	0,240811  	0,122021  	-4779,941275  	1767,503464  	-0,053830  	-0,049992  	0,421473  	0,213563  	-5,226308  	17314,482098  	77928,777740  	11,302614  	-0,047944  
137,573000  	24,437009  	33,807849  	25,054199  	57,696365  	80,454132  	74,619097  	0,007586  	0,012074  	0,003963  	0,004261  	0,004527  	-0,000001  	-0,000000  	28,765184  	26,347432  	27,439964  	27,439807  	31,536379  	29,715181  	31,222369  	30,947491  	34,793270  	33,668809  	36,838256  	67,544942  	27,659301  	26,257639  	29,894362  	73,752924  	0,218444  	0,110687  	-4336,337092  	1768,056501  	-0,053844  	-0,050007  	0,443649  	0,224800  	-5,499915  	17387,418380  	78196,435544  	11,341434  	-0,047957  
138,575000  	24,460727  	33,806432  	25,053338  	657,183579  	80,451632  	74,610364  	0,007577  	0,012045  	0,003960  	0,004258  	0,004452  	-0,000000  	-0,000000  	28,767860  	26,343094  	27,447293  	27,442000  	31,533446  	29,711738  	31,226140  	30,948905  	34,792101  	33,671043  	36,830844  	67,546426  	27,658175  	26,257506  	29,898858  	73,753064  	0,215324  	0,109106  	-4262,944323  	18452,709624  	-0,027569  	-0,050005  	0,384186  	0,194670  	-4,767830  	17324,289424  	77993,549149  	11,312008  	-0,047956  
139,571000  	24,469391  	33,804029  	25,053062  	657,183579  	80,455163  	74,608898  	0,007587  	0,012031  	0,003961  	0,004254  	0,004557  	0,000001  	-0,000000  	28,771444  	26,344474  	27,442263  	27,436298  	31,530444  	29,711277  	31,220048  	30,947645  	34,792427  	33,676393  	36,828805  	67,541209  	27,659570  	26,239283  	29,895227  	73,757330  	0,212033  	0,107439  	-4192,802108  	18445,860177  	-0,027559  	-0,049984  	0,467381  	0,236825  	-5,805256  	17295,006106  	78219,419402  	11,344768  	-0,047938  
140,577000  	24,491020  	33,801873  	25,052140  	1256,670793  	80,457475  	74,616197  	0,007583  	0,012049  	0,003963  	0,004292  	0,004508  	-0,000001  	-0,000000  	28,766523  	26,339837  	27,435728  	27,434034  	31,528116  	29,704524  	31,212057  	30,939810  	34,788497  	33,664918  	36,826612  	67,528809  	27,655149  	26,210527  	29,886333  	73,751025  	0,243480  	0,123373  	-4802,370305  	25536,909494  	-0,018529  	-0,050008  	0,428958  	0,217356  	-5,323473  	17334,155468  	78121,729176  	11,330599  	-0,047958  
141,574000  	24,505306  	33,803598  	25,052724  	1256,670793  	80,461475  	74,613327  	0,007583  	0,012047  	0,003965  	0,004284  	0,004470  	0,000000  	-0,000000  	28,763657  	26,340696  	27,440945  	27,437263  	31,536862  	29,710781  	31,223781  	30,938790  	34,787672  	33,662528  	36,826760  	67,533872  	27,662091  	26,201083  	29,892131  	73,750661  	0,236993  	0,120086  	-4668,115452  	25532,490919  	-0,018526  	-0,049998  	0,398234  	0,201788  	-4,947999  	17329,690068  	78127,258012  	11,331401  	-0,047950  
142,573000  	24,503954  	33,807110  	25,051433  	657,183579  	80,465350  	74,620438  	0,007586  	0,012067  	0,003959  	0,004277  	0,004502  	0,000000  	-0,000000  	28,765338  	26,335710  	27,436871  	27,438804  	31,535224  	29,712039  	31,226669  	30,939518  	34,781871  	33,662247  	36,823648  	67,538860  	27,654423  	26,189332  	29,896713  	73,751206  	0,230814  	0,116955  	-4548,781773  	18449,669421  	-0,027565  	-0,049996  	0,424038  	0,214863  	-5,265690  	17371,201592  	78181,240071  	11,339230  	-0,047948  
143,584000  	24,540545  	33,811176  	25,050419  	657,183579  	80,465193  	74,621125  	0,007582  	0,012017  	0,003962  	0,004276  	0,004451  	0,000001  	-0,000000  	28,768296  	26,338186  	27,441401  	27,440103  	31,529613  	29,711568  	31,222173  	30,940822  	34,785436  	33,665103  	36,824211  	67,537013  	27,646018  	26,169072  	29,899300  	73,759670  	0,229928  	0,116506  	-4515,468637  	18448,145165  	-0,027562  	-0,049991  	0,383290  	0,194216  	-4,759000  	17265,166027  	78098,519363  	11,327233  	-0,047944  
144,577000  	24,558058  	33,816044  	25,050419  	57,696365  	80,465443  	74,621000  	0,007582  	0,012036  	0,003961  	0,004258  	0,004461  	-0,000001  	-0,000000  	28,764975  	26,336737  	27,444798  	27,435105  	31,529916  	29,707698  	31,221941  	30,937932  	34,788920  	33,668700  	36,822717  	67,535976  	27,648156  	26,140468  	29,897025  	73,759494  	0,215774  	0,109334  	-4231,729801  	1768,297099  	-0,053845  	-0,050007  	0,391118  	0,198183  	-4,856511  	17305,005857  	78102,360597  	11,327790  	-0,047958  
145,575000  	24,571484  	33,821897  	25,047285  	1256,670793  	80,462850  	74,621499  	0,007577  	0,012003  	0,003966  	0,004269  	0,004465  	-0,000001  	-0,000000  	28,760496  	26,329907  	27,433426  	27,432147  	31,527492  	29,696857  	31,218169  	30,936030  	34,780689  	33,664012  	36,816383  	67,532034  	27,639503  	26,114798  	29,889309  	73,751393  	0,224725  	0,113870  	-4403,671237  	25539,114305  	-0,018530  	-0,050012  	0,394681  	0,199988  	-4,898155  	17233,437775  	77996,889047  	11,312492  	-0,047962  
146,573000  	24,561222  	33,833050  	25,046302  	1256,670793  	80,460288  	74,620251  	0,007582  	0,012057  	0,003962  	0,004240  	0,004420  	0,000000  	-0,000000  	28,760860  	26,335727  	27,427467  	27,435245  	31,524765  	29,694116  	31,218422  	30,936916  	34,777257  	33,661162  	36,816718  	67,528851  	27,635994  	26,105551  	29,891575  	73,753564  	0,201211  	0,101955  	-3952,013637  	25532,439132  	-0,018526  	-0,049997  	0,358832  	0,181823  	-4,452247  	17349,726357  	78094,649883  	11,326671  	-0,047949  
147,573000  	24,541498  	33,846728  	25,045196  	1256,670793  	80,455569  	74,616976  	0,007580  	0,012063  	0,003962  	0,004324  	0,004483  	0,000000  	-0,000000  	28,754463  	26,331306  	27,427100  	27,432862  	31,523519  	29,693595  	31,219112  	30,932119  	34,776701  	33,658079  	36,817792  	67,531624  	27,645719  	26,090958  	29,893041  	73,748415  	0,268920  	0,136264  	-5300,932985  	25533,127548  	-0,018526  	-0,049999  	0,408565  	0,207023  	-5,068065  	17362,998754  	78054,493446  	11,320847  	-0,047950  
148,573000  	24,518701  	33,855662  	25,044212  	1256,670793  	80,454882  	74,619097  	0,007580  	0,012012  	0,003958  	0,004285  	0,004426  	0,000000  	-0,000000  	28,748928  	26,319492  	27,431532  	27,430519  	31,522212  	29,694384  	31,210948  	30,937637  	34,778031  	33,652235  	36,819465  	67,538999  	27,643357  	26,076573  	29,884365  	73,744686  	0,237382  	0,120283  	-4695,213219  	25533,475414  	-0,018526  	-0,049999  	0,363638  	0,184258  	-4,508602  	17254,113596  	78053,624931  	11,320721  	-0,047951  
149,577000  	24,463461  	33,863241  	25,042031  	1256,670793  	80,452757  	74,618037  	0,007584  	0,012033  	0,003957  	0,004307  	0,004459  	0,000000  	-0,000000  	28,756788  	26,321667  	27,434204  	27,424234  	31,523892  	29,701641  	31,213168  	30,942080  	34,781891  	33,658113  	36,823532  	67,543556  	27,640713  	26,085585  	29,886631  	73,749696  	0,255135  	0,129279  	-5080,328683  	25531,343456  	-0,018525  	-0,049995  	0,389692  	0,197460  	-4,830752  	17298,989735  	78146,951402  	11,334257  	-0,047947  
150,572000  	24,425058  	33,862748  	25,040433  	1256,670793  	80,449008  	74,614731  	0,007580  	0,012054  	0,003961  	0,004285  	0,004456  	-0,000000  	-0,000000  	28,758493  	26,328959  	27,431484  	27,427590  	31,520853  	29,701966  	31,216960  	30,929571  	34,773760  	33,663756  	36,817081  	67,535289  	27,642711  	26,094830  	29,897662  	73,748524  	0,237187  	0,120185  	-4742,008944  	25536,630771  	-0,018529  	-0,050006  	0,387582  	0,196391  	-4,804228  	17344,138240  	78053,780275  	11,320744  	-0,047957  
151,573000  	24,430680  	33,855632  	25,039511  	1256,670793  	80,448789  	74,607276  	0,007585  	0,012063  	0,003958  	0,004252  	0,004455  	-0,000000  	-0,000000  	28,752842  	26,331884  	27,430949  	27,430443  	31,515304  	29,701813  	31,218082  	30,932772  	34,768923  	33,659499  	36,822496  	67,544331  	27,642328  	26,109083  	29,898722  	73,746612  	0,210421  	0,106622  	-4201,189711  	25535,151690  	-0,018527  	-0,050003  	0,386502  	0,195843  	-4,796769  	17362,524765  	78162,803556  	11,336556  	-0,047954  
152,574000  	24,455996  	33,841398  	25,036807  	1256,670793  	80,451851  	74,607463  	0,007579  	0,012039  	0,003960  	0,004297  	0,004473  	0,000000  	-0,000000  	28,754341  	26,330253  	27,432410  	27,432751  	31,520134  	29,702686  	31,210038  	30,932393  	34,779772  	33,665418  	36,824842  	67,534488  	27,634571  	26,107988  	29,892267  	73,743543  	0,246984  	0,125149  	-4910,503425  	25531,361273  	-0,018525  	-0,049994  	0,400670  	0,203023  	-4,975060  	17310,833091  	78044,600854  	11,319412  	-0,047946  
153,573000  	24,482602  	33,819340  	25,033888  	1256,670793  	80,447570  	74,603939  	0,007580  	0,012039  	0,003962  	0,004293  	0,004458  	0,000001  	-0,000000  	28,767606  	26,340729  	27,444442  	27,442049  	31,535008  	29,714892  	31,225694  	30,941881  	34,790047  	33,677488  	36,836237  	67,543363  	27,640404  	26,125857  	29,904672  	73,761084  	0,243685  	0,123477  	-4819,791270  	25528,722146  	-0,018523  	-0,049988  	0,388847  	0,197032  	-4,827621  	17311,842616  	78057,360250  	11,321263  	-0,047941  
154,575000  	24,462202  	33,806525  	25,030262  	657,183579  	80,445758  	74,602130  	0,007585  	0,012050  	0,003960  	0,004286  	0,004487  	-0,000001  	-0,000000  	28,757987  	26,325467  	27,432392  	27,439995  	31,526581  	29,707229  	31,219308  	30,938715  	34,783803  	33,670030  	36,825189  	67,535617  	27,616246  	26,111084  	29,887142  	73,755635  	0,238060  	0,120627  	-4712,367333  	18455,263548  	-0,027572  	-0,050010  	0,412133  	0,208831  	-5,116724  	17335,716094  	78165,522077  	11,336950  	-0,047960  
155,573000  	24,410035  	33,802550  	25,028419  	657,183579  	80,444164  	74,609459  	0,007590  	0,012031  	0,003963  	0,004251  	0,004486  	0,000001  	-0,000000  	28,758716  	26,335900  	27,438988  	27,433842  	31,525843  	29,704577  	31,214660  	30,933765  	34,786980  	33,670977  	36,818089  	67,537004  	27,609499  	26,113074  	29,889639  	73,749244  	0,210266  	0,106543  	-4183,665150  	18449,304601  	-0,027563  	-0,049992  	0,411160  	0,208338  	-5,096852  	17294,227207  	78278,181821  	11,353290  	-0,047944  
156,574000  	24,378821  	33,809759  	25,026759  	1256,670793  	80,446852  	74,613327  	0,007579  	0,012034  	0,003962  	0,004267  	0,004444  	0,000000  	-0,000000  	28,765818  	26,336827  	27,434406  	27,438318  	31,528101  	29,706603  	31,209198  	30,941309  	34,787256  	33,673230  	36,827720  	67,544308  	27,588509  	26,108645  	29,892500  	73,752676  	0,222817  	0,112903  	-4451,528857  	25532,060849  	-0,018525  	-0,049995  	0,377613  	0,191339  	-4,680052  	17301,501169  	78038,132893  	11,318474  	-0,047947  
157,576000  	24,407393  	33,810345  	25,025377  	1256,670793  	80,446133  	74,613046  	0,007579  	0,012043  	0,003961  	0,004295  	0,004477  	-0,000001  	-0,000000  	28,765865  	26,327889  	27,435018  	27,438240  	31,523209  	29,705271  	31,217270  	30,936185  	34,784894  	33,667434  	36,822965  	67,542328  	27,575890  	26,105456  	29,893224  	73,759200  	0,245637  	0,124466  	-4892,868309  	25537,548850  	-0,018529  	-0,050007  	0,404008  	0,204714  	-5,006803  	17321,099549  	78037,843388  	11,318432  	-0,047957  
158,574000  	24,437193  	33,793770  	25,023779  	1256,670793  	80,446945  	74,611237  	0,007582  	0,012037  	0,003964  	0,004306  	0,004478  	-0,000001  	-0,000000  	28,754902  	26,331497  	27,426973  	27,420916  	31,519376  	29,709750  	31,216899  	30,937415  	34,783925  	33,670856  	36,822050  	67,527026  	27,555748  	26,089489  	29,877094  	73,745199  	0,254305  	0,128858  	-5040,540862  	25539,178814  	-0,018530  	-0,050010  	0,404530  	0,204979  	-5,015531  	17307,786828  	78109,308713  	11,328797  	-0,047960  
159,580000  	24,440327  	33,774270  	25,022120  	357,439972  	80,446164  	74,607276  	0,007589  	0,012056  	0,003963  	0,004261  	0,004475  	0,000000  	-0,000000  	28,752140  	26,332516  	27,425084  	27,429227  	31,514927  	29,702141  	31,214584  	30,945414  	34,780660  	33,657247  	36,815220  	67,525284  	27,527100  	26,091927  	29,877825  	73,741248  	0,218163  	0,110545  	-4313,714538  	12493,304310  	-0,036460  	-0,049994  	0,402670  	0,204036  	-4,995183  	17348,091449  	78263,671274  	11,351186  	-0,047946  
160,572000  	24,423553  	33,766629  	25,020645  	956,927186  	80,446352  	74,598980  	0,007582  	0,012029  	0,003963  	0,004366  	0,004478  	-0,000000  	-0,000000  	28,762228  	26,346552  	27,433530  	27,434542  	31,530566  	29,712752  	31,222429  	30,940528  	34,791515  	33,676057  	36,825544  	67,539844  	27,526782  	26,075848  	29,883477  	73,754614  	0,303405  	0,153737  	-6005,059572  	22484,428799  	-0,022162  	-0,050003  	0,404707  	0,205068  	-5,027743  	17289,134303  	78096,506951  	11,326941  	-0,047954  
161,573000  	24,458453  	33,771805  	25,018955  	1256,670793  	80,449289  	74,599198  	0,007585  	0,012039  	0,003961  	0,004276  	0,004458  	-0,000000  	-0,000000  	28,748126  	26,319758  	27,417890  	27,418544  	31,513694  	29,690313  	31,196693  	30,925518  	34,772309  	33,657654  	36,808467  	67,532458  	27,502542  	26,040348  	29,871524  	73,736011  	0,230257  	0,116673  	-4542,792519  	25535,483225  	-0,018527  	-0,050002  	0,388622  	0,196917  	-4,830155  	17312,163089  	78173,931839  	11,338170  	-0,047953  
162,577000  	24,485305  	33,775379  	25,017603  	1256,670793  	80,445227  	74,605374  	0,007583  	0,012061  	0,003961  	0,004361  	0,004496  	-0,000001  	-0,000000  	28,766918  	26,332216  	27,432104  	27,422853  	31,522828  	29,701777  	31,213643  	30,933006  	34,779623  	33,666001  	36,824260  	67,537822  	27,520867  	26,042660  	29,883048  	73,753937  	0,299400  	0,151708  	-5892,162076  	25539,418282  	-0,018530  	-0,050011  	0,418717  	0,212167  	-5,195104  	17358,229152  	78122,477652  	11,330707  	-0,047960  
163,574000  	24,496826  	33,772976  	25,015944  	1256,670793  	80,439884  	74,600633  	0,007585  	0,012051  	0,003959  	0,004258  	0,004413  	-0,000000  	-0,000000  	28,761918  	26,335516  	27,433259  	27,426069  	31,524923  	29,702339  	31,211535  	30,932716  	34,782388  	33,665392  	36,825717  	67,534254  	27,528107  	26,019171  	29,882613  	73,750300  	0,215484  	0,109187  	-4234,340776  	25535,937971  	-0,018528  	-0,050003  	0,353625  	0,179184  	-4,387042  	17338,255825  	78159,781408  	11,336118  	-0,047954  
164,577000  	24,470650  	33,780000  	25,015083  	1256,670793  	80,438759  	74,596765  	0,007578  	0,012044  	0,003960  	0,004266  	0,004470  	0,000000  	-0,000000  	28,753407  	26,323613  	27,422968  	27,418705  	31,517642  	29,696205  	31,204254  	30,926698  	34,776446  	33,661091  	36,817022  	67,528943  	27,527841  	25,993906  	29,875845  	73,742845  	0,221845  	0,112410  	-4374,948293  	25533,147924  	-0,018526  	-0,049997  	0,398557  	0,201952  	-4,946782  	17323,272116  	78019,053818  	11,315707  	-0,047949  
165,573000  	24,465735  	33,794448  	25,013025  	-242,047242  	80,443102  	74,596297  	0,007584  	0,012061  	0,003959  	0,004234  	0,004457  	-0,000000  	-0,000000  	28,757515  	26,332955  	27,436848  	27,423464  	31,522391  	29,697875  	31,209572  	30,935899  	34,778612  	33,663103  	36,822299  	67,538369  	27,542755  	26,000730  	29,886520  	73,752648  	0,196186  	0,099409  	-3876,984319  	-27077,592276  	-0,102864  	-0,050005  	0,388186  	0,196697  	-4,822028  	17359,546417  	78146,683080  	11,334218  	-0,047956  
166,577000  	24,466288  	33,802088  	25,012041  	357,439972  	80,446789  	74,601350  	0,007578  	0,012021  	0,003958  	0,004279  	0,004491  	-0,000001  	-0,000000  	28,749383  	26,327974  	27,425635  	27,424328  	31,518998  	29,692395  	31,213273  	30,933238  	34,781737  	33,663450  	36,813482  	67,535446  	27,549766  	26,000746  	29,875221  	73,752234  	0,232741  	0,117932  	-4602,872968  	12498,592421  	-0,036475  	-0,050015  	0,415013  	0,210290  	-5,154068  	17272,949350  	78026,277317  	11,316755  	-0,047965  
167,573000  	24,436610  	33,801719  	25,012226  	1256,670793  	80,442914  	74,600414  	0,007591  	0,012055  	0,003961  	0,004288  	0,004469  	0,000000  	-0,000000  	28,744377  	26,313724  	27,415709  	27,420311  	31,509522  	29,688442  	31,209133  	30,918912  	34,774814  	33,655558  	36,805214  	67,525127  	27,542199  	25,992449  	29,869848  	73,740848  	0,239951  	0,121585  	-4760,358243  	25534,059549  	-0,018526  	-0,049998  	0,397622  	0,201478  	-4,935610  	17346,928408  	78297,776355  	11,356132  	-0,047950  
168,576000  	24,405457  	33,801226  	25,011242  	1256,670793  	80,439540  	74,606840  	0,007577  	0,012039  	0,003957  	0,004307  	0,004426  	-0,000001  	-0,000000  	28,745463  	26,321337  	27,422581  	27,419083  	31,505547  	29,688020  	31,204621  	30,921211  	34,767524  	33,652287  	36,805375  	67,522526  	27,535550  	26,001055  	29,872140  	73,737856  	0,255068  	0,129245  	-5076,850479  	25539,635680  	-0,018530  	-0,050011  	0,363595  	0,184236  	-4,505676  	17310,769421  	77995,476828  	11,312288  	-0,047960  
169,575000  	24,403583  	33,801719  	25,010536  	57,696365  	80,442352  	74,606122  	0,007579  	0,012035  	0,003965  	0,004274  	0,004462  	-0,000000  	-0,000000  	28,747667  	26,323195  	27,425529  	27,421423  	31,507612  	29,687825  	31,201848  	30,922332  	34,768092  	33,647787  	36,808442  	67,526997  	27,538773  	26,020938  	29,873657  	73,742046  	0,228756  	0,115913  	-4554,288019  	1770,402565  	-0,053844  	-0,050002  	0,392330  	0,198796  	-4,864693  	17302,165461  	78036,127542  	11,318183  	-0,047953  
170,573000  	24,426011  	33,796112  	25,009737  	657,183579  	80,440727  	74,605249  	0,007584  	0,012038  	0,003963  	0,004318  	0,004531  	0,000000  	-0,000000  	28,746288  	26,322035  	27,422671  	27,421659  	31,511148  	29,690415  	31,200473  	30,925870  	34,773592  	33,648131  	36,812223  	67,532213  	27,545237  	26,038473  	29,876801  	73,747902  	0,264231  	0,133888  	-5244,850504  	18452,847246  	-0,027568  	-0,050000  	0,447094  	0,226546  	-5,543030  	17308,700848  	78138,125035  	11,332977  	-0,047951  
171,574000  	24,464537  	33,783450  	25,008815  	657,183579  	80,437790  	74,592835  	0,007585  	0,012030  	0,003966  	0,004266  	0,004531  	-0,000000  	-0,000000  	28,742937  	26,325448  	27,425463  	27,419194  	31,515561  	29,694975  	31,203513  	30,930827  	34,773978  	33,653029  	36,813911  	67,536109  	27,548367  	26,047073  	29,878243  	73,752279  	0,221744  	0,112359  	-4377,451552  	18454,583669  	-0,027570  	-0,050005  	0,446661  	0,226327  	-5,546646  	17292,683560  	78174,899209  	11,338311  	-0,047956  
172,572000  	24,477624  	33,773838  	25,007156  	1256,670793  	80,434915  	74,588781  	0,007587  	0,012059  	0,003959  	0,004292  	0,004460  	0,000000  	-0,000000  	28,744734  	26,320578  	27,429136  	27,417399  	31,517533  	29,692564  	31,204260  	30,926561  	34,771008  	33,650330  	36,808367  	67,533999  	27,546162  	26,049049  	29,875914  	73,750833  	0,242909  	0,123084  	-4783,579891  	25534,261257  	-0,018526  	-0,049999  	0,390665  	0,197953  	-4,852258  	17355,257171  	78212,513653  	11,343766  	-0,047950  
173,573000  	24,527089  	33,770727  	25,005804  	1256,670793  	80,438852  	74,594488  	0,007578  	0,012042  	0,003960  	0,004241  	0,004489  	0,000001  	-0,000000  	28,749596  	26,322327  	27,426540  	27,418973  	31,517835  	29,690367  	31,201874  	30,929395  	34,771803  	33,654612  	36,807490  	67,530881  	27,542543  	26,057951  	29,877235  	73,752953  	0,201797  	0,102252  	-3951,477291  	25527,025487  	-0,018521  	-0,049983  	0,413886  	0,209719  	-5,139120  	17318,695647  	78024,279027  	11,316465  	-0,047936  
174,573000  	24,568012  	33,777628  	25,003960  	657,183579  	80,449226  	74,593865  	0,007582  	0,012064  	0,003962  	0,004293  	0,004469  	0,000000  	-0,000000  	28,748535  	26,320896  	27,422369  	27,420989  	31,517789  	29,693643  	31,201696  	30,927221  	34,768392  	33,658666  	36,814756  	67,535219  	27,543909  	26,068315  	29,881537  	73,756214  	0,244071  	0,123672  	-4761,660114  	18452,241504  	-0,027566  	-0,049997  	0,398051  	0,201695  	-4,951798  	17365,488257  	78108,454321  	11,328674  	-0,047949  
175,577000  	24,573082  	33,789273  	25,003499  	657,183579  	80,450976  	74,594707  	0,007585  	0,012058  	0,003965  	0,004241  	0,004494  	0,000000  	-0,000000  	28,736031  	26,308086  	27,415352  	27,413069  	31,507700  	29,684365  	31,192496  	30,918227  	34,764157  	33,646785  	36,804934  	67,530809  	27,542129  	26,068062  	29,871660  	73,741872  	0,201834  	0,102271  	-3940,454686  	18453,005673  	-0,027568  	-0,050000  	0,417658  	0,211631  	-5,196529  	17351,528930  	78177,144637  	11,338636  	-0,047951  
176,575000  	24,517718  	33,803074  	25,003806  	1256,670793  	80,451164  	74,604750  	0,007588  	0,012026  	0,003960  	0,004304  	0,004418  	0,000001  	-0,000000  	28,734375  	26,307145  	27,418238  	27,408940  	31,507548  	29,688883  	31,193210  	30,911139  	34,766913  	33,650807  	36,808692  	67,531112  	27,539513  	26,078162  	29,870207  	73,737234  	0,253169  	0,128283  	-4979,803984  	25529,565973  	-0,018523  	-0,049988  	0,357654  	0,181226  	-4,442466  	17282,929293  	78226,205113  	11,345752  	-0,047941  
177,576000  	24,430250  	33,826210  	25,002639  	1256,670793  	80,448758  	74,612766  	0,007581  	0,012017  	0,003961  	0,004328  	0,004510  	-0,000000  	-0,000000  	28,740780  	26,314128  	27,428543  	27,406910  	31,504425  	29,679382  	31,195775  	30,919914  	34,775264  	33,644753  	36,801205  	67,537851  	27,543723  	26,096932  	29,871460  	73,745284  	0,272715  	0,138187  	-5428,183963  	25536,479519  	-0,018528  	-0,050003  	0,430306  	0,218039  	-5,335374  	17263,778725  	78078,430552  	11,324319  	-0,047954  
178,573000  	24,407454  	33,842107  	25,002332  	1256,670793  	80,440946  	74,609023  	0,007579  	0,012056  	0,003965  	0,004318  	0,004440  	-0,000001  	-0,000000  	28,747207  	26,319278  	27,424463  	27,415902  	31,508467  	29,686134  	31,193528  	30,925720  	34,764264  	33,647651  	36,803001  	67,526394  	27,555587  	26,106157  	29,877934  	73,749839  	0,264039  	0,133791  	-5277,154748  	25538,724038  	-0,018530  	-0,050008  	0,374621  	0,189823  	-4,641684  	17347,287083  	78042,461343  	11,319102  	-0,047958  
179,574000  	24,425519  	33,839519  	25,003622  	1256,670793  	80,439009  	74,607463  	0,007580  	0,012037  	0,003966  	0,004278  	0,004475  	-0,000001  	-0,000000  	28,744953  	26,313122  	27,411963  	27,416962  	31,507322  	29,693334  	31,197526  	30,914830  	34,757199  	33,650160  	36,804372  	67,527175  	27,553545  	26,100988  	29,875566  	73,745357  	0,231523  	0,117315  	-4617,151802  	25541,159853  	-0,018531  	-0,050013  	0,402602  	0,204001  	-4,988058  	17308,351370  	78070,366784  	11,323149  	-0,047963  
180,574000  	24,448929  	33,822267  	25,002086  	57,696365  	80,436384  	74,602722  	0,007585  	0,012036  	0,003960  	0,004257  	0,004461  	0,000001  	-0,000000  	28,736222  	26,304665  	27,417900  	27,409790  	31,503534  	29,684702  	31,193878  	30,912471  	34,753824  	33,639644  	36,804011  	67,528165  	27,552721  	26,100900  	29,866809  	73,740044  	0,214727  	0,108804  	-4263,692412  	1770,425407  	-0,053831  	-0,049988  	0,391461  	0,198356  	-4,851787  	17304,870027  	78174,666193  	11,338277  	-0,047941  
181,573000  	24,475996  	33,797929  	25,003315  	956,927186  	80,436415  	74,600851  	0,007578  	0,012048  	0,003957  	0,004268  	0,004460  	-0,000000  	-0,000000  	28,745457  	26,319442  	27,422899  	27,424547  	31,515199  	29,694600  	31,205064  	30,918097  	34,768197  	33,654965  	36,812340  	67,535365  	27,567373  	26,110669  	29,883210  	73,754140  	0,223443  	0,113220  	-4412,407670  	22484,703460  	-0,022161  	-0,050002  	0,390578  	0,197909  	-4,842412  	17330,760434  	78019,654011  	11,315794  	-0,047953  
182,576000  	24,474337  	33,787024  	25,002823  	357,439972  	80,441040  	74,596110  	0,007582  	0,012031  	0,003954  	0,004253  	0,004438  	-0,000002  	-0,000000  	28,739361  	26,308466  	27,409125  	27,406133  	31,499937  	29,679250  	31,185553  	30,919782  	34,763293  	33,642150  	36,809188  	67,518728  	27,561763  	26,119651  	29,879817  	73,740093  	0,211404  	0,107120  	-4170,529610  	12500,183198  	-0,036478  	-0,050020  	0,373269  	0,189138  	-4,635237  	17293,295501  	78103,801060  	11,327999  	-0,047969  
183,573000  	24,492218  	33,786931  	25,002455  	1256,670793  	80,444321  	74,596079  	0,007581  	0,012070  	0,003956  	0,004269  	0,004462  	-0,000000  	-0,000000  	28,745471  	26,312747  	27,413557  	27,406192  	31,505040  	29,680762  	31,193254  	30,924658  	34,754667  	33,644725  	36,804949  	67,528449  	27,553115  	26,132880  	29,871877  	73,728998  	0,224209  	0,113608  	-4414,605981  	25536,784682  	-0,018528  	-0,050004  	0,392354  	0,198809  	-4,875001  	17378,783293  	78085,272752  	11,325311  	-0,047955  
184,572000  	24,486872  	33,792600  	25,003561  	1256,670793  	80,444008  	74,604750  	0,007582  	0,012055  	0,003961  	0,004210  	0,004463  	0,000002  	-0,000000  	28,746633  	26,325855  	27,415863  	27,408278  	31,504476  	29,691844  	31,195075  	30,926296  	34,762443  	33,645920  	36,803081  	67,526186  	27,565810  	26,151564  	29,863164  	73,745209  	0,176594  	0,089482  	-3481,210882  	25524,689702  	-0,018519  	-0,049977  	0,393060  	0,199166  	-4,876272  	17346,004483  	78112,097845  	11,329202  	-0,047932  
185,575000  	24,508993  	33,799809  	25,004913  	57,696365  	80,442071  	74,602223  	0,007584  	0,012056  	0,003956  	0,004297  	0,004497  	-0,000001  	-0,000000  	28,737418  	26,320507  	27,410908  	27,417711  	31,507014  	29,691078  	31,197090  	30,918376  	34,753125  	33,650420  	36,800926  	67,534353  	27,567631  	26,174197  	29,871060  	73,738495  	0,247375  	0,125347  	-4868,702302  	1770,865227  	-0,053849  	-0,050007  	0,420075  	0,212855  	-5,211945  	17347,426450  	78139,396032  	11,333161  	-0,047957  
186,572000  	24,529884  	33,804553  	25,004605  	1256,670793  	80,441633  	74,600414  	0,007576  	0,012026  	0,003958  	0,004242  	0,004466  	0,000000  	-0,000000  	28,735024  	26,308468  	27,411468  	27,405346  	31,504601  	29,679280  	31,188207  	30,912217  	34,760318  	33,641935  	36,806632  	67,521341  	27,550597  	26,192992  	29,876693  	73,735160  	0,202433  	0,102574  	-3977,248218  	25534,121390  	-0,018526  	-0,049998  	0,395036  	0,200168  	-4,902437  	17282,691591  	77984,856944  	11,310747  	-0,047950  
187,574000  	24,546752  	33,808804  	25,004605  	1256,670793  	80,443227  	74,596984  	0,007583  	0,012049  	0,003964  	0,004257  	0,004469  	-0,000000  	-0,000000  	28,733282  	26,293176  	27,403439  	27,410270  	31,487057  	29,677705  	31,194119  	30,906995  	34,744282  	33,629918  	36,796562  	67,519142  	27,535745  	26,203861  	29,861984  	73,722060  	0,214663  	0,108771  	-4211,786501  	25536,225049  	-0,018528  	-0,050003  	0,398047  	0,201693  	-4,944048  	17332,439203  	78130,725009  	11,331904  	-0,047954  
188,574000  	24,558980  	33,814411  	25,005896  	57,696365  	80,439915  	74,600664  	0,007590  	0,012046  	0,003960  	0,004277  	0,004474  	0,000001  	-0,000000  	28,741609  	26,311180  	27,408518  	27,412476  	31,500663  	29,684665  	31,190502  	30,919911  	34,752360  	33,644155  	36,796556  	67,532750  	27,538758  	26,233751  	29,875276  	73,736696  	0,231295  	0,117199  	-4534,876613  	1770,278370  	-0,053832  	-0,049990  	0,401811  	0,203600  	-4,984828  	17325,697949  	78283,138708  	11,354009  	-0,047943  
189,575000  	24,555661  	33,827165  	25,007002  	956,927186  	80,434665  	74,606902  	0,007579  	0,012057  	0,003962  	0,004307  	0,004493  	0,000000  	-0,000000  	28,731629  	26,300496  	27,406627  	27,396216  	31,497688  	29,679866  	31,181509  	30,914237  	34,753929  	33,643657  	36,790162  	67,525131  	27,534711  	26,240315  	29,869236  	73,727382  	0,255664  	0,129547  	-5021,372039  	22482,483506  	-0,022159  	-0,049997  	0,416678  	0,211134  	-5,159110  	17349,971841  	78035,018950  	11,318023  	-0,047949  
190,572000  	24,524016  	33,837702  	25,007125  	357,439972  	80,435915  	74,603409  	0,007582  	0,012059  	0,003963  	0,004262  	0,004462  	0,000002  	-0,000000  	28,737246  	26,303139  	27,413503  	27,395193  	31,501071  	29,681454  	31,194597  	30,918007  	34,754065  	33,643244  	36,800003  	67,522484  	27,536519  	26,254954  	29,867239  	73,726348  	0,219081  	0,111010  	-4322,447415  	12489,050906  	-0,036446  	-0,049971  	0,392108  	0,198684  	-4,858836  	17353,896752  	78102,360597  	11,327790  	-0,047927  
191,573000  	24,501527  	33,846204  	25,007586  	1256,670793  	80,436603  	74,603876  	0,007581  	0,012056  	0,003963  	0,004247  	0,004478  	0,000002  	-0,000000  	28,736377  	26,305318  	27,412134  	27,397663  	31,495379  	29,680834  	31,192831  	30,917533  	34,750603  	33,633748  	36,798197  	67,522690  	27,533068  	26,263718  	29,868203  	73,726429  	0,206435  	0,104602  	-4086,496610  	25524,061902  	-0,018519  	-0,049976  	0,405219  	0,205327  	-5,021493  	17348,764938  	78080,061665  	11,324556  	-0,047931  
192,576000  	24,490037  	33,851811  	25,007402  	57,696365  	80,443102  	74,604376  	0,007583  	0,012034  	0,003963  	0,004322  	0,004502  	-0,000000  	-0,000000  	28,727101  	26,306932  	27,410099  	27,398574  	31,493205  	29,677887  	31,187760  	30,907064  	34,753044  	33,630187  	36,795590  	67,520059  	27,528892  	26,270743  	29,865652  	73,716425  	0,267497  	0,135543  	-5304,940637  	1770,559592  	-0,053843  	-0,050002  	0,423858  	0,214772  	-5,257872  	17301,684397  	78123,028417  	11,330787  	-0,047953  
193,574000  	24,472279  	33,849840  	25,008231  	956,927186  	80,447851  	74,602286  	0,007583  	0,012070  	0,003962  	0,004325  	0,004481  	-0,000001  	-0,000000  	28,740208  	26,307656  	27,412346  	27,407145  	31,493931  	29,688501  	31,191397  	30,909689  	34,756208  	33,637253  	36,796826  	67,520923  	27,530194  	26,289822  	29,864803  	73,719598  	0,270343  	0,136985  	-5370,437332  	22490,063188  	-0,022167  	-0,050016  	0,407056  	0,206259  	-5,055369  	17378,866064  	78123,063723  	11,330792  	-0,047965  
194,575000  	24,473323  	33,840413  	25,009030  	-242,047242  	80,444289  	74,605093  	0,007582  	0,012030  	0,003961  	0,004305  	0,004480  	-0,000002  	-0,000000  	28,746104  	26,307668  	27,414847  	27,412665  	31,502822  	29,695311  	31,194492  	30,919704  	34,755089  	33,642191  	36,800369  	67,523667  	27,535075  	26,302708  	29,866900  	73,724577  	0,254146  	0,128778  	-5043,030360  	-27084,423037  	-0,102892  	-0,050019  	0,406650  	0,206053  	-5,044823  	17292,474863  	78108,433138  	11,328670  	-0,047968  
195,573000  	24,484476  	33,833666  	25,007463  	-242,047242  	80,439009  	74,607183  	0,007586  	0,012041  	0,003963  	0,004290  	0,004469  	0,000000  	-0,000000  	28,743367  	26,315117  	27,412775  	27,411100  	31,505463  	29,687634  	31,196916  	30,919713  	34,756387  	33,641853  	36,805757  	67,523250  	27,534711  	26,308242  	29,868805  	73,726291  	0,241284  	0,122260  	-4778,651807  	-27073,796911  	-0,102852  	-0,049997  	0,397336  	0,201333  	-4,923052  	17315,797948  	78187,404405  	11,340124  	-0,047949  
196,576000  	24,463093  	33,823931  	25,006234  	956,927186  	80,437884  	74,604126  	0,007586  	0,012056  	0,003961  	0,004335  	0,004465  	-0,000000  	-0,000000  	28,747660  	26,321188  	27,412429  	27,411969  	31,507759  	29,682003  	31,201419  	30,925754  	34,764271  	33,646780  	36,807871  	67,527905  	27,532867  	26,319665  	29,873908  	73,733627  	0,277950  	0,140839  	-5511,706403  	22483,916186  	-0,022161  	-0,050000  	0,394924  	0,200111  	-4,894784  	17347,301939  	78191,492778  	11,340717  	-0,047952  
197,575000  	24,413875  	33,816691  	25,006480  	57,696365  	80,436790  	74,598293  	0,007585  	0,012038  	0,003964  	0,004318  	0,004485  	0,000001  	-0,000000  	28,748435  	26,318049  	27,413234  	27,412875  	31,507827  	29,684752  	31,198487  	30,931401  	34,762081  	33,649959  	36,807243  	67,528202  	27,531599  	26,335083  	29,874057  	73,732931  	0,264305  	0,133925  	-5264,637116  	1770,362530  	-0,053836  	-0,049994  	0,410014  	0,207757  	-5,085942  	17309,184034  	78172,773820  	11,338002  	-0,047946  
198,571000  	24,383337  	33,814165  	25,005619  	657,183579  	80,435978  	74,598044  	0,007583  	0,012054  	0,003960  	0,004258  	0,004496  	-0,000000  	-0,000000  	28,749830  	26,315687  	27,417073  	27,414449  	31,505287  	29,691639  	31,193292  	30,920822  	34,757976  	33,651195  	36,811050  	67,526870  	27,533083  	26,355606  	29,873976  	73,728717  	0,215557  	0,109224  	-4306,430230  	18454,389818  	-0,027570  	-0,050004  	0,418849  	0,212234  	-5,195030  	17343,974113  	78124,687774  	11,331028  	-0,047955  
199,576000  	24,410711  	33,809266  	25,004882  	657,183579  	80,438384  	74,597576  	0,007583  	0,012057  	0,003961  	0,004317  	0,004474  	0,000000  	-0,000000  	28,753571  	26,321068  	27,424786  	27,420726  	31,512915  	29,699234  	31,196529  	30,920775  	34,765965  	33,657654  	36,816538  	67,536287  	27,537652  	26,374500  	29,879610  	73,736141  	0,263627  	0,133582  	-5248,748476  	18452,119886  	-0,027566  	-0,049997  	0,401487  	0,203436  	-4,982132  	17350,077250  	78117,605498  	11,330001  	-0,047949  
200,577000  	24,473631  	33,798422  	25,003284  	1256,670793  	80,436072  	74,594083  	0,007581  	0,012024  	0,003960  	0,004216  	0,004440  	-0,000001  	-0,000000  	28,744909  	26,324255  	27,420413  	27,418637  	31,507019  	29,698223  	31,195813  	30,929042  	34,761403  	33,653894  	36,815978  	67,530077  	27,528398  	26,381895  	29,873315  	73,735663  	0,181879  	0,092159  	-3592,739615  	25540,815525  	-0,018531  	-0,050013  	0,374377  	0,189700  	-4,646666  	17279,701216  	78084,707864  	11,325229  	-0,047962  
201,576000  	24,507487  	33,776827  	25,003714  	1256,670793  	80,433572  	74,594956  	0,007581  	0,012049  	0,003961  	0,004293  	0,004502  	-0,000001  	-0,000000  	28,738693  	26,312017  	27,415236  	27,412364  	31,499900  	29,691048  	31,192748  	30,919560  	34,758730  	33,651931  	36,809674  	67,517206  	27,517777  	26,394418  	29,869514  	73,727215  	0,243835  	0,123553  	-4787,928692  	25537,955559  	-0,018529  	-0,050006  	0,423709  	0,214697  	-5,255924  	17332,902581  	78087,475813  	11,325631  	-0,047957  
202,574000  	24,497717  	33,769803  	25,002670  	657,183579  	80,430697  	74,592898  	0,007581  	0,012060  	0,003959  	0,004295  	0,004466  	-0,000001  	-0,000000  	28,744948  	26,306676  	27,413977  	27,415358  	31,500021  	29,686165  	31,192605  	30,918691  	34,763239  	33,655072  	36,799740  	67,516860  	27,520183  	26,400088  	29,864751  	73,726708  	0,245737  	0,124517  	-4826,708198  	18455,571965  	-0,027571  	-0,050007  	0,395704  	0,200506  	-4,907847  	17357,520999  	78076,891234  	11,324096  	-0,047958  
203,575000  	24,510990  	33,780339  	25,001656  	657,183579  	80,435947  	74,596516  	0,007582  	0,012031  	0,003961  	0,004284  	0,004459  	-0,000001  	-0,000000  	28,747499  	26,316301  	27,417636  	27,411975  	31,505207  	29,680906  	31,189591  	30,927210  	34,761599  	33,649742  	36,807696  	67,523891  	27,515479  	26,412896  	29,874963  	73,736929  	0,236823  	0,120000  	-4650,254980  	18457,405581  	-0,027574  	-0,050013  	0,389931  	0,197581  	-4,837590  	17293,784346  	78100,383491  	11,327503  	-0,047962  
204,574000  	24,528993  	33,796851  	25,000427  	1256,670793  	80,437259  	74,596017  	0,007587  	0,012056  	0,003960  	0,004271  	0,004442  	0,000000  	-0,000000  	28,744090  	26,316238  	27,421326  	27,405096  	31,501106  	29,684150  	31,194152  	30,925822  	34,758022  	33,647955  	36,817526  	67,534615  	27,525100  	26,424848  	29,880522  	73,729386  	0,226220  	0,114628  	-4441,336821  	25534,481212  	-0,018526  	-0,049999  	0,376457  	0,190754  	-4,671885  	17347,535396  	78203,574309  	11,342470  	-0,047950  
205,576000  	24,484168  	33,808958  	24,999013  	-242,047242  	80,436884  	74,595081  	0,007588  	0,012023  	0,003957  	0,004319  	0,004481  	0,000000  	-0,000000  	28,747941  	26,311776  	27,410423  	27,395713  	31,498801  	29,685682  	31,195022  	30,911543  	34,754600  	33,651201  	36,808249  	67,518844  	27,515162  	26,445499  	29,875179  	73,723400  	0,265049  	0,134302  	-5235,634188  	-27072,683682  	-0,102851  	-0,049995  	0,407569  	0,206518  	-5,058466  	17278,154739  	78223,973807  	11,345428  	-0,047947  
206,574000  	24,448407  	33,816783  	24,998460  	-242,047242  	80,438009  	74,600009  	0,007584  	0,012067  	0,003962  	0,004275  	0,004495  	-0,000001  	-0,000000  	28,751043  	26,322700  	27,413934  	27,406754  	31,510221  	29,691923  	31,195255  	30,921777  	34,759586  	33,656265  	36,810499  	67,521841  	27,504269  	26,463877  	29,876287  	73,734450  	0,229668  	0,116375  	-4557,950580  	-27079,992289  	-0,102879  	-0,050010  	0,417996  	0,211801  	-5,184504  	17372,919979  	78137,955569  	11,332952  	-0,047960  
207,578000  	24,460942  	33,823438  	24,998183  	657,183579  	80,437040  	74,595019  	0,007581  	0,012055  	0,003956  	0,004289  	0,004528  	-0,000001  	-0,000000  	28,753268  	26,317042  	27,426221  	27,425973  	31,509540  	29,697417  	31,203841  	30,926041  	34,763963  	33,649958  	36,814519  	67,541578  	27,520235  	26,488602  	29,887092  	73,735878  	0,240926  	0,122079  	-4778,372028  	18458,909968  	-0,027576  	-0,050017  	0,444364  	0,225163  	-5,515355  	17346,136775  	78078,698874  	11,324358  	-0,047966  
208,573000  	24,482079  	33,821035  	24,997323  	57,696365  	80,434353  	74,595081  	0,007580  	0,012025  	0,003967  	0,004253  	0,004482  	-0,000000  	-0,000000  	28,740820  	26,308546  	27,405844  	27,394107  	31,498044  	29,677263  	31,187239  	30,916741  	34,752721  	33,639803  	36,799733  	67,525344  	27,511726  	26,496669  	29,851932  	73,720301  	0,211955  	0,107399  	-4193,203347  	1771,223811  	-0,053847  	-0,050004  	0,407819  	0,206645  	-5,059381  	17282,414979  	78070,465639  	11,323164  	-0,047955  
209,574000  	24,490743  	33,810807  	24,996893  	1256,670793  	80,430510  	74,593490  	0,007587  	0,012064  	0,003960  	0,004269  	0,004492  	0,000000  	-0,000000  	28,740675  	26,319689  	27,421876  	27,412670  	31,511493  	29,698016  	31,197872  	30,915287  	34,756758  	33,647047  	36,813517  	67,521185  	27,516426  	26,543063  	29,867184  	73,741430  	0,224289  	0,113649  	-4428,230775  	25533,337264  	-0,018526  	-0,049996  	0,415639  	0,210607  	-5,154398  	17364,911689  	78202,133846  	11,342261  	-0,047948  
210,573000  	24,502909  	33,805508  	24,996586  	1256,670793  	80,432759  	74,594176  	0,007577  	0,012042  	0,003961  	0,004265  	0,004471  	-0,000001  	-0,000000  	28,741885  	26,317363  	27,414496  	27,409930  	31,503041  	29,683793  	31,193576  	30,913657  	34,754914  	33,643664  	36,805483  	67,528132  	27,521135  	26,548439  	29,875408  	73,731401  	0,221199  	0,112083  	-4359,029472  	25538,940208  	-0,018530  	-0,050008  	0,399653  	0,202507  	-4,957493  	17318,968721  	77986,565728  	11,310995  	-0,047958  
211,574000  	24,505122  	33,805046  	24,996862  	1256,670793  	80,431791  	74,592087  	0,007576  	0,012042  	0,003959  	0,004274  	0,004485  	-0,000001  	-0,000000  	28,751073  	26,308410  	27,407703  	27,414552  	31,497494  	29,685147  	31,195551  	30,915777  	34,758279  	33,644022  	36,800121  	67,526576  	27,521975  	26,559055  	29,869001  	73,727287  	0,228525  	0,115796  	-4502,120519  	25539,054660  	-0,018530  	-0,050008  	0,410729  	0,208119  	-5,095854  	17318,394982  	77971,101934  	11,308752  	-0,047959  
212,573000  	24,504630  	33,811022  	24,996248  	1256,670793  	80,429978  	74,592336  	0,007586  	0,012045  	0,003965  	0,004310  	0,004453  	-0,000000  	-0,000000  	28,743123  	26,308808  	27,412896  	27,406342  	31,503987  	29,687289  	31,194278  	30,918274  	34,764899  	33,643346  	36,811782  	67,521346  	27,531401  	26,585349  	29,869681  	73,724853  	0,257483  	0,130468  	-5076,128887  	25538,070422  	-0,018529  	-0,050006  	0,385380  	0,195275  	-4,779672  	17325,239524  	78193,808817  	11,341053  	-0,047957  
213,574000  	24,508132  	33,816352  	24,995418  	57,696365  	80,429447  	74,594644  	0,007583  	0,012054  	0,003960  	0,004272  	0,004505  	0,000000  	-0,000000  	28,748482  	26,307987  	27,422130  	27,409362  	31,508922  	29,691403  	31,196955  	30,919881  	34,766857  	33,643960  	36,807021  	67,522825  	27,541481  	26,586593  	29,869186  	73,734816  	0,227220  	0,115134  	-4480,392493  	1771,150398  	-0,053842  	-0,049999  	0,426592  	0,216157  	-5,288227  	17343,011278  	78133,443530  	11,332298  	-0,047950  
214,575000  	24,509484  	33,822267  	24,996156  	657,183579  	80,428635  	74,594270  	0,007574  	0,012031  	0,003960  	0,004268  	0,004442  	-0,000000  	-0,000000  	28,743953  	26,300905  	27,418307  	27,406018  	31,497668  	29,683976  	31,203297  	30,913061  	34,759294  	33,640709  	36,812313  	67,529453  	27,539420  	26,583720  	29,861472  	73,732597  	0,223800  	0,113401  	-4415,127968  	18454,819220  	-0,027570  	-0,050004  	0,375984  	0,190514  	-4,660514  	17294,121798  	77939,383503  	11,304152  	-0,047955  
215,574000  	24,507733  	33,824670  	24,995234  	-242,047242  	80,430322  	74,595954  	0,007579  	0,012044  	0,003964  	0,004305  	0,004503  	-0,000000  	-0,000000  	28,748289  	26,310577  	27,421960  	27,417689  	31,503489  	29,691376  	31,193782  	30,920996  	34,768233  	33,648669  	36,814932  	67,537765  	27,541407  	26,590757  	29,872437  	73,735925  	0,253494  	0,128447  	-5003,162170  	-27077,038505  	-0,102869  	-0,050004  	0,424611  	0,215154  	-5,263283  	17323,178026  	78039,700455  	11,318702  	-0,047955  
216,576000  	24,503370  	33,825286  	24,994250  	956,927186  	80,429510  	74,595518  	0,007575  	0,012066  	0,003965  	0,004285  	0,004485  	-0,000001  	-0,000000  	28,747446  	26,309511  	27,414011  	27,414986  	31,495460  	29,686896  	31,188813  	30,924138  	34,765823  	33,644939  	36,808207  	67,524285  	27,540699  	26,582255  	29,867763  	73,729276  	0,237668  	0,120428  	-4693,312522  	22487,331828  	-0,022164  	-0,050008  	0,410298  	0,207901  	-5,085535  	17369,464105  	77954,769625  	11,306383  	-0,047958  
217,575000  	24,518670  	33,825841  	24,994373  	-242,047242  	80,427697  	74,598637  	0,007586  	0,012013  	0,003955  	0,004280  	0,004477  	0,000001  	-0,000000  	28,751599  	26,316189  	27,417694  	27,408341  	31,500954  	29,690430  	31,194810  	30,921239  	34,767781  	33,650687  	36,808631  	67,528472  	27,542470  	26,576031  	29,869732  	73,737013  	0,233675  	0,118405  	-4607,155379  	-27070,842601  	-0,102846  	-0,049992  	0,404166  	0,204794  	-5,005298  	17254,915840  	78189,769871  	11,340467  	-0,047944  
218,576000  	24,538948  	33,828613  	24,994435  	357,439972  	80,427697  	74,583166  	0,007582  	0,012050  	0,003959  	0,004244  	0,004460  	-0,000001  	-0,000000  	28,747510  	26,307446  	27,412930  	27,401884  	31,497896  	29,682524  	31,191537  	30,917666  	34,760710  	33,642876  	36,801194  	67,521243  	27,543142  	26,572134  	29,860190  	73,729360  	0,204514  	0,103628  	-4024,614664  	12497,827028  	-0,036471  	-0,050008  	0,390479  	0,197859  	-4,848616  	17334,282808  	78100,581202  	11,327532  	-0,047958  
219,577000  	24,536367  	33,828613  	24,993974  	1256,670793  	80,426854  	74,587252  	0,007585  	0,012019  	0,003954  	0,004267  	0,004430  	0,000000  	-0,000000  	28,746612  	26,313707  	27,411239  	27,407787  	31,497229  	29,681351  	31,190587  	30,923082  	34,761279  	33,643885  	36,808900  	67,521579  	27,547436  	26,573778  	29,863042  	73,733052  	0,223289  	0,113142  	-4395,328165  	25533,241129  	-0,018525  	-0,049995  	0,367199  	0,186063  	-4,555707  	17268,793811  	78171,644045  	11,337838  	-0,047947  
220,576000  	24,550991  	33,831016  	24,993851  	1256,670793  	80,424854  	74,595549  	0,007581  	0,012049  	0,003959  	0,004235  	0,004490  	0,000000  	-0,000000  	28,743750  	26,314966  	27,411738  	27,410035  	31,496002  	29,680733  	31,193804  	30,917193  	34,760531  	33,646212  	36,809995  	67,521704  	27,555646  	26,570075  	29,865631  	73,727413  	0,197048  	0,099846  	-3873,683919  	25532,532663  	-0,018525  	-0,049994  	0,414241  	0,209899  	-5,130283  	17332,806368  	78073,812597  	11,323649  	-0,047946  
221,574000  	24,564878  	33,839026  	24,994005  	956,927186  	80,424292  	74,590714  	0,007590  	0,012075  	0,003960  	0,004328  	0,004485  	-0,000001  	-0,000000  	28,743133  	26,318126  	27,411556  	27,412044  	31,502689  	29,687768  	31,199581  	30,914461  	34,763166  	33,647998  	36,809063  	67,527866  	27,559483  	26,561487  	29,869671  	73,731494  	0,272622  	0,138140  	-5355,953147  	22490,426437  	-0,022167  	-0,050015  	0,410016  	0,207758  	-5,081673  	17388,318959  	78272,469396  	11,352462  	-0,047964  
222,573000  	24,592346  	33,842662  	24,994373  	357,439972  	80,426604  	74,589592  	0,007582  	0,012061  	0,003956  	0,004241  	0,004477  	-0,000001  	-0,000000  	28,740371  	26,314694  	27,413260  	27,411980  	31,503616  	29,690079  	31,201558  	30,914288  	34,763432  	33,643323  	36,808117  	67,527582  	27,559081  	26,550693  	29,870372  	73,738084  	0,201742  	0,102224  	-3953,244700  	12499,662092  	-0,036476  	-0,050016  	0,403797  	0,204607  	-5,007535  	17359,503970  	78102,417086  	11,327798  	-0,047965  
223,579000  	24,565524  	33,847652  	24,994373  	357,439972  	80,428072  	74,591401  	0,007587  	0,012019  	0,003958  	0,004309  	0,004485  	-0,000001  	-0,000000  	28,743045  	26,312066  	27,418721  	27,412222  	31,501858  	29,689480  	31,200942  	30,918841  	34,765198  	33,641797  	36,808527  	67,524071  	27,563112  	26,535630  	29,871033  	73,732678  	0,257382  	0,130417  	-5060,886226  	12497,781599  	-0,036470  	-0,050008  	0,410318  	0,207911  	-5,088109  	17267,564977  	78204,082708  	11,342543  	-0,047958  
224,575000  	24,504323  	33,853136  	24,994373  	956,927186  	80,431760  	74,594145  	0,007589  	0,012038  	0,003960  	0,004256  	0,004472  	0,000002  	-0,000000  	28,751414  	26,324693  	27,419795  	27,416297  	31,510521  	29,693084  	31,198175  	30,924040  	34,770873  	33,645665  	36,814899  	67,525184  	27,566465  	26,519952  	29,879779  	73,732448  	0,213708  	0,108287  	-4232,329448  	22474,626081  	-0,022151  	-0,049976  	0,399803  	0,202583  	-4,958526  	17308,935720  	78245,029988  	11,348482  	-0,047931  
225,571000  	24,460758  	33,865274  	24,995111  	-242,047242  	80,438852  	74,593147  	0,007585  	0,012030  	0,003961  	0,004282  	0,004481  	0,000001  	-0,000000  	28,751005  	26,323509  	27,416321  	27,415639  	31,509013  	29,688734  	31,191382  	30,918238  	34,764845  	33,640509  	36,809302  	67,517433  	27,566646  	26,499458  	29,873347  	73,730475  	0,234785  	0,118967  	-4677,472398  	-27068,141632  	-0,102835  	-0,049986  	0,406911  	0,206185  	-5,053672  	17292,890134  	78171,149768  	11,337767  	-0,047939  
226,580000  	24,469237  	33,867677  	24,996033  	357,439972  	80,445789  	74,592399  	0,007578  	0,012040  	0,003965  	0,004269  	0,004466  	0,000001  	-0,000000  	28,753186  	26,323705  	27,421465  	27,422109  	31,506654  	29,693780  	31,197668  	30,929237  	34,763298  	33,648185  	36,807802  	67,520761  	27,572717  	26,473620  	29,863094  	73,734374  	0,224849  	0,113933  	-4476,630872  	12493,443583  	-0,036458  	-0,049989  	0,395617  	0,200462  	-4,919869  	17314,625002  	78014,153420  	11,314996  	-0,047942  
227,574000  	24,482970  	33,855847  	24,996586  	1256,670793  	80,449507  	74,594270  	0,007578  	0,012035  	0,003961  	0,004281  	0,004507  	-0,000001  	-0,000000  	28,744539  	26,321175  	27,414307  	27,421727  	31,504871  	29,688006  	31,204396  	30,928067  	34,756885  	33,648464  	36,815193  	67,514644  	27,566265  	26,451940  	29,864334  	73,731931  	0,234175  	0,118658  	-4649,607721  	25539,729322  	-0,018530  	-0,050010  	0,427877  	0,216809  	-5,322736  	17301,954642  	78018,446564  	11,315619  	-0,047960  
228,575000  	24,457102  	33,835576  	24,996647  	1256,670793  	80,448320  	74,595580  	0,007579  	0,012082  	0,003963  	0,004256  	0,004442  	0,000002  	-0,000000  	28,746693  	26,312663  	27,408252  	27,413904  	31,500819  	29,685308  	31,198400  	30,920875  	34,752516  	33,640467  	36,811500  	67,512685  	27,554919  	26,428365  	29,862270  	73,720683  	0,214296  	0,108586  	-4257,465522  	25525,433521  	-0,018520  	-0,049978  	0,376561  	0,190806  	-4,682373  	17404,460758  	78045,723568  	11,319575  	-0,047933  
229,574000  	24,476150  	33,820357  	24,997446  	1256,670793  	80,443508  	74,601225  	0,007588  	0,012024  	0,003961  	0,004292  	0,004507  	-0,000001  	-0,000000  	28,747577  	26,323290  	27,424218  	27,419477  	31,512359  	29,699860  	31,205400  	30,923953  	34,762376  	33,646127  	36,812294  	67,520163  	27,575986  	26,420578  	29,863335  	73,726759  	0,242817  	0,123037  	-4806,456794  	25539,899647  	-0,018530  	-0,050010  	0,427945  	0,216843  	-5,311804  	17278,816908  	78228,245769  	11,346048  	-0,047960  
230,573000  	24,476211  	33,819186  	24,997508  	1256,670793  	80,437821  	74,603970  	0,007580  	0,012061  	0,003963  	0,004314  	0,004495  	-0,000000  	-0,000000  	28,751327  	26,318571  	27,424540  	27,418069  	31,520383  	29,703019  	31,205509  	30,930880  	34,764816  	33,652341  	36,821600  	67,531198  	27,570500  	26,420393  	29,870571  	73,732308  	0,260638  	0,132067  	-5158,533276  	25535,273302  	-0,018527  	-0,050000  	0,418586  	0,212101  	-5,188141  	17358,314046  	78055,121883  	11,320938  	-0,047951  
231,572000  	24,478884  	33,815120  	24,998153  	1256,670793  	80,436009  	74,606496  	0,007575  	0,012050  	0,003962  	0,004277  	0,004463  	-0,000001  	-0,000000  	28,749051  	26,317091  	27,416755  	27,413183  	31,501403  	29,692395  	31,195148  	30,929533  	34,751983  	33,639247  	36,808210  	67,518268  	27,559478  	26,396479  	29,862466  	73,724517  	0,230898  	0,116998  	-4566,633708  	25539,050227  	-0,018530  	-0,050008  	0,393245  	0,199260  	-4,870435  	17334,809148  	77956,111233  	11,306578  	-0,047959  
232,577000  	24,474583  	33,815181  	24,998030  	57,696365  	80,431947  	74,604625  	0,007576  	0,012019  	0,003964  	0,004339  	0,004445  	-0,000000  	-0,000000  	28,757097  	26,324087  	27,424239  	27,416967  	31,505154  	29,697146  	31,206826  	30,927653  	34,760641  	33,655675  	36,814120  	67,515059  	27,561445  	26,397876  	29,869260  	73,727683  	0,281461  	0,142618  	-5569,250955  	1771,075730  	-0,053844  	-0,050001  	0,378353  	0,191714  	-4,684222  	17268,660104  	77969,379027  	11,308502  	-0,047952  
233,573000  	24,472740  	33,815736  	24,998798  	57,696365  	80,425635  	74,600633  	0,007586  	0,012018  	0,003963  	0,004299  	0,004514  	-0,000000  	-0,000000  	28,753639  	26,322095  	27,423015  	27,421984  	31,514508  	29,693149  	31,212668  	30,928378  	34,766575  	33,657981  	36,814425  	67,520626  	27,567055  	26,405952  	29,865361  	73,722701  	0,248675  	0,126005  	-4921,780454  	1771,085235  	-0,053845  	-0,050003  	0,433388  	0,219601  	-5,363458  	17266,739388  	78186,917190  	11,340054  	-0,047954  
234,575000  	24,508685  	33,814935  	24,999105  	657,183579  	80,424823  	74,600570  	0,007587  	0,012083  	0,003962  	0,004310  	0,004432  	-0,000000  	-0,000000  	28,753674  	26,316822  	27,423050  	27,419368  	31,510141  	29,695388  	31,207860  	30,934578  	34,766609  	33,651646  	36,815419  	67,524396  	27,568278  	26,400100  	29,866802  	73,725395  	0,257430  	0,130442  	-5075,007448  	18454,587049  	-0,027570  	-0,050004  	0,368458  	0,186701  	-4,559322  	17406,179852  	78209,540933  	11,343335  	-0,047955  
235,572000  	24,515137  	33,813826  	24,999013  	657,183579  	80,421761  	74,587471  	0,007582  	0,012050  	0,003960  	0,004309  	0,004505  	-0,000001  	-0,000000  	28,750888  	26,321401  	27,414915  	27,413304  	31,500203  	29,689848  	31,197971  	30,929682  	34,760359  	33,642644  	36,809296  	67,512563  	27,550366  	26,401749  	29,862246  	73,721179  	0,256585  	0,130013  	-5054,229817  	18455,873381  	-0,027572  	-0,050008  	0,426090  	0,215903  	-5,281536  	17335,455046  	78108,779131  	11,328721  	-0,047958  
236,575000  	24,494307  	33,814504  	24,998153  	57,696365  	80,421573  	74,583915  	0,007581  	0,012056  	0,003962  	0,004305  	0,004446  	0,000000  	-0,000000  	28,733243  	26,311678  	27,399522  	27,403876  	31,496534  	29,681258  	31,191374  	30,916541  	34,754287  	33,633271  	36,802052  	67,505022  	27,556976  	26,389790  	29,850767  	73,715577  	0,254026  	0,128717  	-5015,407345  	1771,007269  	-0,053842  	-0,049999  	0,379483  	0,192287  	-4,706532  	17349,086118  	78088,923337  	11,325841  	-0,047951  
237,573000  	24,465520  	33,819556  	25,000273  	57,696365  	80,425635  	74,588718  	0,007586  	0,012034  	0,003961  	0,004248  	0,004496  	0,000000  	-0,000001  	28,756939  	26,332581  	27,421942  	27,417440  	31,513448  	29,701084  	31,195643  	30,931171  	34,768315  	33,656228  	36,814455  	67,519240  	27,553555  	26,385167  	29,869202  	73,721424  	0,207287  	0,105034  	-4107,475845  	1770,786896  	-0,053839  	-0,049996  	0,418799  	0,212209  	-5,193496  	17301,268419  	78191,097357  	11,340660  	-0,047948  
238,576000  	24,463676  	33,826827  	24,999904  	657,183579  	80,429822  	74,595892  	0,007585  	0,012017  	0,003965  	0,004252  	0,004487  	-0,000001  	-0,000000  	28,747441  	26,331097  	27,424812  	27,419721  	31,511556  	29,695269  	31,204219  	30,935976  	34,767399  	33,654084  	36,806826  	67,515674  	27,545639  	26,372543  	29,860844  	73,720278  	0,210582  	0,106704  	-4176,843020  	18455,974679  	-0,027572  	-0,050008  	0,411884  	0,208705  	-5,105133  	17265,117214  	78161,038283  	11,336300  	-0,047958  
239,573000  	24,478608  	33,825163  	25,000089  	657,183579  	80,429729  	74,589155  	0,007575  	0,012055  	0,003961  	0,004294  	0,004470  	-0,000001  	-0,000001  	28,748256  	26,314276  	27,418248  	27,413185  	31,515417  	29,685060  	31,197712  	30,925554  	34,760277  	33,651293  	36,808292  	67,514614  	27,546510  	26,360008  	29,848846  	73,720588  	0,244867  	0,124076  	-4848,252426  	18457,411409  	-0,027574  	-0,050012  	0,398878  	0,202114  	-4,949558  	17346,259164  	77944,488673  	11,304892  	-0,047962  
240,577000  	24,493355  	33,816167  	25,000334  	1256,670793  	80,429291  	74,588656  	0,007578  	0,012074  	0,003960  	0,004272  	0,004516  	-0,000000  	-0,000000  	28,758917  	26,319359  	27,417545  	27,422055  	31,517907  	29,698651  	31,212127  	30,933954  	34,772157  	33,660952  	36,819848  	67,513920  	27,551944  	26,353433  	29,871168  	73,727770  	0,227162  	0,115105  	-4486,281859  	25536,744945  	-0,018528  	-0,050003  	0,435081  	0,220459  	-5,398841  	17386,269488  	78010,587568  	11,314479  	-0,047954  
241,573000  	24,485397  	33,807695  	25,000334  	956,927186  	80,427135  	74,587159  	0,007585  	0,012046  	0,003961  	0,004307  	0,004483  	0,000001  	-0,000001  	28,755283  	26,328691  	27,429743  	27,423180  	31,521099  	29,703637  	31,210795  	30,932203  	34,777699  	33,658071  	36,815886  	67,522140  	27,554649  	26,349018  	29,875198  	73,728386  	0,255760  	0,129595  	-5050,785536  	22480,909142  	-0,022158  	-0,049992  	0,408847  	0,207166  	-5,072744  	17326,266028  	78163,926270  	11,336719  	-0,047945  
242,574000  	24,455781  	33,808681  	25,001502  	357,439972  	80,427822  	74,583166  	0,007579  	0,012072  	0,003966  	0,004271  	0,004450  	0,000000  	-0,000000  	28,752287  	26,325135  	27,425079  	27,429838  	31,517499  	29,699816  	31,205439  	30,925518  	34,772464  	33,655851  	36,808256  	67,516155  	27,550376  	26,347394  	29,874626  	73,719076  	0,226027  	0,114529  	-4478,267275  	12494,745177  	-0,036462  	-0,049996  	0,382616  	0,193874  	-4,751082  	17382,345991  	78041,649317  	11,318984  	-0,047948  
243,573000  	24,440020  	33,813395  	25,001225  	1256,670793  	80,432166  	74,587190  	0,007580  	0,012049  	0,003967  	0,004268  	0,004439  	0,000001  	-0,000000  	28,756612  	26,324623  	27,425398  	27,427921  	31,514213  	29,700886  	31,203113  	30,925496  	34,768146  	33,655509  	36,809206  	67,518422  	27,551031  	26,346216  	29,868245  	73,720455  	0,224003  	0,113504  	-4447,886562  	25531,457827  	-0,018524  	-0,049992  	0,373923  	0,189469  	-4,643389  	17333,512399  	78064,604931  	11,322314  	-0,047945  
244,573000  	24,400388  	33,814565  	25,000611  	57,696365  	80,434915  	74,594301  	0,007583  	0,012046  	0,003966  	0,004241  	0,004498  	-0,000001  	-0,000000  	28,757136  	26,325075  	27,426582  	27,417395  	31,514292  	29,701924  	31,209213  	30,931080  	34,770199  	33,660054  	36,810497  	67,520048  	27,544675  	26,345750  	29,868442  	73,727450  	0,201673  	0,102189  	-4021,934546  	1771,344639  	-0,053856  	-0,050014  	0,420417  	0,213028  	-5,216865  	17326,132321  	78126,198848  	11,331247  	-0,047964  
245,573000  	24,351540  	33,806956  	25,002147  	57,696365  	80,438571  	74,589217  	0,007586  	0,012050  	0,003963  	0,004312  	0,004509  	0,000000  	-0,000000  	28,757486  	26,327831  	27,430156  	27,427901  	31,516807  	29,704892  	31,214048  	30,933954  	34,780111  	33,661823  	36,810403  	67,519472  	27,543614  	26,333989  	29,873004  	73,729291  	0,259280  	0,131379  	-5193,454079  	1770,676338  	-0,053838  	-0,049996  	0,429272  	0,217515  	-5,334715  	17335,151552  	78196,414360  	11,341431  	-0,047948  
246,575000  	24,354858  	33,798330  	25,002455  	1256,670793  	80,442258  	74,584352  	0,007584  	0,012025  	0,003959  	0,004223  	0,004424  	0,000000  	-0,000000  	28,749312  	26,321775  	27,425943  	27,425823  	31,510391  	29,698176  	31,201948  	30,926856  	34,776805  	33,654394  	36,804589  	67,512636  	27,533809  	26,310222  	29,869632  	73,728564  	0,186989  	0,094749  	-3740,717345  	25533,906868  	-0,018526  	-0,049997  	0,361749  	0,183301  	-4,502152  	17281,055268  	78145,616855  	11,334063  	-0,047949  
247,574000  	24,361310  	33,782341  	25,002362  	1256,670793  	80,438790  	74,590558  	0,007582  	0,012058  	0,003961  	0,004244  	0,004543  	0,000001  	-0,000000  	28,744493  	26,321709  	27,421478  	27,415430  	31,508474  	29,699056  	31,194590  	30,921883  	34,769217  	33,647713  	36,802325  	67,509876  	27,535262  	26,295956  	29,869051  	73,732653  	0,203925  	0,103330  	-4069,824482  	25528,890977  	-0,018522  	-0,049986  	0,456033  	0,231075  	-5,666197  	17351,519026  	78094,240340  	11,326612  	-0,047940  
248,575000  	24,362416  	33,764411  	25,002608  	57,696365  	80,440477  	74,584882  	0,007583  	0,012077  	0,003964  	0,004284  	0,004465  	0,000000  	-0,000000  	28,749822  	26,327050  	27,429135  	27,418558  	31,514121  	29,702617  	31,205850  	30,925550  	34,772542  	33,653129  	36,811106  	67,519141  	27,549532  	26,293214  	29,874364  	73,736111  	0,236627  	0,119900  	-4712,920940  	1770,751805  	-0,053841  	-0,049999  	0,394347  	0,199818  	-4,905914  	17393,990555  	78116,292134  	11,329810  	-0,047951  
249,574000  	24,384720  	33,747067  	25,001072  	956,927186  	80,441227  	74,592742  	0,007581  	0,012049  	0,003960  	0,004248  	0,004450  	-0,000000  	-0,000000  	28,755052  	26,329049  	27,436406  	27,424421  	31,515275  	29,697508  	31,213096  	30,931449  	34,774763  	33,654885  	36,813006  	67,525888  	27,554486  	26,282775  	29,867928  	73,734547  	0,207593  	0,105189  	-4117,220030  	22485,451079  	-0,022162  	-0,050003  	0,382986  	0,194062  	-4,758802  	17332,687517  	78083,571028  	11,325064  	-0,047954  
250,574000  	24,396701  	33,737764  	25,001072  	-242,047242  	80,441540  	74,593553  	0,007585  	0,012053  	0,003963  	0,004361  	0,004471  	-0,000001  	-0,000000  	28,755341  	26,330427  	27,430231  	27,418816  	31,514039  	29,698018  	31,210670  	30,929717  	34,769215  	33,646385  	36,808030  	67,522024  	27,545914  	26,281509  	29,860513  	73,726784  	0,299222  	0,151618  	-5921,014670  	-27082,970995  	-0,102889  	-0,050016  	0,399626  	0,202493  	-4,965132  	17341,401838  	78175,358180  	11,338377  	-0,047965  
251,575000  	24,410342  	33,734529  	25,000611  	657,183579  	80,441133  	74,592804  	0,007580  	0,012018  	0,003963  	0,004242  	0,004498  	0,000000  	-0,000000  	28,755031  	26,322513  	27,423064  	27,408446  	31,510806  	29,700409  	31,206287  	30,919683  	34,767857  	33,641759  	36,810029  	67,517671  	27,534013  	26,300834  	29,866768  	73,721441  	0,202363  	0,102539  	-3997,114886  	18452,800094  	-0,027567  	-0,049999  	0,420895  	0,213271  	-5,229703  	17265,690245  	78055,799748  	11,321037  	-0,047950  
252,573000  	24,415934  	33,736870  	25,000304  	57,696365  	80,438634  	74,588749  	0,007582  	0,012054  	0,003960  	0,004307  	0,004458  	-0,000000  	-0,000000  	28,757310  	26,313297  	27,421235  	27,410594  	31,506417  	29,696439  	31,199902  	30,918228  	34,769990  	33,642137  	36,807018  	67,518442  	27,535320  	26,321678  	29,868954  	73,728584  	0,255357  	0,129391  	-5042,120848  	1771,018449  	-0,053846  	-0,050003  	0,389207  	0,197214  	-4,837249  	17344,576857  	78100,044559  	11,327454  	-0,047954  
253,575000  	24,440665  	33,740844  	25,000242  	956,927186  	80,436228  	74,592929  	0,007582  	0,012014  	0,003961  	0,004306  	0,004448  	-0,000000  	-0,000000  	28,749372  	26,313247  	27,413430  	27,409242  	31,504804  	29,688380  	31,200229  	30,922330  	34,760849  	33,647638  	36,800956  	67,518932  	27,525994  	26,354729  	29,868253  	73,726531  	0,254207  	0,128808  	-5008,215561  	22486,382206  	-0,022163  	-0,050006  	0,380923  	0,193016  	-4,728964  	17257,111046  	78112,846321  	11,329311  	-0,047956  
254,574000  	24,473047  	33,743740  	24,999320  	-242,047242  	80,431541  	74,599728  	0,007588  	0,012063  	0,003967  	0,004282  	0,004486  	-0,000000  	-0,000000  	28,741655  	26,312479  	27,420179  	27,404668  	31,496396  	29,684142  	31,191429  	30,916340  	34,755046  	33,638369  	36,796422  	67,516899  	27,511644  	26,368284  	29,861044  	73,722621  	0,234815  	0,118983  	-4611,504953  	-27077,278006  	-0,102868  	-0,050005  	0,411251  	0,208384  	-5,095440  	17363,800291  	78241,478258  	11,347967  	-0,047955  
255,573000  	24,500421  	33,746790  	24,997753  	-242,047242  	80,431166  	74,594208  	0,007581  	0,012052  	0,003958  	0,004269  	0,004448  	0,000000  	-0,000000  	28,739385  	26,313927  	27,416102  	27,402247  	31,494508  	29,687174  	31,198374  	30,912331  	34,755046  	33,639019  	36,800989  	67,516366  	27,519620  	26,395296  	29,858294  	73,719878  	0,224738  	0,113876  	-4402,003329  	-27072,833988  	-0,102852  	-0,049996  	0,380996  	0,193053  	-4,724736  	17340,160978  	78073,989124  	11,323675  	-0,047948  
256,574000  	24,537166  	33,754676  	24,997508  	956,927186  	80,428854  	74,588968  	0,007582  	0,012041  	0,003961  	0,004268  	0,004470  	0,000000  	-0,000000  	28,731893  	26,314711  	27,408604  	27,408006  	31,496503  	29,686633  	31,186496  	30,919501  	34,754914  	33,646464  	36,803509  	67,520703  	27,531771  	26,417116  	29,865128  	73,724032  	0,223428  	0,113212  	-4362,674783  	22483,711641  	-0,022160  	-0,049999  	0,398587  	0,201967  	-4,945368  	17316,468607  	78096,499890  	11,326940  	-0,047950  
257,573000  	24,557597  	33,769525  	24,998460  	-242,047242  	80,430041  	74,590122  	0,007576  	0,012069  	0,003950  	0,004232  	0,004452  	-0,000001  	-0,000000  	28,741150  	26,310941  	27,410807  	27,407060  	31,494983  	29,686870  	31,200409  	30,918724  	34,753317  	33,647665  	36,797712  	67,522160  	27,537770  	26,444488  	29,870093  	73,741652  	0,194862  	0,098738  	-3802,583770  	-27081,386119  	-0,102884  	-0,050013  	0,384130  	0,194641  	-4,766020  	17377,098863  	77967,966808  	11,308298  	-0,047963  
258,575000  	24,548810  	33,783820  	24,998091  	-242,047242  	80,432853  	74,591868  	0,007587  	0,012076  	0,003956  	0,004284  	0,004496  	0,000000  	-0,000000  	28,742551  	26,309396  	27,417961  	27,403904  	31,499322  	29,687076  	31,187277  	30,912808  	34,754132  	33,638726  	36,794921  	67,514225  	27,528474  	26,455711  	29,859772  	73,728210  	0,236421  	0,119796  	-4625,138154  	-27073,217715  	-0,102853  	-0,049996  	0,419097  	0,212360  	-5,200818  	17391,851945  	78217,399930  	11,344475  	-0,047948  
259,574000  	24,512311  	33,802859  	24,996616  	657,183579  	80,429479  	74,594052  	0,007584  	0,012026  	0,003958  	0,004280  	0,004491  	0,000001  	-0,000000  	28,729198  	26,302279  	27,404921  	27,375987  	31,491311  	29,671513  	31,181074  	30,903233  	34,745286  	33,638043  	36,788804  	67,511777  	27,525029  	26,470081  	29,864792  	73,726058  	0,233610  	0,118372  	-4597,642459  	18449,364541  	-0,027562  	-0,049988  	0,414839  	0,210202  	-5,143083  	17283,506569  	78138,576945  	11,333042  	-0,047941  
260,575000  	24,514707  	33,824793  	24,996371  	57,696365  	80,434228  	74,600165  	0,007581  	0,012016  	0,003957  	0,004227  	0,004502  	-0,000001  	-0,000000  	28,737826  	26,323975  	27,408490  	27,408720  	31,492886  	29,677487  	31,193424  	30,912956  	34,751464  	33,643349  	36,795371  	67,514569  	27,541152  	26,507006  	29,870961  	73,735937  	0,190705  	0,096632  	-3761,135529  	1771,458503  	-0,053853  	-0,050010  	0,424124  	0,214907  	-5,256969  	17261,104579  	78073,247710  	11,323567  	-0,047960  
261,573000  	24,538241  	33,837393  	24,997385  	1256,670793  	80,435665  	74,595736  	0,007584  	0,012043  	0,003960  	0,004278  	0,004482  	0,000001  	-0,000000  	28,731538  	26,305462  	27,409165  	27,399039  	31,491266  	29,682457  	31,181188  	30,916840  	34,742992  	33,634640  	36,796317  	67,513706  	27,535203  	26,524314  	29,869387  	73,732613  	0,231699  	0,117404  	-4564,258888  	25531,458875  	-0,018524  	-0,049992  	0,407879  	0,206675  	-5,060693  	17320,013619  	78144,826013  	11,333949  	-0,047944  
262,573000  	24,511266  	33,835360  	24,996094  	1256,670793  	80,435790  	74,596734  	0,007587  	0,012025  	0,003962  	0,004244  	0,004450  	0,000000  	-0,000000  	28,727115  	26,307001  	27,399171  	27,389045  	31,486152  	29,674510  	31,184480  	30,902035  	34,740088  	33,633490  	36,784747  	67,518686  	27,533473  	26,538724  	29,865457  	73,734368  	0,204497  	0,103620  	-4039,211355  	25534,597314  	-0,018526  	-0,049998  	0,382894  	0,194015  	-4,749982  	17281,513693  	78219,638296  	11,344799  	-0,047950  
263,575000  	24,452094  	33,832495  	24,997385  	1256,670793  	80,434634  	74,595330  	0,007582  	0,012056  	0,003965  	0,004331  	0,004425  	0,000002  	-0,000000  	28,732129  	26,316726  	27,414068  	27,398649  	31,498451  	29,680007  	31,183053  	30,905918  	34,748657  	33,637299  	36,795992  	67,516396  	27,529141  	26,539722  	29,874773  	73,728240  	0,274509  	0,139096  	-5454,845211  	25523,322780  	-0,018518  	-0,049974  	0,362479  	0,183671  	-4,496918  	17347,402397  	78095,589009  	11,326808  	-0,047929  
264,573000  	24,415288  	33,836438  	24,997938  	1256,670793  	80,432447  	74,598262  	0,007583  	0,012016  	0,003962  	0,004249  	0,004439  	0,000000  	-0,000000  	28,723029  	26,301505  	27,404370  	27,388895  	31,473825  	29,668949  	31,179844  	30,900766  	34,742682  	33,620630  	36,786994  	67,512849  	27,508338  	26,533696  	29,858241  	73,715512  	0,208672  	0,105736  	-4164,609904  	25534,053252  	-0,018526  	-0,049997  	0,374096  	0,189557  	-4,636979  	17261,284978  	78128,585498  	11,331593  	-0,047949  
265,571000  	24,406225  	33,834590  	24,999228  	1256,670793  	80,439102  	74,592461  	0,007579  	0,012034  	0,003962  	0,004288  	0,004484  	-0,000000  	-0,000000  	28,732287  	26,303900  	27,393843  	27,400268  	31,494068  	29,675416  	31,174937  	30,907009  	34,741443  	33,634901  	36,781697  	67,514931  	27,517436  	26,542250  	29,865418  	73,721271  	0,239880  	0,121549  	-4791,108614  	25536,689171  	-0,018528  	-0,050003  	0,409505  	0,207499  	-5,086702  	17301,736748  	78044,664404  	11,319422  	-0,047954  
266,573000  	24,426502  	33,818755  	24,999290  	1256,670793  	80,437853  	74,589342  	0,007585  	0,012089  	0,003963  	0,004237  	0,004470  	0,000001  	-0,000000  	28,737955  	26,306780  	27,409019  	27,400642  	31,497814  	29,687031  	31,190021  	30,915272  	34,758160  	33,632344  	36,789271  	67,523942  	27,521837  	26,547465  	29,864959  	73,731565  	0,199013  	0,100842  	-3959,654056  	25529,164442  	-0,018523  	-0,049987  	0,398517  	0,201931  	-4,951791  	17420,433477  	78168,826669  	11,337430  	-0,047940  
267,573000  	24,460051  	33,798607  	25,000119  	357,439972  	80,430572  	74,591993  	0,007581  	0,012038  	0,003961  	0,004317  	0,004454  	0,000001  	-0,000000  	28,734598  	26,303526  	27,400386  	27,397937  	31,493176  	29,681794  	31,185214  	30,909421  	34,748024  	33,632739  	36,783267  	67,514224  	27,515440  	26,538409  	29,862884  	73,727556  	0,263107  	0,133318  	-5204,945678  	12493,610037  	-0,036459  	-0,049990  	0,386139  	0,195659  	-4,789847  	17310,187900  	78081,869305  	11,324818  	-0,047943  
268,576000  	24,465827  	33,782156  	24,999873  	-242,047242  	80,420823  	74,588313  	0,007576  	0,012062  	0,003963  	0,004314  	0,004458  	-0,000001  	-0,000000  	28,738350  	26,310438  	27,411594  	27,402407  	31,488826  	29,681134  	31,186700  	30,910683  	34,744509  	33,629551  	36,788770  	67,514843  	27,505803  	26,544075  	29,862251  	73,725273  	0,260663  	0,132080  	-5144,327756  	-27083,947368  	-0,102893  	-0,050019  	0,389249  	0,197236  	-4,823411  	17361,316447  	77972,563580  	11,308964  	-0,047967  
269,578000  	24,466749  	33,778059  	25,002024  	956,927186  	80,420480  	74,582855  	0,007584  	0,012070  	0,003964  	0,004336  	0,004448  	0,000000  	-0,000000  	28,740270  	26,310548  	27,402333  	27,398918  	31,491246  	29,679424  	31,181590  	30,905691  	34,744262  	33,633357  	36,789616  	67,512923  	27,511553  	26,550982  	29,860668  	73,722908  	0,279095  	0,141420  	-5505,124226  	22482,116494  	-0,022159  	-0,049995  	0,381103  	0,193108  	-4,726604  	17378,586623  	78149,535762  	11,334632  	-0,047947  
270,572000  	24,463062  	33,783296  	25,002086  	357,439972  	80,421167  	74,587471  	0,007586  	0,012043  	0,003960  	0,004227  	0,004479  	-0,000000  	-0,000000  	28,737404  	26,309076  	27,400130  	27,397599  	31,498882  	29,682219  	31,186289  	30,907753  	34,747120  	33,633583  	36,790082  	67,513165  	27,521007  	26,559339  	29,864590  	73,723651  	0,190944  	0,096753  	-3769,967356  	12496,242319  	-0,036467  	-0,050003  	0,405466  	0,205453  	-5,025383  	17320,638294  	78197,275814  	11,341556  	-0,047954  
271,573000  	24,479284  	33,788472  	25,002823  	357,439972  	80,422136  	74,584414  	0,007586  	0,012081  	0,003965  	0,004327  	0,004431  	-0,000001  	-0,000000  	28,739476  	26,306785  	27,404609  	27,404839  	31,504058  	29,683270  	31,188191  	30,908721  	34,747427  	33,634137  	36,789705  	67,519352  	27,525404  	26,563795  	29,869666  	73,718744  	0,271926  	0,137787  	-5362,478529  	12497,087581  	-0,036469  	-0,050006  	0,367551  	0,186241  	-4,558597  	17401,173963  	78188,498875  	11,340283  	-0,047957  
272,577000  	24,513325  	33,793339  	25,003745  	-242,047242  	80,422136  	74,583354  	0,007578  	0,012053  	0,003963  	0,004302  	0,004490  	-0,000000  	-0,000000  	28,737301  	26,299094  	27,405828  	27,404769  	31,495993  	29,679810  	31,187672  	30,907293  	34,747815  	33,635569  	36,789705  	67,517041  	27,521354  	26,568438  	29,866617  	73,716990  	0,251137  	0,127253  	-4936,985773  	-27076,217927  	-0,102863  	-0,050002  	0,414560  	0,210061  	-5,142570  	17342,506869  	78023,248108  	11,316315  	-0,047953  
273,573000  	24,537104  	33,792661  	25,004636  	956,927186  	80,420667  	74,590184  	0,007584  	0,012089  	0,003963  	0,004302  	0,004445  	-0,000000  	-0,000000  	28,732299  	26,301729  	27,413264  	27,400524  	31,497229  	29,675851  	31,192826  	30,909494  	34,756443  	33,635805  	36,790249  	67,512801  	27,518184  	26,574736  	29,861985  	73,716279  	0,251582  	0,127478  	-4932,697974  	22484,756986  	-0,022162  	-0,050002  	0,378839  	0,191961  	-4,692781  	17419,631940  	78141,118939  	11,333411  	-0,047953  
274,577000  	24,518302  	33,798207  	25,005988  	-242,047242  	80,422854  	74,591307  	0,007585  	0,012022  	0,003960  	0,004250  	0,004478  	-0,000000  	-0,000000  	28,735986  	26,307083  	27,409426  	27,396796  	31,498468  	29,676117  	31,192652  	30,910623  	34,758446  	33,632209  	36,790081  	67,509734  	27,518346  	26,586507  	29,860494  	73,718048  	0,209256  	0,106032  	-4113,627835  	-27075,205734  	-0,102858  	-0,050000  	0,405175  	0,205305  	-5,019920  	17275,098571  	78162,097447  	11,336454  	-0,047952  
275,573000  	24,491020  	33,809852  	25,005619  	657,183579  	80,425448  	74,589124  	0,007587  	0,012058  	0,003961  	0,004310  	0,004475  	-0,000000  	-0,000000  	28,740327  	26,306393  	27,400416  	27,397461  	31,491061  	29,678746  	31,187508  	30,911414  	34,753146  	33,632760  	36,790164  	67,511150  	27,522102  	26,605632  	29,857757  	73,723732  	0,257718  	0,130588  	-5087,570052  	18453,441198  	-0,027568  	-0,050001  	0,402367  	0,203882  	-4,989219  	17352,019898  	78206,144547  	11,342842  	-0,047952  
276,574000  	24,472094  	33,822051  	25,005988  	1256,670793  	80,426448  	74,585568  	0,007575  	0,012079  	0,003963  	0,004272  	0,004398  	0,000000  	-0,000000  	28,737261  	26,302215  	27,397625  	27,394541  	31,487290  	29,675867  	31,181533  	30,911256  	34,749496  	33,631541  	36,786036  	67,514407  	27,520736  	26,613293  	29,850958  	73,721455  	0,226672  	0,114856  	-4489,630384  	25533,265035  	-0,018526  	-0,049996  	0,341174  	0,172875  	-4,233745  	17397,604897  	77945,456043  	11,305033  	-0,047948  
277,572000  	24,432186  	33,828767  	25,006603  	956,927186  	80,424510  	74,589716  	0,007585  	0,012043  	0,003963  	0,004303  	0,004519  	-0,000000  	-0,000000  	28,732742  	26,299205  	27,394323  	27,388423  	31,488458  	29,673280  	31,178014  	30,907690  	34,743996  	33,625843  	36,780555  	67,511822  	27,515125  	26,613453  	29,854726  	73,717449  	0,251824  	0,127601  	-5012,704490  	22486,000256  	-0,022163  	-0,050005  	0,437619  	0,221745  	-5,424915  	17320,160768  	78162,344585  	11,336490  	-0,047956  
278,574000  	24,407792  	33,823222  	25,008078  	-242,047242  	80,421136  	74,592087  	0,007581  	0,012084  	0,003964  	0,004266  	0,004419  	-0,000000  	-0,000000  	28,729409  	26,306923  	27,402684  	27,397741  	31,498767  	29,678327  	31,182761  	30,905967  	34,745790  	33,635472  	36,784502  	67,515123  	27,522935  	26,622744  	29,868691  	73,723826  	0,222013  	0,112495  	-4428,160968  	-27076,686572  	-0,102863  	-0,050003  	0,358505  	0,181657  	-4,439803  	17409,135562  	78073,643131  	11,323625  	-0,047954  
279,574000  	24,405304  	33,816106  	25,008262  	-242,047242  	80,422417  	74,591744  	0,007583  	0,012030  	0,003961  	0,004268  	0,004518  	0,000000  	-0,000000  	28,733369  	26,307436  	27,400512  	27,396452  	31,495887  	29,680722  	31,181987  	30,907977  	34,749410  	33,635820  	36,792607  	67,512948  	27,527282  	26,622829  	29,860832  	73,728500  	0,224030  	0,113518  	-4466,211826  	-27074,888121  	-0,102856  	-0,049999  	0,436913  	0,221387  	-5,412336  	17291,200045  	78120,267530  	11,330387  	-0,047951  
280,573000  	24,415012  	33,805816  	25,008385  	956,927186  	80,424729  	74,587938  	0,007576  	0,012066  	0,003958  	0,004326  	0,004455  	-0,000000  	-0,000000  	28,740601  	26,312639  	27,406509  	27,397865  	31,491904  	29,680783  	31,192395  	30,922653  	34,749004  	33,628440  	36,796097  	67,508796  	27,540246  	26,636633  	29,860542  	73,724190  	0,271005  	0,137320  	-5391,204866  	22485,478682  	-0,022162  	-0,050004  	0,386607  	0,195897  	-4,794181  	17369,370722  	77981,672390  	11,310285  	-0,047955  
281,576000  	24,411848  	33,787085  	25,009214  	1256,670793  	80,432666  	74,585942  	0,007583  	0,012026  	0,003956  	0,004229  	0,004457  	-0,000001  	-0,000000  	28,732029  	26,299827  	27,413374  	27,398185  	31,485463  	29,669077  	31,186952  	30,913603  	34,746715  	33,625371  	36,779996  	67,509418  	27,535354  	26,641557  	29,857001  	73,723765  	0,191835  	0,097204  	-3809,919177  	25538,267198  	-0,018529  	-0,050007  	0,388379  	0,196794  	-4,824344  	17283,996829  	78121,397305  	11,330551  	-0,047958  
282,572000  	24,389175  	33,778274  	25,009952  	657,183579  	80,436165  	74,583447  	0,007587  	0,012044  	0,003959  	0,004281  	0,004428  	-0,000002  	-0,000000  	28,734590  	26,303869  	27,412764  	27,402546  	31,489514  	29,678397  	31,180959  	30,911894  	34,753131  	33,634356  	36,786764  	67,517137  	27,525355  	26,655206  	29,857825  	73,728219  	0,234027  	0,118583  	-4654,737464  	18459,840522  	-0,027578  	-0,050021  	0,365572  	0,185238  	-4,545701  	17322,187601  	78222,603955  	11,345230  	-0,047970  
283,574000  	24,415258  	33,774393  	25,009675  	657,183579  	80,432697  	74,585693  	0,007584  	0,012023  	0,003959  	0,004266  	0,004476  	-0,000001  	-0,000000  	28,733151  	26,317493  	27,403197  	27,395160  	31,483478  	29,676766  	31,183954  	30,907534  	34,755121  	33,632230  	36,791068  	67,523672  	27,521081  	26,657921  	29,860724  	73,728064  	0,222302  	0,112642  	-4407,424571  	18455,182199  	-0,027571  	-0,050007  	0,403195  	0,204302  	-5,008627  	17277,523697  	78142,453485  	11,333605  	-0,047957  
284,573000  	24,454337  	33,771867  	25,010966  	1256,670793  	80,426948  	74,587751  	0,007576  	0,012022  	0,003958  	0,004290  	0,004522  	-0,000001  	-0,000000  	28,735469  	26,316111  	27,407902  	27,401835  	31,489430  	29,685934  	31,195493  	30,908296  	34,749719  	33,644503  	36,799546  	67,521121  	27,519508  	26,662445  	29,863545  	73,720180  	0,241345  	0,122291  	-4763,683794  	25540,123340  	-0,018531  	-0,050012  	0,439893  	0,222897  	-5,457209  	17274,008397  	77970,593535  	11,308678  	-0,047961  
285,573000  	24,483923  	33,760653  	25,011888  	956,927186  	80,424417  	74,585412  	0,007580  	0,012045  	0,003968  	0,004320  	0,004471  	-0,000001  	-0,000000  	28,725392  	26,298215  	27,407332  	27,402490  	31,485075  	29,673129  	31,193374  	30,913573  	34,748751  	33,627144  	36,788830  	67,508147  	27,515915  	26,661272  	29,859170  	73,718709  	0,265675  	0,134619  	-5220,940306  	22486,593030  	-0,022164  	-0,050007  	0,399630  	0,202496  	-4,957554  	17323,803408  	78070,176134  	11,323122  	-0,047958  
286,574000  	24,473968  	33,757264  	25,011949  	357,439972  	80,425791  	74,583603  	0,007587  	0,012016  	0,003962  	0,004258  	0,004498  	-0,000000  	-0,000000  	28,733363  	26,302224  	27,411540  	27,395430  	31,494548  	29,676243  	31,184156  	30,916225  	34,748322  	33,632425  	36,788864  	67,513555  	27,521472  	26,663959  	29,860968  	73,733135  	0,215438  	0,109164  	-4236,699422  	12495,641521  	-0,036466  	-0,050002  	0,421034  	0,213341  	-5,225922  	17262,563333  	78222,589833  	11,345227  	-0,047953  
287,575000  	24,445765  	33,767615  	25,013424  	1256,670793  	80,428166  	74,581170  	0,007587  	0,012056  	0,003961  	0,004260  	0,004479  	0,000001  	-0,000000  	28,731617  	26,291028  	27,399164  	27,393641  	31,487035  	29,677025  	31,195256  	30,912607  	34,741060  	33,642085  	36,780344  	67,515045  	27,509656  	26,663879  	29,863184  	73,724554  	0,217580  	0,110249  	-4296,603614  	25530,557660  	-0,018524  	-0,049991  	0,405616  	0,205529  	-5,038693  	17349,133517  	78213,742283  	11,343944  	-0,047944  
288,575000  	24,429544  	33,781725  	25,013485  	1256,670793  	80,430791  	74,583229  	0,007585  	0,012019  	0,003963  	0,004273  	0,004542  	-0,000001  	-0,000000  	28,743472  	26,308439  	27,397401  	27,404471  	31,494962  	29,685562  	31,190352  	30,910850  	34,750280  	33,636599  	36,797740  	67,512129  	27,522124  	26,669724  	29,855566  	73,721426  	0,227642  	0,115348  	-4509,937008  	25537,820224  	-0,018529  	-0,050007  	0,455725  	0,230919  	-5,661717  	17268,912662  	78167,252045  	11,337201  	-0,047957  
289,573000  	24,436794  	33,787363  	25,014991  	956,927186  	80,432416  	74,582574  	0,007582  	0,012061  	0,003963  	0,004253  	0,004452  	0,000000  	-0,000000  	28,736427  	26,310934  	27,406009  	27,387984  	31,490653  	29,680709  	31,187689  	30,903813  	34,748982  	33,628372  	36,787503  	67,515049  	27,509679  	26,678180  	29,860057  	73,722070  	0,211542  	0,107190  	-4190,250553  	22482,130664  	-0,022159  	-0,049996  	0,384601  	0,194880  	-4,779971  	17359,518827  	78108,235427  	11,328642  	-0,047948  
290,574000  	24,479806  	33,783419  	25,015544  	357,439972  	80,434915  	74,586504  	0,007583  	0,012053  	0,003963  	0,004281  	0,004485  	-0,000001  	-0,000000  	28,741108  	26,309139  	27,407628  	27,393654  	31,493935  	29,688822  	31,191993  	30,911739  	34,747482  	33,637395  	36,787684  	67,516428  	27,512329  	26,676595  	29,863233  	73,735852  	0,234028  	0,118584  	-4612,358632  	12499,057863  	-0,036476  	-0,050018  	0,410764  	0,208137  	-5,103884  	17341,932423  	78119,985086  	11,330346  	-0,047967  
291,573000  	24,491511  	33,776395  	25,016189  	1256,670793  	80,441790  	74,587190  	0,007583  	0,012056  	0,003963  	0,004275  	0,004485  	0,000001  	-0,000000  	28,735831  	26,315626  	27,405035  	27,400810  	31,488463  	29,679554  	31,185462  	30,902686  	34,749212  	33,633527  	36,785240  	67,507821  	27,506356  	26,655667  	29,857715  	73,730663  	0,229617  	0,116349  	-4516,309756  	25529,671475  	-0,018523  	-0,049989  	0,410704  	0,208107  	-5,108542  	17348,837097  	78127,604006  	11,331451  	-0,047942  
292,578000  	24,508900  	33,774547  	25,016435  	57,696365  	80,443289  	74,591744  	0,007578  	0,012055  	0,003961  	0,004328  	0,004442  	-0,000000  	-0,000000  	28,727487  	26,310802  	27,397175  	27,393355  	31,486429  	29,673128  	31,184806  	30,900578  	34,739907  	33,630545  	36,773143  	67,505154  	27,508145  	26,630815  	29,856119  	73,725456  	0,272009  	0,137829  	-5339,019803  	1770,016786  	-0,053842  	-0,050001  	0,376626  	0,190839  	-4,682216  	17347,006227  	78028,473317  	11,317073  	-0,047952  
293,578000  	24,534401  	33,781971  	25,016589  	57,696365  	80,443133  	74,587627  	0,007582  	0,012017  	0,003964  	0,004336  	0,004511  	0,000000  	-0,000000  	28,733580  	26,304229  	27,399592  	27,395624  	31,492184  	29,674843  	31,185712  	30,903730  	34,746056  	33,629580  	36,780179  	67,509894  	27,511054  	26,627914  	29,857801  	73,733557  	0,279191  	0,141468  	-5469,302153  	1769,969558  	-0,053840  	-0,049999  	0,431052  	0,218417  	-5,362470  	17263,666949  	78109,915967  	11,328886  	-0,047951  
294,571000  	24,522603  	33,793185  	25,016773  	657,183579  	80,437134  	74,590122  	0,007580  	0,012101  	0,003965  	0,004256  	0,004478  	-0,000001  	-0,000000  	28,728711  	26,307531  	27,397232  	27,395142  	31,488732  	29,679623  	31,182229  	30,911121  	34,748209  	33,629539  	36,781390  	67,513770  	27,505317  	26,612279  	29,858579  	73,731469  	0,214070  	0,108471  	-4204,030642  	18455,211468  	-0,027571  	-0,050008  	0,405228  	0,205332  	-5,033896  	17444,788018  	78060,431825  	11,321708  	-0,047958  
295,574000  	24,510897  	33,805200  	25,016497  	-242,047242  	80,434978  	74,592118  	0,007589  	0,012054  	0,003957  	0,004366  	0,004457  	0,000000  	-0,000000  	28,723929  	26,304692  	27,398564  	27,400313  	31,490509  	29,674846  	31,185421  	30,912624  	34,743445  	33,628137  	36,782664  	67,512844  	27,505333  	26,590414  	29,872251  	73,730311  	0,302873  	0,153468  	-5963,208456  	-27074,252107  	-0,102850  	-0,049998  	0,388162  	0,196685  	-4,818478  	17343,577943  	78249,132483  	11,349077  	-0,047949  
296,578000  	24,491665  	33,818016  	25,015759  	956,927186  	80,431166  	74,592305  	0,007582  	0,012055  	0,003964  	0,004295  	0,004476  	-0,000002  	-0,000000  	28,726304  	26,295425  	27,399573  	27,392927  	31,483371  	29,663991  	31,174141  	30,902325  	34,742033  	33,622331  	36,776617  	67,505833  	27,506228  	26,569274  	29,871307  	73,722375  	0,245802  	0,124550  	-4856,249747  	22493,206157  	-0,022170  	-0,050024  	0,402888  	0,204146  	-4,997854  	17345,048723  	78105,347440  	11,328223  	-0,047972  
297,577000  	24,477840  	33,826611  	25,014930  	1256,670793  	80,429010  	74,593989  	0,007579  	0,012010  	0,003955  	0,004316  	0,004448  	0,000001  	-0,000000  	28,730004  	26,304939  	27,403462  	27,392507  	31,483613  	29,668845  	31,179429  	30,906339  	34,746608  	33,625264  	36,772578  	67,515035  	27,516319  	26,555854  	29,873414  	73,725260  	0,262606  	0,133064  	-5200,710642  	25531,565362  	-0,018525  	-0,049993  	0,380686  	0,192896  	-4,719329  	17248,476665  	78040,731375  	11,318851  	-0,047946  
298,577000  	24,467025  	33,828274  	25,013946  	1256,670793  	80,433634  	74,600227  	0,007581  	0,012048  	0,003960  	0,004260  	0,004485  	0,000000  	-0,000000  	28,730763  	26,308151  	27,405950  	27,395566  	31,493978  	29,676107  	31,182901  	30,905809  	34,747506  	33,627902  	36,775113  	67,523524  	27,517146  	26,535123  	29,867846  	73,725204  	0,217438  	0,110178  	-4311,955162  	25534,138416  	-0,018526  	-0,049999  	0,410718  	0,208114  	-5,090234  	17331,735294  	78077,795054  	11,324227  	-0,047950  
299,571000  	24,452094  	33,823191  	25,013485  	1256,670793  	80,434540  	74,596921  	0,007585  	0,012042  	0,003959  	0,004275  	0,004460  	-0,000001  	-0,000000  	28,731736  	26,308445  	27,401676  	27,390372  	31,496342  	29,676859  	31,183936  	30,904532  	34,748610  	33,628797  	36,782277  	67,515661  	27,513759  	26,523239  	29,863209  	73,725062  	0,229482  	0,116280  	-4555,581644  	25538,983301  	-0,018530  	-0,050009  	0,390860  	0,198052  	-4,847619  	17318,994897  	78175,704174  	11,338427  	-0,047959  
300,574000  	24,428622  	33,818385  	25,012441  	1256,670793  	80,432603  	74,592118  	0,007585  	0,012063  	0,003958  	0,004255  	0,004465  	0,000001  	-0,000000  	28,727325  	26,303028  	27,398973  	27,384023  	31,490458  	29,668814  	31,184379  	30,905911  	34,745377  	33,624901  	36,776307  	67,508189  	27,512377  	26,515996  	29,861609  	73,720496  	0,212989  	0,107923  	-4236,586480  	25529,792944  	-0,018523  	-0,049989  	0,394366  	0,199828  	-4,893502  	17362,848068  	78167,470939  	11,337233  	-0,047942  
301,574000  	24,433138  	33,810653  	25,011457  	57,696365  	80,434665  	74,596609  	0,007580  	0,012037  	0,003957  	0,004256  	0,004474  	-0,000002  	-0,000000  	28,726176  	26,296514  	27,395478  	27,382056  	31,486985  	29,663643  	31,178830  	30,897097  	34,743506  	33,619102  	36,769837  	67,508189  	27,507820  	26,501825  	29,858386  	73,712181  	0,214234  	0,108554  	-4255,806137  	1770,907992  	-0,053861  	-0,050020  	0,401567  	0,203477  	-4,980780  	17308,258694  	78069,441780  	11,323015  	-0,047968  
302,578000  	24,434367  	33,803505  	25,010474  	1256,670793  	80,434040  	74,593553  	0,007583  	0,012019  	0,003966  	0,004292  	0,004461  	-0,000000  	-0,000000  	28,729869  	26,301025  	27,395547  	27,390208  	31,488521  	29,668067  	31,180073  	30,897716  	34,748529  	33,624533  	36,775301  	67,509378  	27,511656  	26,496507  	29,862838  	73,716877  	0,243211  	0,123237  	-4827,112440  	25535,256953  	-0,018527  	-0,050001  	0,391572  	0,198413  	-4,858837  	17267,949120  	78127,215646  	11,331395  	-0,047952  
303,575000  	24,442293  	33,792138  	25,009921  	357,439972  	80,433728  	74,594707  	0,007592  	0,012075  	0,003959  	0,004266  	0,004440  	-0,000000  	-0,000000  	28,725131  	26,296968  	27,399637  	27,398247  	31,489019  	29,665676  	31,181566  	30,906995  	34,741402  	33,629121  	36,770199  	67,506116  	27,517804  	26,490858  	29,863406  	73,720331  	0,221929  	0,112453  	-4395,643791  	12495,344813  	-0,036465  	-0,050000  	0,375111  	0,190072  	-4,653407  	17388,710177  	78310,804072  	11,358022  	-0,047952  
304,576000  	24,440327  	33,785791  	25,009307  	956,927186  	80,434478  	74,596391  	0,007578  	0,012028  	0,003962  	0,004310  	0,004496  	0,000001  	-0,000000  	28,727972  	26,293181  	27,393391  	27,391928  	31,486539  	29,663812  	31,180365  	30,903339  	34,733736  	33,622253  	36,765150  	67,499368  	27,513152  	26,477210  	29,857295  	73,717526  	0,257506  	0,130480  	-5097,916966  	22480,963095  	-0,022158  	-0,049993  	0,418755  	0,212186  	-5,193996  	17287,474634  	78010,905317  	11,314525  	-0,047945  
305,573000  	24,401248  	33,781417  	25,007985  	956,927186  	80,432666  	74,595674  	0,007584  	0,012067  	0,003962  	0,004253  	0,004488  	0,000000  	-0,000000  	28,736368  	26,299587  	27,400382  	27,396479  	31,492723  	29,669609  	31,186741  	30,907775  	34,745570  	33,622953  	36,772831  	67,505288  	27,512957  	26,476351  	29,861077  	73,723262  	0,211984  	0,107414  	-4212,308479  	22481,885925  	-0,022159  	-0,049995  	0,412771  	0,209154  	-5,118810  	17372,334921  	78154,393794  	11,335336  	-0,047947  
306,573000  	24,380234  	33,779445  	25,007985  	-242,047242  	80,427104  	74,587938  	0,007580  	0,012079  	0,003962  	0,004310  	0,004518  	0,000000  	-0,000000  	28,730502  	26,304323  	27,403153  	27,402288  	31,497189  	29,669977  	31,185677  	30,905967  	34,748212  	33,630539  	36,782845  	67,509582  	27,508645  	26,480161  	29,870110  	73,726050  	0,257572  	0,130513  	-5128,560000  	-27074,162659  	-0,102853  	-0,049998  	0,436482  	0,221169  	-5,414863  	17398,495572  	78064,428404  	11,322288  	-0,047950  
307,572000  	24,395350  	33,779353  	25,006050  	657,183579  	80,425604  	74,585100  	0,007588  	0,012038  	0,003963  	0,004276  	0,004450  	0,000001  	-0,000000  	28,720134  	26,292374  	27,399102  	27,397905  	31,481608  	29,667343  	31,179442  	30,905250  	34,734553  	33,622393  	36,773163  	67,502129  	27,505680  	26,479792  	29,862569  	73,719837  	0,230235  	0,116662  	-4576,832739  	18446,879871  	-0,027559  	-0,049981  	0,382762  	0,193949  	-4,749523  	17309,324816  	78233,110862  	11,346753  	-0,047935  
308,574000  	24,418576  	33,770788  	25,006480  	57,696365  	80,424667  	74,586535  	0,007580  	0,012068  	0,003961  	0,004288  	0,004496  	0,000000  	-0,000000  	28,735319  	26,306415  	27,403134  	27,399359  	31,489183  	29,673623  	31,181934  	30,905048  	34,749052  	33,625633  	36,774659  	67,504636  	27,509251  	26,493721  	29,867858  	73,715361  	0,239691  	0,121453  	-4748,665556  	1770,528881  	-0,053841  	-0,049999  	0,419014  	0,212317  	-5,197239  	17373,969829  	78067,725935  	11,322766  	-0,047950  
309,573000  	24,470251  	33,757326  	25,005496  	1256,670793  	80,419948  	74,582480  	0,007580  	0,012043  	0,003961  	0,004300  	0,004452  	-0,000000  	-0,000000  	28,736763  	26,312174  	27,410535  	27,405905  	31,498756  	29,682451  	31,185218  	30,923023  	34,755579  	33,642600  	36,781745  	67,513984  	27,515819  	26,511794  	29,867386  	73,723198  	0,250064  	0,126709  	-4919,648239  	25535,364055  	-0,018527  	-0,050001  	0,384223  	0,194688  	-4,765163  	17319,894768  	78067,796546  	11,322777  	-0,047952  
310,575000  	24,501097  	33,755231  	25,005066  	1256,670793  	80,421448  	74,587595  	0,007584  	0,012046  	0,003964  	0,004325  	0,004461  	-0,000000  	-0,000000  	28,728022  	26,303266  	27,390060  	27,398851  	31,484174  	29,674342  	31,183487  	30,901752  	34,739798  	33,622611  	36,773878  	67,511403  	27,501679  	26,503390  	29,862462  	73,723465  	0,269634  	0,136625  	-5285,826651  	25535,224664  	-0,018527  	-0,050000  	0,391727  	0,198491  	-4,855225  	17326,173353  	78143,908070  	11,333816  	-0,047952  
311,574000  	24,510775  	33,758373  	25,005343  	1256,670793  	80,421198  	74,588469  	0,007590  	0,012068  	0,003961  	0,004264  	0,004458  	-0,000000  	-0,000000  	28,725186  	26,309694  	27,402334  	27,393092  	31,491119  	29,673475  	31,186290  	30,904463  	34,744656  	33,623310  	36,779547  	67,517066  	27,500973  	26,513425  	29,861307  	73,730449  	0,220674  	0,111817  	-4322,986949  	25535,995457  	-0,018528  	-0,050002  	0,389233  	0,197227  	-4,823389  	17375,043025  	78285,956085  	11,354418  	-0,047953  
312,574000  	24,516858  	33,769587  	25,006203  	1256,670793  	80,420011  	74,589903  	0,007577  	0,012068  	0,003963  	0,004326  	0,004472  	-0,000000  	-0,000000  	28,732140  	26,300076  	27,398097  	27,387971  	31,481616  	29,666754  	31,181560  	30,909708  	34,751199  	33,630958  	36,774109  	67,509148  	27,488639  	26,514789  	29,868618  	73,729626  	0,270708  	0,137170  	-5306,078409  	25536,588384  	-0,018528  	-0,050004  	0,399865  	0,202614  	-4,952912  	17374,411275  	78001,732957  	11,313195  	-0,047954  
313,574000  	24,545615  	33,785761  	25,007064  	57,696365  	80,421542  	74,580297  	0,007583  	0,012042  	0,003963  	0,004314  	0,004464  	-0,000000  	-0,000000  	28,721619  	26,300360  	27,404220  	27,386730  	31,485882  	29,668184  	31,183447  	30,903425  	34,742424  	33,632698  	36,761544  	67,512489  	27,490231  	26,520069  	29,857119  	73,711707  	0,260676  	0,132087  	-5102,497017  	1770,592160  	-0,053844  	-0,050002  	0,394114  	0,199700  	-4,890996  	17318,951035  	78125,923466  	11,331207  	-0,047953  
314,574000  	24,527980  	33,799069  	25,007432  	1256,670793  	80,422979  	74,576929  	0,007581  	0,012070  	0,003963  	0,004302  	0,004435  	0,000001  	-0,000000  	28,732152  	26,308705  	27,406194  	27,396215  	31,495550  	29,671653  	31,180306  	30,903850  	34,746578  	33,636637  	36,770813  	67,516214  	27,486548  	26,547116  	29,866228  	73,717577  	0,250913  	0,127140  	-4927,845383  	25530,854663  	-0,018524  	-0,049991  	0,371126  	0,188052  	-4,609505  	17378,220165  	78086,699092  	11,325518  	-0,047944  
315,573000  	24,502725  	33,808958  	25,008170  	357,439972  	80,425010  	74,583821  	0,007591  	0,012046  	0,003961  	0,004244  	0,004498  	0,000000  	-0,000000  	28,729984  	26,315977  	27,396203  	27,394371  	31,486974  	29,679967  	31,191498  	30,906068  	34,749364  	33,628682  	36,785456  	67,513265  	27,482993  	26,563274  	29,865537  	73,731600  	0,204642  	0,103694  	-4034,341003  	12494,260165  	-0,036462  	-0,049995  	0,420951  	0,213299  	-5,224000  	17327,083836  	78298,574258  	11,356248  	-0,047947  
316,575000  	24,483247  	33,820850  	25,009645  	956,927186  	80,423635  	74,588500  	0,007585  	0,012065  	0,003963  	0,004328  	0,004452  	-0,000001  	-0,000000  	28,725064  	26,305185  	27,396183  	27,388754  	31,478572  	29,680233  	31,180939  	30,899644  	34,737569  	33,620370  	36,767713  	67,505987  	27,471243  	26,573182  	29,862906  	73,717920  	0,272295  	0,137974  	-5386,160893  	22487,469072  	-0,022164  	-0,050009  	0,384320  	0,194738  	-4,764468  	17367,176931  	78162,542296  	11,336518  	-0,047959  
317,574000  	24,448131  	33,829230  	25,010566  	1256,670793  	80,421042  	74,587533  	0,007580  	0,012059  	0,003963  	0,004246  	0,004436  	0,000000  	-0,000000  	28,721432  	26,304696  	27,392044  	27,379506  	31,480997  	29,670238  	31,178885  	30,891418  	34,727096  	33,630093  	36,761417  	67,507035  	27,464974  	26,586282  	29,862300  	73,713758  	0,205825  	0,104293  	-4090,308983  	25533,485035  	-0,018526  	-0,049997  	0,371586  	0,188285  	-4,605316  	17354,998246  	78053,766153  	11,320742  	-0,047949  
