07/02/2020 17:05:04
Tempo T_f_e T_f_s AR AR T_q_e T_q_s Corrente_P_f Corrente_P_q Corrente_P_RESERVA Corrente_eletromag_f Corrente_eletromag_q AR AR T_1 T_2 T_3 T_4 T_5 T_6 T_7 T_8 T_9 T_10 T_11 T_12 T_13 T_14 T_15 T_16 Velocidade_f_(m/s) Vazao_f_(L/s) q_f_(W) AR AR AR Velocidade_q_(m/s) Vazao_q_(L/s) q_q_(W) DeltaP_q_(Pa) DeltaP_f_(Pa) DeltaP_f_(Psi) AR
0,006000  	17,465604  	36,653516  	57,725912  	57,696365  	80,110719  	73,304230  	0,004714  	0,008747  	0,003960  	0,004055  	0,004349  	0,000000  	-0,000000  	24,170261  	20,529710  	21,853105  	23,401115  	29,844762  	27,889901  	29,667936  	30,660471  	37,203373  	35,719929  	39,811970  	66,181530  	22,759470  	21,707371  	23,220466  	72,107568  	0,051482  	0,026086  	-2093,734510  	-1,524886  	-0,051175  	-0,049995  	0,302904  	0,153484  	-4,379340  	10212,382887  	16321,049273  	2,367168  	-0,047947  
2,555000  	17,466463  	36,652591  	1256,818530  	1256,670793  	80,118592  	73,305602  	0,004719  	0,008738  	0,003959  	0,004111  	0,004363  	-0,000001  	-0,000000  	24,162284  	20,526153  	21,851137  	23,398929  	29,834213  	27,887251  	29,676313  	30,650150  	37,205812  	35,734647  	39,813344  	66,178368  	22,763307  	21,715431  	23,224301  	72,103120  	0,096486  	0,048890  	-3923,691364  	-1,993929  	-0,011070  	-0,050010  	0,313790  	0,159000  	-4,541060  	10193,455166  	16408,253776  	2,379816  	-0,047960  
3,558000  	17,478788  	36,653794  	357,499067  	1256,670793  	80,124060  	73,304698  	0,004704  	0,008731  	0,003962  	0,004114  	0,004355  	0,000000  	-0,000000  	24,165828  	20,519454  	21,848014  	23,398563  	29,839204  	27,871110  	29,668688  	30,650503  	37,190957  	35,717132  	39,806097  	66,173105  	22,749242  	21,706211  	23,214705  	72,100073  	0,099337  	0,050335  	-4037,282184  	16230,549222  	-0,015675  	-0,049998  	0,307082  	0,155601  	-4,448145  	10178,495510  	16093,350197  	2,334143  	-0,047950  
4,559000  	17,499881  	36,653300  	957,045375  	57,696365  	80,127996  	73,313178  	0,004717  	0,008726  	0,003962  	0,004123  	0,004343  	-0,000000  	-0,000000  	24,182993  	20,533730  	21,869792  	23,415266  	29,847211  	27,890535  	29,677057  	30,668397  	37,208778  	35,736713  	39,816032  	66,181095  	22,771557  	21,699842  	23,226624  	72,117114  	0,106651  	0,054041  	-4329,632760  	-21307,236718  	-0,021695  	-0,050001  	0,298165  	0,151082  	-4,316103  	10166,587776  	16364,820991  	2,373517  	-0,047952  
5,558000  	17,500188  	36,653393  	957,045375  	1256,670793  	80,124466  	73,319258  	0,004718  	0,008732  	0,003962  	0,004163  	0,004355  	0,000001  	-0,000000  	24,168952  	20,528897  	21,853253  	23,406178  	29,842916  	27,893712  	29,679016  	30,660691  	37,197097  	35,731045  	39,809209  	66,184834  	22,759578  	21,672611  	23,236856  	72,113035  	0,138427  	0,070142  	-5619,551425  	4415,743988  	-0,012268  	-0,049987  	0,307167  	0,155644  	-4,440154  	10180,966619  	16400,430085  	2,378681  	-0,047940  
6,556000  	17,493136  	36,654626  	357,499067  	1256,670793  	80,119592  	73,311650  	0,004705  	0,008732  	0,003961  	0,004078  	0,004335  	0,000001  	-0,000000  	24,164244  	20,524321  	21,846154  	23,402859  	29,840939  	27,892369  	29,676096  	30,661470  	37,192690  	35,734121  	39,813457  	66,169555  	22,772214  	21,653130  	23,233666  	72,111807  	0,069886  	0,035412  	-2838,307046  	16227,316248  	-0,015672  	-0,049987  	0,291738  	0,147826  	-4,218815  	10181,025337  	16121,813465  	2,338271  	-0,047940  
7,560000  	17,497643  	36,649446  	357,499067  	1256,670793  	80,112375  	73,319008  	0,004718  	0,008731  	0,003961  	0,004095  	0,004346  	-0,000000  	-0,000000  	24,171002  	20,525756  	21,857184  	23,411971  	29,842364  	27,892506  	29,676343  	30,659103  	37,197389  	35,731921  	39,814040  	66,175818  	22,772575  	21,623137  	23,247204  	72,108736  	0,083393  	0,042256  	-3385,139498  	16231,501285  	-0,015676  	-0,050002  	0,300330  	0,152179  	-4,333766  	10178,566254  	16406,446136  	2,379554  	-0,047953  
8,556000  	17,486606  	36,645500  	957,045375  	57,696365  	80,108126  	73,318447  	0,004715  	0,008740  	0,003960  	0,004098  	0,004346  	0,000001  	-0,000000  	24,172873  	20,527578  	21,854454  	23,416118  	29,841913  	27,886145  	29,674787  	30,662287  	37,201647  	35,734158  	39,820382  	66,175397  	22,771863  	21,614373  	23,247435  	72,111538  	0,085774  	0,043462  	-3483,105717  	-21303,741670  	-0,021692  	-0,049992  	0,300461  	0,152246  	-4,333301  	10197,002301  	16338,963267  	2,369766  	-0,047945  
9,559000  	17,466524  	36,648305  	1256,818530  	-242,047242  	80,103314  	73,318852  	0,004705  	0,008745  	0,003960  	0,004117  	0,004369  	0,000000  	-0,000000  	24,165783  	20,522781  	21,849574  	23,408880  	29,841533  	27,879043  	29,673870  	30,660778  	37,194301  	35,725349  	39,814130  	66,181436  	22,771067  	21,600196  	23,238009  	72,105997  	0,101213  	0,051285  	-4114,950837  	-35509,396553  	-0,021694  	-0,050000  	0,318845  	0,161561  	-4,594904  	10207,959226  	16107,105207  	2,336138  	-0,047951  
10,555000  	17,445860  	36,654040  	1256,818530  	357,439972  	80,101502  	73,314737  	0,004719  	0,008704  	0,003960  	0,004133  	0,004362  	0,000000  	-0,000000  	24,174157  	20,525624  	21,851359  	23,411697  	29,848375  	27,886284  	29,671105  	30,663062  	37,202701  	35,735003  	39,815210  	66,182212  	22,775196  	21,582044  	23,247828  	72,113289  	0,114575  	0,058056  	-4664,623680  	-16233,245732  	-0,015674  	-0,049997  	0,312961  	0,158579  	-4,511634  	10119,813560  	16428,173120  	2,382705  	-0,047948  
11,560000  	17,425166  	36,658943  	1256,818530  	357,439972  	80,102564  	73,315298  	0,004714  	0,008754  	0,003962  	0,004099  	0,004339  	-0,000001  	-0,000001  	24,170581  	20,523454  	21,847575  	23,411439  	29,848503  	27,886999  	29,666693  	30,662695  	37,205127  	35,737487  	39,809282  	66,170999  	22,771532  	21,570546  	23,246799  	72,113607  	0,087106  	0,044137  	-3551,057623  	-16237,058298  	-0,015678  	-0,050010  	0,294596  	0,149274  	-4,247211  	10227,076544  	16314,242380  	2,366181  	-0,047960  
12,556000  	17,418789  	36,656970  	1256,818530  	956,927186  	80,106626  	73,315984  	0,004708  	0,008713  	0,003961  	0,004130  	0,004359  	-0,000000  	-0,000000  	24,164144  	20,522795  	21,847989  	23,411057  	29,845259  	27,886712  	29,674582  	30,664262  	37,201613  	35,731447  	39,805680  	66,166575  	22,767522  	21,562182  	23,243290  	72,111497  	0,111966  	0,056734  	-4565,549117  	-4420,979334  	-0,012271  	-0,050004  	0,310749  	0,157459  	-4,482316  	10139,350392  	16187,432205  	2,347789  	-0,047955  
13,556000  	17,433995  	36,660053  	1256,818530  	1256,670793  	80,103064  	73,310154  	0,004720  	0,008729  	0,003962  	0,004123  	0,004357  	-0,000000  	-0,000000  	24,175142  	20,529744  	21,851473  	23,410952  	29,843189  	27,886079  	29,676999  	30,661267  	37,203434  	35,734476  	39,811454  	66,173810  	22,771778  	21,554792  	23,250012  	72,117731  	0,106261  	0,053843  	-4330,198502  	-1,993725  	-0,011069  	-0,050005  	0,309286  	0,156718  	-4,462700  	10173,093451  	16443,947603  	2,384993  	-0,047955  
14,557000  	17,452084  	36,662150  	657,272221  	1256,670793  	80,100440  	73,307846  	0,004709  	0,008751  	0,003960  	0,004088  	0,004360  	-0,000000  	-0,000000  	24,181524  	20,531255  	21,856297  	23,414438  	29,848087  	27,885703  	29,679490  	30,659333  	37,207860  	35,738909  	39,814008  	66,183206  	22,775039  	21,545951  	23,250388  	72,122177  	0,077883  	0,039464  	-3171,130806  	9722,959972  	-0,013766  	-0,050002  	0,311219  	0,157697  	-4,490382  	10221,520262  	16193,667150  	2,348693  	-0,047953  
15,555000  	17,457234  	36,660115  	657,272221  	1256,670793  	80,100002  	73,317512  	0,004712  	0,008763  	0,003959  	0,004083  	0,004324  	-0,000000  	-0,000000  	24,178068  	20,531975  	21,862602  	23,420846  	29,855448  	27,891415  	29,686157  	30,664862  	37,210218  	35,736849  	39,817329  	66,185185  	22,772403  	21,534418  	23,246026  	72,123832  	0,074224  	0,037610  	-3021,020492  	9723,157191  	-0,013766  	-0,050003  	0,283238  	0,143519  	-4,080582  	10247,240881  	16277,093968  	2,360793  	-0,047954  
16,703000  	17,438165  	36,656661  	1256,818530  	57,696365  	80,094753  	73,320505  	0,004722  	0,008729  	0,003961  	0,004094  	0,004341  	-0,000000  	-0,000000  	24,173306  	20,535497  	21,857649  	23,416602  	29,851523  	27,890956  	29,681896  	30,663510  	37,202927  	35,735650  	39,820770  	66,178055  	22,765453  	21,519297  	23,247007  	72,118195  	0,082968  	0,042040  	-3379,642930  	-24495,133674  	-0,018201  	-0,050004  	0,296700  	0,150340  	-4,269336  	10173,229988  	16475,793133  	2,389612  	-0,047955  
17,557000  	17,413515  	36,647535  	57,725912  	1256,670793  	80,089380  	73,309530  	0,004708  	0,008766  	0,003961  	0,004107  	0,004336  	0,000000  	-0,000000  	24,171587  	20,530438  	21,849846  	23,408865  	29,846643  	27,885683  	29,680214  	30,662076  	37,196329  	35,739181  	39,816324  	66,170532  	22,759133  	21,500143  	23,252056  	72,110276  	0,093302  	0,047277  	-3803,696327  	24489,321489  	-0,018200  	-0,049996  	0,292707  	0,148317  	-4,215355  	10253,501779  	16187,312166  	2,347771  	-0,047948  
18,557000  	17,409652  	36,642725  	657,272221  	1256,670793  	80,088255  	73,303045  	0,004713  	0,008809  	0,003962  	0,004139  	0,004379  	-0,000000  	-0,000000  	24,180244  	20,523487  	21,852456  	23,409549  	29,847103  	27,889157  	29,682874  	30,669730  	37,204083  	35,738250  	39,814795  	66,170461  	22,756249  	21,485779  	23,258414  	72,119657  	0,118921  	0,060258  	-4847,882795  	9722,598998  	-0,013766  	-0,050000  	0,326271  	0,165324  	-4,702429  	10346,361160  	16280,144360  	2,361235  	-0,047952  
19,559000  	17,408549  	36,644945  	657,272221  	1256,670793  	80,087286  	73,309281  	0,004719  	0,008769  	0,003963  	0,004111  	0,004397  	-0,000001  	-0,000000  	24,174776  	20,521428  	21,849957  	23,413531  	29,843291  	27,887536  	29,682220  	30,666582  	37,205916  	35,732395  	39,813083  	66,176883  	22,745153  	21,479761  	23,255279  	72,124731  	0,096421  	0,048857  	-3931,307523  	9724,095581  	-0,013768  	-0,050009  	0,340293  	0,172429  	-4,899322  	10259,290104  	16426,266625  	2,382429  	-0,047959  
20,556000  	17,400884  	36,648645  	57,725912  	1256,670793  	80,090348  	73,324558  	0,004706  	0,008794  	0,003961  	0,004155  	0,004332  	0,000000  	-0,000000  	24,173517  	20,527113  	21,853257  	23,417990  	29,849046  	27,885011  	29,683613  	30,661650  	37,205173  	35,735049  	39,812094  	66,176931  	22,736328  	21,481255  	23,253278  	72,124725  	0,132155  	0,066964  	-5391,467974  	24488,885675  	-0,018199  	-0,049995  	0,288810  	0,146342  	-4,150613  	10314,387424  	16131,847278  	2,339727  	-0,047947  
21,561000  	17,381907  	36,646640  	-242,047242  	1256,670793  	80,101502  	73,313770  	0,004717  	0,008819  	0,003960  	0,004093  	0,004382  	-0,000001  	-0,000000  	24,172619  	20,531380  	21,854795  	23,407192  	29,838863  	27,892204  	29,671889  	30,661689  	37,201072  	35,730229  	39,823904  	66,176929  	22,739052  	21,490276  	23,258274  	72,125304  	0,081720  	0,041408  	-3336,849023  	35518,820571  	-0,021703  	-0,050016  	0,328635  	0,166522  	-4,738270  	10368,126448  	16364,482058  	2,373467  	-0,047965  
22,560000  	17,368111  	36,646764  	357,499067  	1256,670793  	80,102752  	73,314394  	0,004720  	0,008794  	0,003959  	0,004105  	0,004389  	-0,000001  	-0,000000  	24,165908  	20,523684  	21,843711  	23,407912  	29,831901  	27,877529  	29,669916  	30,659211  	37,199667  	35,730540  	39,811903  	66,178374  	22,728598  	21,473739  	23,251226  	72,125423  	0,091838  	0,046535  	-3752,722650  	16233,500498  	-0,015678  	-0,050008  	0,334508  	0,169498  	-4,823397  	10313,671488  	16431,329429  	2,383163  	-0,047959  
23,559000  	17,355510  	36,644451  	1256,818530  	357,439972  	80,105064  	73,320099  	0,004705  	0,008795  	0,003962  	0,004080  	0,004332  	0,000000  	-0,000000  	24,166042  	20,528015  	21,856583  	23,409957  	29,839086  	27,889312  	29,679143  	30,664958  	37,202588  	35,733382  	39,818869  	66,170556  	22,727438  	21,476242  	23,255333  	72,115760  	0,071772  	0,036367  	-2934,334080  	-16232,442085  	-0,015673  	-0,049994  	0,288857  	0,146366  	-4,163054  	10315,651630  	16113,721452  	2,337098  	-0,047946  
24,558000  	17,361764  	36,645993  	57,725912  	956,927186  	80,103751  	73,329577  	0,004718  	0,008827  	0,003961  	0,004147  	0,004355  	-0,000001  	-0,000000  	24,167044  	20,526446  	21,849564  	23,404870  	29,848228  	27,887440  	29,673766  	30,667559  	37,199901  	35,740757  	39,824176  	66,179312  	22,719498  	21,478086  	23,262109  	72,120444  	0,125925  	0,063807  	-5147,052516  	21309,165956  	-0,021701  	-0,050013  	0,307180  	0,155651  	-4,420103  	10385,359128  	16390,939975  	2,377305  	-0,047962  
25,559000  	17,379393  	36,644205  	57,725912  	956,927186  	80,100096  	73,332009  	0,004714  	0,008801  	0,003962  	0,004116  	0,004341  	0,000001  	-0,000000  	24,152565  	20,521553  	21,847354  	23,418905  	29,851856  	27,883601  	29,680248  	30,668111  	37,197749  	35,731332  	39,819324  	66,183099  	22,714799  	21,457731  	23,261108  	72,123163  	0,100690  	0,051020  	-4111,448937  	21301,593188  	-0,021693  	-0,049993  	0,296294  	0,150135  	-4,259631  	10329,278458  	16320,103087  	2,367031  	-0,047945  
26,557000  	17,383746  	36,637236  	657,272221  	357,439972  	80,092660  	73,332446  	0,004706  	0,008792  	0,003962  	0,004128  	0,004408  	-0,000000  	-0,000000  	24,172786  	20,527611  	21,863274  	23,406420  	29,855316  	27,888736  	29,674352  	30,673770  	37,209066  	35,729512  	39,826409  	66,182980  	22,702028  	21,457608  	23,260541  	72,132066  	0,110118  	0,055798  	-4493,791968  	-7104,047156  	-0,021697  	-0,050004  	0,349240  	0,176962  	-5,014956  	10309,813077  	16142,912011  	2,341331  	-0,047955  
27,564000  	17,386138  	36,634276  	-242,047242  	1256,670793  	80,089005  	73,340396  	0,004719  	0,008752  	0,003961  	0,004115  	0,004353  	0,000000  	-0,000000  	24,167915  	20,529440  	21,844228  	23,413963  	29,846283  	27,885032  	29,686500  	30,670021  	37,205567  	35,729205  	39,818573  	66,173697  	22,709322  	21,463752  	23,260670  	72,123687  	0,100069  	0,050706  	-4082,578816  	35507,431218  	-0,021696  	-0,049998  	0,305761  	0,154931  	-4,383077  	10223,798238  	16423,618715  	2,382045  	-0,047949  
28,559000  	17,393066  	36,630638  	957,045375  	1256,670793  	80,088005  	73,348378  	0,004714  	0,008768  	0,003960  	0,004090  	0,004352  	-0,000000  	-0,000000  	24,165301  	20,529930  	21,851542  	23,407962  	29,837011  	27,889494  	29,681915  	30,656792  	37,196797  	35,736864  	39,823541  	66,167621  	22,694621  	21,447703  	23,256178  	72,124062  	0,079706  	0,040388  	-3250,026217  	4416,821035  	-0,012271  	-0,050001  	0,304865  	0,154477  	-4,364423  	10258,144748  	16314,567190  	2,366228  	-0,047952  
29,560000  	17,370809  	36,623608  	-242,047242  	956,927186  	80,088630  	73,345790  	0,004708  	0,008772  	0,003962  	0,004104  	0,004324  	0,000000  	-0,000000  	24,171222  	20,527478  	21,860860  	23,409488  	29,849797  	27,894630  	29,683286  	30,662648  	37,204058  	35,736417  	39,825213  	66,183442  	22,679336  	21,448524  	23,257479  	72,134166  	0,091089  	0,046156  	-3717,115659  	34193,264964  	-0,026853  	-0,050000  	0,283084  	0,143441  	-4,054546  	10266,324948  	16191,386417  	2,348362  	-0,047951  
30,556000  	17,364861  	36,627370  	357,499067  	357,439972  	80,089817  	73,318229  	0,004721  	0,008718  	0,003961  	0,004108  	0,004336  	-0,000000  	-0,000000  	24,172710  	20,534344  	21,846112  	23,407548  	29,845829  	27,890556  	29,685593  	30,673844  	37,207069  	35,738098  	39,818435  	66,180997  	22,679994  	21,452422  	23,262997  	72,133961  	0,093961  	0,047611  	-3836,249612  	-1,685286  	-0,026853  	-0,050001  	0,292197  	0,148058  	-4,202886  	10150,469323  	16461,077815  	2,387477  	-0,047953  
31,557000  	17,380588  	36,631810  	1256,818530  	1256,670793  	80,083756  	73,308439  	0,004713  	0,008745  	0,003961  	0,004124  	0,004347  	-0,000001  	-0,000000  	24,161537  	20,528247  	21,844265  	23,401323  	29,834021  	27,879835  	29,675607  	30,659375  	37,203442  	35,734959  	39,821284  	66,168777  	22,654985  	21,433856  	23,258849  	72,127204  	0,107458  	0,054450  	-4384,726425  	-1,993838  	-0,011070  	-0,050008  	0,300784  	0,152409  	-4,328775  	10208,372375  	16280,568026  	2,361297  	-0,047958  
32,559000  	17,384513  	36,630145  	1256,818530  	1256,670793  	80,078445  	73,305633  	0,004709  	0,008743  	0,003963  	0,004095  	0,004372  	0,000000  	-0,000000  	24,173289  	20,524735  	21,857215  	23,412150  	29,842138  	27,883855  	29,685278  	30,671890  	37,214859  	35,742117  	39,828305  	66,184936  	22,656570  	21,439590  	23,268195  	72,128560  	0,083674  	0,042398  	-3413,228266  	-1,993501  	-0,011068  	-0,049998  	0,321211  	0,162760  	-4,621051  	10202,830949  	16212,590880  	2,351438  	-0,047950  
33,561000  	17,368356  	36,623485  	1256,818530  	956,927186  	80,080975  	73,305726  	0,004724  	0,008732  	0,003961  	0,004159  	0,004409  	0,000001  	-0,000000  	24,164914  	20,524272  	21,849178  	23,411793  	29,835437  	27,885943  	29,682504  	30,654145  	37,200560  	35,738504  	39,815494  	66,179284  	22,653567  	21,435213  	23,267569  	72,127988  	0,135499  	0,068658  	-5530,040327  	-4419,994573  	-0,012269  	-0,049992  	0,350141  	0,177419  	-5,039052  	10179,898375  	16522,975359  	2,396455  	-0,047944  
34,556000  	17,356829  	36,615160  	1256,818530  	357,439972  	80,082975  	73,303980  	0,004705  	0,008748  	0,003960  	0,004077  	0,004346  	-0,000000  	-0,000000  	24,163865  	20,526831  	21,848386  	23,411334  	29,842365  	27,883683  	29,677271  	30,660957  	37,200600  	35,732077  	39,823252  	66,182031  	22,644974  	21,432276  	23,270568  	72,131162  	0,069017  	0,034972  	-2817,238703  	-16234,400082  	-0,015675  	-0,050001  	0,300645  	0,152339  	-4,329120  	10214,789619  	16118,042841  	2,337724  	-0,047952  
35,559000  	17,362807  	36,611090  	1256,818530  	357,439972  	80,080663  	73,298368  	0,004715  	0,008725  	0,003960  	0,004121  	0,004385  	-0,000001  	-0,000000  	24,159998  	20,526194  	21,846425  	23,409163  	29,836156  	27,874548  	29,672138  	30,659196  	37,197736  	35,726487  	39,817956  	66,174889  	22,634942  	21,432562  	23,266604  	72,122175  	0,105021  	0,053215  	-4284,648780  	-16236,152412  	-0,015677  	-0,050007  	0,331536  	0,167992  	-4,776255  	10164,316874  	16342,232553  	2,370240  	-0,047957  
36,555000  	17,378565  	36,610905  	57,725912  	956,927186  	80,079663  	73,288205  	0,004721  	0,008756  	0,003961  	0,004113  	0,004318  	0,000000  	-0,000000  	24,162464  	20,523110  	21,844063  	23,402960  	29,835061  	27,875312  	29,672166  	30,648924  	37,201026  	35,728320  	39,818650  	66,181809  	22,635574  	21,429344  	23,262282  	72,131666  	0,098474  	0,049898  	-4014,206967  	21303,806982  	-0,021696  	-0,049999  	0,278305  	0,141019  	-4,014799  	10231,411066  	16453,162329  	2,386329  	-0,047950  
37,557000  	17,395335  	36,613001  	1256,818530  	57,696365  	80,081600  	73,282374  	0,004704  	0,008766  	0,003960  	0,004125  	0,004379  	-0,000001  	-0,000000  	24,161898  	20,521875  	21,845003  	23,396581  	29,838557  	27,878254  	29,666367  	30,651563  	37,203868  	35,731386  	39,818645  	66,184115  	22,632101  	21,422591  	23,258478  	72,135125  	0,107988  	0,054718  	-4398,656173  	-24498,317391  	-0,018204  	-0,050011  	0,326326  	0,165352  	-4,712923  	10252,778062  	16095,835702  	2,334504  	-0,047961  
38,557000  	17,398156  	36,607020  	657,272221  	1256,670793  	80,079663  	73,293910  	0,004716  	0,008712  	0,003962  	0,004144  	0,004370  	0,000001  	-0,000000  	24,154177  	20,521540  	21,844333  	23,400477  	29,832492  	27,879006  	29,662213  	30,651982  	37,196532  	35,727510  	39,815709  	66,178502  	22,634869  	21,412793  	23,261763  	72,131665  	0,123658  	0,062658  	-5034,640279  	9720,885262  	-0,013763  	-0,049990  	0,319231  	0,161757  	-4,601328  	10138,080526  	16347,789634  	2,371046  	-0,047943  
39,559000  	17,387762  	36,597307  	657,272221  	1256,670793  	80,080663  	73,292195  	0,004718  	0,008769  	0,003963  	0,004110  	0,004400  	0,000001  	-0,000000  	24,150594  	20,513230  	21,843737  	23,398635  	29,830522  	27,876604  	29,661028  	30,645398  	37,191748  	35,723186  	39,809675  	66,177622  	22,631752  	21,397001  	23,266299  	72,133919  	0,095624  	0,048453  	-3893,387223  	9721,319570  	-0,013764  	-0,049993  	0,342742  	0,173670  	-4,942184  	10259,473332  	16393,439602  	2,377667  	-0,047945  
40,557000  	17,382551  	36,589168  	1256,818530  	1256,670793  	80,081413  	73,295375  	0,004706  	0,008719  	0,003961  	0,004118  	0,004346  	0,000000  	-0,000000  	24,154621  	20,505932  	21,842943  	23,390080  	29,827199  	27,870459  	29,663160  	30,644500  	37,193921  	35,721963  	39,805602  	66,179956  	22,633717  	21,389860  	23,260833  	72,132276  	0,101933  	0,051650  	-4149,655744  	-1,993496  	-0,011068  	-0,049998  	0,300262  	0,152145  	-4,328101  	10151,545349  	16127,878944  	2,339151  	-0,047950  
41,561000  	17,391533  	36,583957  	-242,047242  	-242,047242  	80,088036  	73,299054  	0,004719  	0,008750  	0,003960  	0,004106  	0,004334  	-0,000000  	-0,000000  	24,159854  	20,509117  	21,843314  	23,390506  	29,828725  	27,870080  	29,665069  	30,648824  	37,194460  	35,725390  	39,809727  	66,182476  	22,648217  	21,393537  	23,264199  	72,136414  	0,092341  	0,046790  	-3756,355142  	-0,000000  	-0,544443  	-0,050001  	0,290515  	0,147206  	-4,189415  	10220,028258  	16417,334342  	2,381133  	-0,047952  
42,555000  	17,384911  	36,585868  	357,499067  	357,439972  	80,094535  	73,289015  	0,004718  	0,008735  	0,003960  	0,004102  	0,004363  	0,000000  	-0,000000  	24,156608  	20,512215  	21,844645  	23,392482  	29,838385  	27,872016  	29,661013  	30,649740  	37,194075  	35,725735  	39,816182  	66,182542  	22,646935  	21,390421  	23,265634  	72,144070  	0,089362  	0,045280  	-3636,788170  	-1,685183  	-0,026851  	-0,049998  	0,313894  	0,159052  	-4,537574  	10187,161725  	16396,327589  	2,378086  	-0,047950  
43,558000  	17,378381  	36,593083  	1256,818530  	357,439972  	80,093410  	73,284619  	0,004705  	0,008731  	0,003961  	0,004136  	0,004362  	0,000001  	-0,000000  	24,147486  	20,507871  	21,838398  	23,389016  	29,830200  	27,866376  	29,660922  	30,645857  	37,193143  	35,721815  	39,813892  	66,178029  	22,639283  	21,383232  	23,253606  	72,138703  	0,117205  	0,059389  	-4773,369245  	-16231,580186  	-0,015672  	-0,049991  	0,312571  	0,158382  	-4,520615  	10178,336334  	16116,581194  	2,337512  	-0,047944  
44,556000  	17,394998  	36,599682  	57,725912  	956,927186  	80,090036  	73,287924  	0,004718  	0,008738  	0,003962  	0,004110  	0,004342  	-0,000000  	-0,000000  	24,146504  	20,506441  	21,831916  	23,384317  	29,819652  	27,866501  	29,664721  	30,643392  	37,192372  	35,729811  	39,807700  	66,178097  	22,643865  	21,379452  	23,263730  	72,136694  	0,095592  	0,048437  	-3891,123046  	21306,324998  	-0,021698  	-0,050005  	0,297285  	0,150637  	-4,295330  	10193,259203  	16396,482933  	2,378109  	-0,047956  
45,558000  	17,428262  	36,601254  	957,045375  	956,927186  	80,087755  	73,283434  	0,004714  	0,008730  	0,003963  	0,004090  	0,004352  	0,000000  	-0,000000  	24,150324  	20,519740  	21,836827  	23,382152  	29,822744  	27,871532  	29,661889  	30,647033  	37,199502  	35,732156  	39,815689  	66,185309  	22,648856  	21,379358  	23,265956  	72,139629  	0,079258  	0,040161  	-3220,890805  	-1,916882  	-0,013764  	-0,049994  	0,305116  	0,154605  	-4,409906  	10176,895266  	16308,099228  	2,365290  	-0,047946  
46,556000  	17,446719  	36,598726  	-242,047242  	357,439972  	80,086630  	73,285492  	0,004710  	0,008747  	0,003962  	0,004109  	0,004344  	0,000001  	-0,000000  	24,153338  	20,527155  	21,839242  	23,392547  	29,829825  	27,867414  	29,659211  	30,650915  	37,198654  	35,726649  	39,813306  	66,184038  	22,656920  	21,388264  	23,260820  	72,150282  	0,094543  	0,047906  	-3837,819466  	30938,388124  	-0,051175  	-0,049992  	0,298822  	0,151415  	-4,316917  	10211,767409  	16220,294533  	2,352555  	-0,047945  
47,559000  	17,444695  	36,594471  	-242,047242  	357,439972  	80,090692  	73,293598  	0,004720  	0,008731  	0,003961  	0,004084  	0,004369  	0,000000  	-0,000000  	24,149029  	20,511790  	21,834172  	23,385996  	29,829871  	27,870858  	29,663164  	30,644674  	37,194285  	35,726767  	39,811518  	66,182340  	22,654447  	21,378643  	23,263948  	72,146286  	0,074443  	0,037721  	-3021,544641  	30939,944809  	-0,051178  	-0,049995  	0,318866  	0,161572  	-4,603744  	10178,496217  	16445,486921  	2,385216  	-0,047947  
48,556000  	17,443162  	36,594409  	957,045375  	956,927186  	80,102689  	73,292226  	0,004712  	0,008721  	0,003962  	0,004099  	0,004380  	-0,000000  	-0,000000  	24,148250  	20,504784  	21,828825  	23,382579  	29,820045  	27,853961  	29,650153  	30,638637  	37,189963  	35,715973  	39,801543  	66,176282  	22,637581  	21,366941  	23,258994  	72,144673  	0,086517  	0,043839  	-3511,883559  	-1,917097  	-0,013766  	-0,050000  	0,327479  	0,165936  	-4,737396  	10155,499973  	16273,570482  	2,360282  	-0,047952  
49,559000  	17,456621  	36,601038  	1256,818530  	-242,047242  	80,103908  	73,291634  	0,004712  	0,008759  	0,003962  	0,004085  	0,004332  	-0,000000  	-0,000000  	24,136924  	20,496395  	21,819794  	23,380851  	29,815876  	27,849244  	29,650597  	30,638132  	37,176627  	35,711223  	39,798682  	66,166047  	22,635229  	21,363476  	23,253455  	72,142423  	0,075259  	0,038134  	-3053,802467  	-35510,787743  	-0,021695  	-0,050002  	0,289133  	0,146506  	-4,183791  	10239,113032  	16277,757710  	2,360889  	-0,047953  
50,555000  	17,463857  	36,604245  	657,272221  	357,439972  	80,099534  	73,303295  	0,004721  	0,008742  	0,003960  	0,004128  	0,004363  	0,000000  	-0,000000  	24,140708  	20,498913  	21,828523  	23,381898  	29,821215  	27,855794  	29,652653  	30,631005  	37,185451  	35,709537  	39,805796  	66,168499  	22,641921  	21,362455  	23,261972  	72,147398  	0,110543  	0,056013  	-4484,592727  	-7103,271032  	-0,021695  	-0,049998  	0,314075  	0,159144  	-4,534011  	10200,853637  	16454,475693  	2,386520  	-0,047950  
51,557000  	17,465788  	36,606280  	657,272221  	357,439972  	80,095566  	73,305290  	0,004708  	0,008729  	0,003960  	0,004110  	0,004338  	0,000000  	-0,000000  	24,132643  	20,503568  	21,827208  	23,365127  	29,816502  	27,846974  	29,645971  	30,629251  	37,173309  	35,708166  	39,797826  	66,178321  	22,630106  	21,355330  	23,245137  	72,132290  	0,096131  	0,048710  	-3899,926448  	-7102,968281  	-0,021694  	-0,049995  	0,293857  	0,148899  	-4,238421  	10173,048882  	16180,943060  	2,346847  	-0,047947  
52,557000  	17,455058  	36,606156  	1256,818530  	-242,047242  	80,094691  	73,297932  	0,004710  	0,008740  	0,003961  	0,004058  	0,004366  	-0,000001  	-0,000000  	24,144512  	20,499246  	21,832948  	23,377290  	29,821539  	27,855268  	29,659542  	30,634283  	37,190571  	35,727204  	39,803723  	66,177891  	22,638760  	21,359328  	23,245359  	72,141527  	0,053921  	0,027322  	-2188,730125  	-35513,762549  	-0,021697  	-0,050007  	0,316172  	0,160206  	-4,564625  	10196,381163  	16227,955819  	2,353666  	-0,047957  
53,556000  	17,431481  	36,603166  	-242,047242  	1256,670793  	80,092473  	73,303793  	0,004721  	0,008722  	0,003962  	0,004127  	0,004377  	0,000000  	-0,000000  	24,140851  	20,498815  	21,824009  	23,377603  	29,828738  	27,864042  	29,647862  	30,635053  	37,189739  	35,709930  	39,801287  	66,173252  	22,629813  	21,358933  	23,253050  	72,135327  	0,109704  	0,055588  	-4457,857251  	35506,008849  	-0,021695  	-0,049995  	0,324969  	0,164664  	-4,686061  	10158,142992  	16467,602265  	2,388424  	-0,047947  
54,559000  	17,418850  	36,607051  	357,499067  	1256,670793  	80,090786  	73,292071  	0,004704  	0,008754  	0,003961  	0,004087  	0,004362  	0,000001  	-0,000000  	24,135100  	20,492601  	21,813403  	23,377656  	29,806969  	27,849036  	29,650299  	30,628498  	37,172935  	35,700776  	39,790062  	66,181339  	22,623291  	21,352181  	23,241874  	72,135672  	0,076910  	0,038971  	-3127,963178  	16228,513162  	-0,015673  	-0,049991  	0,312991  	0,158595  	-4,520004  	10226,850161  	16102,536680  	2,335475  	-0,047944  
55,557000  	17,429519  	36,610473  	1256,818530  	357,439972  	80,092192  	73,301081  	0,004715  	0,008733  	0,003961  	0,004144  	0,004366  	0,000000  	-0,000000  	24,157052  	20,509492  	21,836656  	23,384744  	29,828949  	27,863119  	29,659589  	30,641173  	37,194335  	35,726726  	39,807081  	66,186734  	22,619519  	21,361596  	23,257677  	72,150210  	0,123011  	0,062331  	-5001,019474  	-16233,780703  	-0,015675  	-0,049998  	0,316126  	0,160184  	-4,560181  	10183,141308  	16331,584425  	2,368696  	-0,047950  
56,560000  	17,441169  	36,618120  	57,725912  	-242,047242  	80,096503  	73,301580  	0,004720  	0,008759  	0,003961  	0,004122  	0,004353  	0,000000  	-0,000000  	24,141643  	20,506428  	21,827887  	23,373936  	29,816754  	27,847524  	29,643948  	30,638422  	37,184377  	35,714106  	39,803797  	66,180275  	22,609451  	21,340650  	23,245267  	72,148716  	0,105657  	0,053537  	-4294,578646  	-27699,603956  	-0,093559  	-0,050000  	0,305831  	0,154967  	-4,414142  	10238,171421  	16443,933480  	2,384991  	-0,047951  
57,555000  	17,454353  	36,628665  	957,045375  	956,927186  	80,099471  	73,302640  	0,004706  	0,008720  	0,003962  	0,004115  	0,004369  	-0,000001  	-0,000000  	24,153308  	20,498094  	21,822165  	23,379199  	29,819863  	27,858624  	29,650455  	30,636381  	37,172825  	35,713061  	39,800389  	66,174930  	22,617361  	21,332935  	23,253201  	72,148076  	0,099656  	0,050497  	-4050,102627  	-1,917502  	-0,013768  	-0,050012  	0,318120  	0,161194  	-4,592799  	10153,492241  	16139,466198  	2,340832  	-0,047962  
58,556000  	17,455824  	36,624471  	357,499067  	357,439972  	80,097659  	73,305196  	0,004715  	0,008758  	0,003961  	0,004188  	0,004377  	-0,000001  	-0,000000  	24,143339  	20,493947  	21,825844  	23,380729  	29,822156  	27,858885  	29,652221  	30,638158  	37,186121  	35,707450  	39,797918  	66,181135  	22,602165  	21,330606  	23,254018  	72,148080  	0,158713  	0,080421  	-6448,294145  	-1,685525  	-0,026856  	-0,050009  	0,324997  	0,164678  	-4,689075  	10236,513875  	16335,722225  	2,369296  	-0,047959  
59,557000  	17,444235  	36,630021  	357,499067  	357,439972  	80,090754  	73,299273  	0,004715  	0,008723  	0,003962  	0,004130  	0,004364  	0,000001  	-0,000000  	24,139082  	20,500977  	21,819107  	23,383472  	29,814513  	27,853023  	29,643825  	30,635064  	37,181304  	35,709695  	39,788258  	66,175056  	22,596336  	21,321095  	23,247074  	72,148595  	0,112287  	0,056896  	-4566,143642  	-1,684865  	-0,026846  	-0,049987  	0,314418  	0,159318  	-4,535780  	10159,749602  	16330,193389  	2,368494  	-0,047941  
60,556000  	17,427680  	36,629281  	957,045375  	956,927186  	80,083818  	73,298836  	0,004707  	0,008747  	0,003962  	0,004130  	0,004355  	0,000001  	-0,000000  	24,143421  	20,504274  	21,826841  	23,382381  	29,823789  	27,865959  	29,653102  	30,636623  	37,193416  	35,718481  	39,799801  	66,189055  	22,602183  	21,323562  	23,258130  	72,151839  	0,111998  	0,056750  	-4558,150937  	-1,916818  	-0,013764  	-0,049992  	0,307708  	0,155918  	-4,434737  	10211,441984  	16155,064153  	2,343094  	-0,047945  
61,558000  	17,421211  	36,633228  	1256,818530  	1256,670793  	80,080663  	73,308439  	0,004719  	0,008731  	0,003961  	0,004078  	0,004324  	0,000001  	-0,000000  	24,149560  	20,494770  	21,822203  	23,380567  	29,823263  	27,860143  	29,655636  	30,638649  	37,190230  	35,716204  	39,796558  	66,185064  	22,580247  	21,321669  	23,250327  	72,147369  	0,069726  	0,035330  	-2839,277216  	-1,992956  	-0,011065  	-0,049983  	0,282485  	0,143137  	-4,063563  	10177,577952  	16418,993699  	2,381374  	-0,047937  
62,559000  	17,434578  	36,641861  	657,272221  	657,183579  	80,090723  	73,305072  	0,004716  	0,008784  	0,003962  	0,004126  	0,004374  	-0,000000  	-0,000000  	24,143895  	20,486863  	21,818846  	23,382389  	29,815815  	27,855896  	29,650221  	30,634071  	37,180134  	35,714716  	39,793102  	66,176142  	22,566824  	21,312674  	23,241421  	72,134947  	0,108556  	0,055006  	-4419,376202  	-1,810741  	-0,018201  	-0,050002  	0,322613  	0,163470  	-4,650014  	10292,782019  	16361,015062  	2,372965  	-0,047953  
63,555000  	17,449478  	36,649446  	657,272221  	657,183579  	80,103189  	73,296435  	0,004708  	0,008715  	0,003962  	0,004075  	0,004347  	-0,000001  	-0,000000  	24,138719  	20,490146  	21,823982  	23,381642  	29,815073  	27,851980  	29,651161  	30,627409  	37,181093  	35,715841  	39,794445  	66,177895  	22,569325  	21,307959  	23,238571  	72,136026  	0,067422  	0,034163  	-2743,750340  	-1,810937  	-0,018203  	-0,050008  	0,301022  	0,152530  	-4,352292  	10144,352744  	16175,562507  	2,346067  	-0,047959  
64,559000  	17,445799  	36,642170  	57,725912  	1256,670793  	80,104314  	73,302110  	0,004721  	0,008756  	0,003962  	0,004122  	0,004344  	0,000000  	-0,000000  	24,144171  	20,494801  	21,821174  	23,376897  	29,813240  	27,846942  	29,646058  	30,630240  	37,178562  	35,709306  	39,792926  	66,176077  	22,574717  	21,305692  	23,243313  	72,142427  	0,105737  	0,053578  	-4302,168709  	24489,859531  	-0,018200  	-0,049997  	0,298435  	0,151219  	-4,312013  	10231,551140  	16456,050317  	2,386748  	-0,047949  
65,556000  	17,447730  	36,634893  	57,725912  	1256,670793  	80,104345  	73,310216  	0,004712  	0,008769  	0,003961  	0,004120  	0,004356  	-0,000001  	-0,000000  	24,146091  	20,498014  	21,816206  	23,378053  	29,812102  	27,851671  	29,648207  	30,635270  	37,176082  	35,710604  	39,792322  	66,170115  	22,579855  	21,298764  	23,252282  	72,141941  	0,103760  	0,052576  	-4219,707290  	24493,857184  	-0,018203  	-0,050006  	0,308372  	0,156254  	-4,450306  	10260,617273  	16266,121029  	2,359201  	-0,047957  
66,559000  	17,449263  	36,633228  	657,272221  	1256,670793  	80,106220  	73,308906  	0,004708  	0,008798  	0,003961  	0,004150  	0,004399  	0,000001  	-0,000000  	24,145892  	20,495480  	21,820830  	23,378679  	29,816251  	27,857104  	29,649772  	30,634020  	37,174291  	35,712318  	39,788051  	66,172684  	22,581063  	21,299307  	23,249719  	72,140317  	0,128433  	0,065078  	-5222,257876  	9720,969276  	-0,013763  	-0,049991  	0,342232  	0,173412  	-4,941279  	10322,274033  	16183,802803  	2,347262  	-0,047944  
67,557000  	17,453218  	36,628510  	657,272221  	1256,670793  	80,116405  	73,302733  	0,004721  	0,009072  	0,003961  	0,004096  	0,004360  	0,000000  	-0,000000  	24,148949  	20,494120  	21,823988  	23,376778  	29,821177  	27,857666  	29,650445  	30,633894  	37,179348  	35,714385  	39,788788  	66,179216  	22,587970  	21,305963  	23,243824  	72,134866  	0,084309  	0,042720  	-3426,558870  	9722,038670  	-0,013765  	-0,049997  	0,311394  	0,157786  	-4,506839  	10913,435130  	16453,663667  	2,386402  	-0,047949  
68,559000  	17,471491  	36,631470  	57,725912  	57,696365  	80,118905  	73,308221  	0,004708  	0,009130  	0,003960  	0,004129  	0,004367  	-0,000001  	-0,000000  	24,147844  	20,500550  	21,822187  	23,378048  	29,823670  	27,858037  	29,655279  	30,637009  	37,189722  	35,721559  	39,794973  	66,176757  	22,601855  	21,303127  	23,245946  	72,128221  	0,111202  	0,056347  	-4515,926192  	-1,525297  	-0,051189  	-0,050010  	0,316976  	0,160614  	-4,585622  	11038,699789  	16185,829337  	2,347556  	-0,047960  
69,556000  	17,488047  	36,632765  	957,045375  	1256,670793  	80,113812  	73,354707  	0,004711  	0,008887  	0,003962  	0,004069  	0,004328  	-0,000000  	-0,000000  	24,143318  	20,505543  	21,823955  	23,380090  	29,826141  	27,857005  	29,652954  	30,638790  	37,188838  	35,718975  	39,796594  	66,176176  	22,605998  	21,305054  	23,243073  	72,133361  	0,062521  	0,031680  	-2536,984790  	4417,136711  	-0,012272  	-0,050005  	0,286112  	0,144975  	-4,107806  	10514,066927  	16241,075331  	2,355569  	-0,047955  
70,557000  	17,481976  	36,631964  	357,499067  	1256,670793  	80,105189  	73,408458  	0,004718  	0,008756  	0,003961  	0,004135  	0,004346  	-0,000001  	-0,000000  	24,143880  	20,504179  	21,825461  	23,382481  	29,826827  	27,859184  	29,657921  	30,639035  	37,188571  	35,718854  	39,799215  	66,184419  	22,607921  	21,315496  	23,238564  	72,136010  	0,116393  	0,058977  	-4724,267509  	16232,889562  	-0,015677  	-0,050006  	0,300609  	0,152321  	-4,276150  	10230,966790  	16399,639242  	2,378567  	-0,047957  
71,556000  	17,480413  	36,642324  	1256,818530  	1256,670793  	80,097940  	73,408739  	0,004706  	0,008801  	0,003961  	0,004136  	0,004379  	0,000000  	-0,000000  	24,149656  	20,494940  	21,825944  	23,378353  	29,821162  	27,862125  	29,653729  	30,638276  	37,186329  	35,715923  	39,789599  	66,182084  	22,612871  	21,310269  	23,243852  	72,129909  	0,117160  	0,059366  	-4758,372243  	-1,993418  	-0,011068  	-0,049996  	0,326425  	0,165402  	-4,638162  	10329,173756  	16139,346159  	2,340814  	-0,047948  
72,558000  	17,493167  	36,648305  	1256,818530  	57,696365  	80,096815  	73,391279  	0,004712  	0,008722  	0,003961  	0,004109  	0,004382  	-0,000001  	-0,000000  	24,142980  	20,500636  	21,826951  	23,380855  	29,823209  	27,862483  	29,653646  	30,644120  	37,187048  	35,711328  	39,795004  	66,184394  	22,614867  	21,309157  	23,251447  	72,135332  	0,094852  	0,048062  	-3850,984834  	-24497,077983  	-0,018203  	-0,050008  	0,328934  	0,166673  	-4,685212  	10157,791391  	16270,696617  	2,359865  	-0,047959  
73,556000  	17,492891  	36,654195  	1256,818530  	-242,047242  	80,093472  	73,374287  	0,004718  	0,008754  	0,003963  	0,004101  	0,004372  	-0,000000  	-0,000000  	24,145679  	20,499074  	21,837404  	23,387099  	29,820314  	27,866968  	29,658821  	30,642788  	37,193094  	35,721054  	39,791745  	66,178103  	22,632554  	21,307665  	23,252416  	72,122450  	0,088311  	0,044748  	-3586,575163  	-35510,655125  	-0,021695  	-0,050002  	0,320720  	0,162511  	-4,577502  	10228,600382  	16407,293467  	2,379677  	-0,047953  
74,559000  	17,476948  	36,669920  	1256,818530  	-242,047242  	80,089223  	73,354956  	0,004707  	0,008782  	0,003961  	0,004113  	0,004380  	0,000000  	-0,000000  	24,146515  	20,495614  	21,829903  	23,384967  	29,824477  	27,858709  	29,650686  	30,642138  	37,185261  	35,721028  	39,790020  	66,171066  	22,623072  	21,313761  	23,245269  	72,124800  	0,098094  	0,049705  	-3990,474097  	-35506,712987  	-0,021693  	-0,049995  	0,327076  	0,165732  	-4,678681  	10288,410709  	16151,088757  	2,342517  	-0,047947  
75,558000  	17,463336  	36,690547  	1256,818530  	657,183579  	80,076289  	73,323778  	0,004717  	0,008727  	0,003961  	0,004083  	0,004363  	0,000000  	-0,000000  	24,145309  	20,509244  	21,839247  	23,378249  	29,826010  	27,862669  	29,656348  	30,641219  	37,197784  	35,727430  	39,800788  	66,179812  	22,632015  	21,319826  	23,254013  	72,130208  	0,074086  	0,037540  	-3019,205621  	-9725,853008  	-0,013765  	-0,049998  	0,313840  	0,159025  	-4,501488  	10170,062752  	16366,854586  	2,373812  	-0,047950  
76,557000  	17,458798  	36,697084  	57,725912  	57,696365  	80,062854  	73,319351  	0,004719  	0,008772  	0,003961  	0,004078  	0,004326  	-0,000001  	-0,000000  	24,156526  	20,515699  	21,840522  	23,384068  	29,833576  	27,865401  	29,666020  	30,652175  	37,198730  	35,733621  	39,803690  	66,188851  	22,660611  	21,318890  	23,242525  	72,126510  	0,069785  	0,035361  	-2845,575467  	-1,525271  	-0,051188  	-0,050009  	0,284689  	0,144254  	-4,077907  	10266,559820  	16409,687178  	2,380024  	-0,047959  
77,556000  	17,479309  	36,695481  	1256,818530  	57,696365  	80,062261  	73,313396  	0,004705  	0,008786  	0,003961  	0,004162  	0,004332  	0,000001  	-0,000000  	24,157348  	20,505853  	21,834281  	23,393008  	29,836768  	27,870969  	29,656853  	30,641791  	37,200423  	35,730931  	39,801766  	66,192047  	22,647479  	21,307945  	23,243196  	72,137257  	0,137826  	0,069838  	-5613,582249  	-24489,528537  	-0,018197  	-0,049991  	0,289046  	0,146462  	-4,143611  	10295,808473  	16126,699741  	2,338980  	-0,047944  
78,559000  	17,513402  	36,693261  	1256,818530  	1256,670793  	80,066760  	73,300738  	0,004718  	0,008755  	0,003961  	0,004092  	0,004348  	-0,000001  	-0,000000  	24,169727  	20,517826  	21,841089  	23,406902  	29,835590  	27,870275  	29,672916  	30,659336  	37,204069  	35,735240  	39,802529  	66,186347  	22,655577  	21,322939  	23,250846  	72,130059  	0,081347  	0,041219  	-3306,951641  	-1,993878  	-0,011070  	-0,050009  	0,301528  	0,152787  	-4,333530  	10229,362302  	16388,454470  	2,376944  	-0,047959  
79,556000  	17,524347  	36,683086  	1256,818530  	357,439972  	80,067947  	73,300956  	0,004715  	0,008805  	0,003962  	0,004106  	0,004366  	0,000000  	-0,000000  	24,146436  	20,512755  	21,834993  	23,399660  	29,836427  	27,883180  	29,660538  	30,652831  	37,198288  	35,732191  	39,808286  	66,188655  	22,655416  	21,318613  	23,257385  	72,128784  	0,092559  	0,046901  	-3758,602740  	-16233,256431  	-0,015674  	-0,049997  	0,316331  	0,160287  	-4,546927  	10336,890578  	16330,193389  	2,368494  	-0,047949  
80,560000  	17,514230  	36,674082  	57,725912  	956,927186  	80,071821  	73,306693  	0,004706  	0,008812  	0,003964  	0,004120  	0,004341  	0,000000  	-0,000000  	24,147620  	20,499270  	21,830709  	23,382298  	29,829750  	27,862939  	29,663039  	30,654969  	37,196691  	35,719851  	39,795693  	66,171526  	22,638627  	21,320688  	23,247259  	72,121554  	0,103510  	0,052450  	-4203,542486  	21302,696185  	-0,021695  	-0,049996  	0,296050  	0,150011  	-4,254240  	10353,468164  	16127,624744  	2,339114  	-0,047948  
81,556000  	17,499421  	36,665819  	1256,818530  	1256,670793  	80,070821  	73,306911  	0,004719  	0,008750  	0,003960  	0,004079  	0,004363  	-0,000001  	-0,000000  	24,158989  	20,517308  	21,842680  	23,397532  	29,832448  	27,869567  	29,666587  	30,664998  	37,192658  	35,737212  	39,809642  	66,179086  	22,642213  	21,322297  	23,244106  	72,136313  	0,070589  	0,035768  	-2867,590048  	-1,994033  	-0,011071  	-0,050013  	0,314101  	0,159157  	-4,512819  	10219,880401  	16412,928220  	2,380494  	-0,047963  
82,560000  	17,486176  	36,657925  	1256,818530  	1256,670793  	80,064135  	73,308408  	0,004713  	0,008828  	0,003960  	0,004128  	0,004300  	-0,000000  	-0,000000  	24,158551  	20,506291  	21,839420  	23,391154  	29,839334  	27,876290  	29,664260  	30,657342  	37,198091  	35,728478  	39,814056  	66,185080  	22,637858  	21,315457  	23,247072  	72,134424  	0,110639  	0,056062  	-4495,849568  	-1,993732  	-0,011069  	-0,050005  	0,263699  	0,133618  	-3,784092  	10387,260743  	16290,630084  	2,362756  	-0,047956  
83,559000  	17,480106  	36,651635  	1256,818530  	1256,670793  	80,054325  	73,307815  	0,004704  	0,008794  	0,003961  	0,004088  	0,004331  	-0,000000  	-0,000000  	24,161421  	20,508030  	21,832538  	23,400109  	29,833411  	27,879977  	29,666949  	30,659380  	37,205125  	35,730260  	39,813233  	66,182873  	22,651474  	21,313620  	23,246431  	72,128056  	0,077586  	0,039313  	-3152,680146  	-1,993738  	-0,011069  	-0,050005  	0,288210  	0,146038  	-4,130179  	10312,930085  	16105,445850  	2,335897  	-0,047956  
84,555000  	17,476059  	36,648429  	1256,818530  	57,696365  	80,055325  	73,305009  	0,004719  	0,008748  	0,003962  	0,004146  	0,004358  	-0,000001  	-0,000000  	24,151488  	20,513516  	21,838369  	23,405710  	29,838171  	27,882924  	29,665701  	30,656500  	37,209414  	35,735797  	39,807596  	66,183093  	22,649260  	21,315181  	23,254791  	72,130031  	0,124595  	0,063133  	-5063,092990  	-24498,292280  	-0,018204  	-0,050011  	0,310011  	0,157085  	-4,445105  	10215,531730  	16415,095975  	2,380808  	-0,047961  
85,556000  	17,483111  	36,659899  	57,725912  	1256,670793  	80,054981  	73,299054  	0,004710  	0,008750  	0,003961  	0,004106  	0,004335  	-0,000000  	-0,000000  	24,156771  	20,508228  	21,831267  	23,398138  	29,834033  	27,877423  	29,663517  	30,653990  	37,199722  	35,730367  	39,804967  	66,178793  	22,641808  	21,314839  	23,254403  	72,132779  	0,092865  	0,047055  	-3774,577598  	24492,739850  	-0,018202  	-0,050004  	0,291419  	0,147664  	-4,181989  	10219,165173  	16231,846482  	2,354230  	-0,047955  
86,558000  	17,481578  	36,664647  	1256,818530  	1256,670793  	80,051919  	73,296810  	0,004710  	0,008779  	0,003960  	0,004121  	0,004361  	-0,000000  	-0,000000  	24,154075  	20,510804  	21,837862  	23,400510  	29,829833  	27,870817  	29,668221  	30,647756  	37,204855  	35,733589  	39,800795  	66,174470  	22,646335  	21,311595  	23,253604  	72,135013  	0,104526  	0,052964  	-4249,957464  	-1,993593  	-0,011069  	-0,050001  	0,311783  	0,157983  	-4,473679  	10280,709450  	16230,497813  	2,354035  	-0,047952  
87,574000  	17,474495  	36,662890  	357,499067  	357,439972  	80,056699  	73,296778  	0,004720  	0,008739  	0,003960  	0,004101  	0,004382  	-0,000000  	-0,000000  	24,162117  	20,518760  	21,841074  	23,396067  	29,839230  	27,882309  	29,669185  	30,651493  	37,211424  	35,731343  	39,810267  	66,174057  	22,652584  	21,297634  	23,257484  	72,137724  	0,088610  	0,044900  	-3603,829939  	-1,685254  	-0,026852  	-0,050000  	0,329194  	0,166805  	-4,726870  	10195,641882  	16450,224915  	2,385903  	-0,047952  
88,558000  	17,478788  	36,668933  	957,045375  	-242,047242  	80,063198  	73,299834  	0,004710  	0,008781  	0,003961  	0,004087  	0,004389  	-0,000001  	-0,000000  	24,162079  	20,513017  	21,839675  	23,403393  	29,839238  	27,881756  	29,672748  	30,656934  	37,215153  	35,736612  	39,811410  	66,183067  	22,648198  	21,286060  	23,257758  	72,136056  	0,077045  	0,039039  	-3133,751182  	-34200,144237  	-0,026856  	-0,050010  	0,334020  	0,169250  	-4,798615  	10285,120377  	16219,517813  	2,352442  	-0,047960  
89,558000  	17,500801  	36,672170  	1256,818530  	1256,670793  	80,066041  	73,286989  	0,004712  	0,008759  	0,003959  	0,004080  	0,004335  	0,000000  	-0,000000  	24,165482  	20,517736  	21,845708  	23,405925  	29,845640  	27,882331  	29,674342  	30,661211  	37,215464  	35,737334  	39,815137  	66,180259  	22,655951  	21,281242  	23,258936  	72,134807  	0,071702  	0,036332  	-2913,567268  	-1,993376  	-0,011067  	-0,049995  	0,291559  	0,147735  	-4,198308  	10239,069878  	16260,895820  	2,358444  	-0,047947  
90,561000  	17,515027  	36,668779  	1256,818530  	1256,670793  	80,074664  	73,285367  	0,004720  	0,008724  	0,003960  	0,004110  	0,004328  	-0,000001  	-0,000000  	24,163826  	20,518002  	21,845047  	23,395508  	29,838279  	27,875068  	29,671409  	30,661583  	37,209029  	35,729502  	39,810013  	66,176575  	22,650023  	21,268513  	23,251700  	72,129266  	0,096018  	0,048653  	-3898,014634  	-1,993994  	-0,011071  	-0,050012  	0,285711  	0,144772  	-4,120318  	10162,834774  	16430,849275  	2,383093  	-0,047962  
91,558000  	17,512819  	36,664431  	357,499067  	1256,670793  	80,073696  	73,287425  	0,004705  	0,008792  	0,003961  	0,004109  	0,004325  	-0,000001  	-0,000000  	24,164306  	20,515288  	21,842201  	23,395511  	29,836528  	27,874995  	29,678234  	30,659797  	37,212024  	35,731753  	39,803493  	66,180899  	22,646515  	21,263898  	23,251233  	72,129253  	0,094856  	0,048064  	-3850,440916  	16234,221975  	-0,015679  	-0,050011  	0,283769  	0,143788  	-4,090494  	10308,974753  	16107,133452  	2,336142  	-0,047961  
92,561000  	17,485471  	36,658265  	957,045375  	1256,670793  	80,070821  	73,286864  	0,004714  	0,008704  	0,003960  	0,004123  	0,004382  	0,000000  	-0,000000  	24,164567  	20,511103  	21,844327  	23,399409  	29,838419  	27,879782  	29,675187  	30,653096  	37,213792  	35,731769  	39,803406  	66,178985  	22,652973  	21,263921  	23,250258  	72,128415  	0,106057  	0,053740  	-4309,888329  	4416,581368  	-0,012270  	-0,049998  	0,328943  	0,166678  	-4,740050  	10119,595666  	16317,539910  	2,366659  	-0,047949  
93,558000  	17,469590  	36,663136  	1256,818530  	57,696365  	80,070321  	73,282624  	0,004718  	0,008739  	0,003962  	0,004109  	0,004367  	0,000000  	-0,000000  	24,164227  	20,511688  	21,846469  	23,405400  	29,838625  	27,882875  	29,673204  	30,655239  	37,211152  	35,730988  	39,806963  	66,179226  	22,662393  	21,273482  	23,255293  	72,131099  	0,095302  	0,048290  	-3877,013571  	-24491,153579  	-0,018198  	-0,049995  	0,316660  	0,160454  	-4,565565  	10196,095355  	16399,434470  	2,378537  	-0,047947  
94,560000  	17,473146  	36,663568  	1256,818530  	1256,670793  	80,074133  	73,283372  	0,004707  	0,008778  	0,003961  	0,004110  	0,004375  	-0,000001  	-0,000000  	24,169464  	20,522612  	21,848350  	23,412489  	29,844037  	27,887726  	29,684459  	30,664794  	37,213918  	35,736425  	39,811825  	66,181074  	22,675561  	21,288426  	23,270081  	72,137994  	0,096038  	0,048663  	-3906,325538  	-1,993804  	-0,011070  	-0,050007  	0,323636  	0,163989  	-4,668254  	10279,844244  	16152,275021  	2,342689  	-0,047957  
95,557000  	17,485839  	36,655890  	357,499067  	1256,670793  	80,079038  	73,290138  	0,004718  	0,008730  	0,003961  	0,004071  	0,004377  	-0,000000  	-0,000000  	24,168557  	20,526258  	21,850208  	23,410132  	29,842052  	27,885110  	29,677079  	30,661765  	37,215586  	35,733026  	39,813416  	66,173771  	22,680478  	21,292155  	23,267732  	72,133464  	0,064275  	0,032568  	-2611,577908  	16231,451364  	-0,015676  	-0,050001  	0,324916  	0,164637  	-4,685436  	10176,582575  	16405,450522  	2,379409  	-0,047953  
96,557000  	17,496141  	36,656014  	-242,047242  	1256,670793  	80,077788  	73,283216  	0,004721  	0,008737  	0,003960  	0,004066  	0,004324  	0,000000  	-0,000000  	24,170635  	20,527603  	21,854368  	23,415913  	29,848459  	27,890715  	29,674444  	30,665671  	37,221292  	35,738521  	39,818491  	66,179412  	22,690960  	21,309684  	23,270742  	72,136737  	0,060294  	0,030551  	-2448,534573  	35508,603958  	-0,021696  	-0,049999  	0,282666  	0,143229  	-4,079573  	10191,757295  	16464,417712  	2,387962  	-0,047951  
97,556000  	17,494638  	36,661379  	1256,818530  	956,927186  	80,073852  	73,282000  	0,004705  	0,008768  	0,003962  	0,004141  	0,004351  	-0,000001  	-0,000000  	24,172925  	20,524795  	21,857474  	23,411604  	29,847629  	27,896060  	29,681912  	30,671256  	37,219465  	35,746811  	39,819176  	66,186000  	22,701364  	21,312269  	23,278987  	72,140248  	0,121221  	0,061423  	-4924,525534  	-4421,528043  	-0,012273  	-0,050011  	0,304386  	0,154235  	-4,391290  	10257,260441  	16122,583124  	2,338383  	-0,047961  
98,560000  	17,496723  	36,663660  	657,272221  	-242,047242  	80,073602  	73,293848  	0,004719  	0,008707  	0,003960  	0,004122  	0,004333  	0,000000  	-0,000000  	24,164061  	20,521238  	21,853274  	23,400480  	29,843351  	27,889380  	29,668850  	30,661585  	37,217678  	35,737240  	39,817453  	66,180487  	22,699058  	21,307462  	23,274410  	72,138285  	0,105461  	0,053438  	-4284,336550  	-32743,039775  	-0,035221  	-0,049998  	0,290331  	0,147113  	-4,181065  	10127,279946  	16414,792348  	2,380764  	-0,047950  
99,557000  	17,512267  	36,658110  	657,272221  	657,183579  	80,076664  	73,302515  	0,004715  	0,008755  	0,003961  	0,004139  	0,004427  	-0,000001  	-0,000000  	24,166310  	20,524959  	21,856390  	23,415576  	29,846692  	27,883663  	29,676131  	30,667676  	37,222984  	35,745824  	39,818167  	66,189066  	22,692036  	21,325378  	23,271346  	72,143382  	0,119586  	0,060595  	-4852,810771  	-1,810905  	-0,018203  	-0,050007  	0,364280  	0,184584  	-5,241686  	10229,714610  	16327,263036  	2,368069  	-0,047958  
100,557000  	17,529253  	36,647565  	1256,818530  	1256,670793  	80,073602  	73,282686  	0,004706  	0,008738  	0,003960  	0,004128  	0,004339  	0,000000  	-0,000000  	24,165012  	20,528473  	21,858961  	23,413486  	29,841051  	27,889767  	29,679983  	30,657635  	37,217383  	35,740981  	39,819450  	66,173198  	22,701217  	21,328793  	23,270949  	72,142317  	0,110028  	0,055752  	-4458,538347  	-1,993494  	-0,011068  	-0,049998  	0,294751  	0,149352  	-4,251698  	10193,165820  	16136,472294  	2,340397  	-0,047950  
101,557000  	17,528823  	36,645284  	957,045375  	57,696365  	80,069384  	73,276825  	0,004719  	0,008740  	0,003960  	0,004128  	0,004320  	-0,000000  	-0,000000  	24,185036  	20,533027  	21,867756  	23,415755  	29,848487  	27,894677  	29,681633  	30,675664  	37,227613  	35,749116  	39,817508  	66,187574  	22,711946  	21,338425  	23,284140  	72,158720  	0,110214  	0,055846  	-4465,631050  	-21308,411616  	-0,021697  	-0,050004  	0,279520  	0,141635  	-4,032975  	10198,280656  	16425,892387  	2,382374  	-0,047955  
102,560000  	17,527474  	36,653177  	357,499067  	657,183579  	80,071196  	73,280878  	0,004713  	0,008773  	0,003962  	0,004069  	0,004317  	0,000000  	-0,000000  	24,175448  	20,531097  	21,863678  	23,415120  	29,839222  	27,880541  	29,685653  	30,666205  	37,224760  	35,749894  	39,817424  	66,186184  	22,715948  	21,336601  	23,282503  	72,169111  	0,062592  	0,031716  	-2537,319784  	7100,166196  	-0,021696  	-0,050000  	0,277625  	0,140675  	-4,004308  	10268,486196  	16293,885248  	2,363228  	-0,047951  
103,557000  	17,534005  	36,652715  	357,499067  	657,183579  	80,074977  	73,286365  	0,004709  	0,008725  	0,003959  	0,004127  	0,004364  	-0,000001  	-0,000000  	24,172868  	20,532177  	21,861393  	23,412450  	29,837771  	27,887575  	29,671723  	30,662213  	37,217564  	35,736185  	39,818934  	66,179598  	22,725100  	21,357223  	23,280552  	72,172995  	0,109679  	0,055575  	-4444,460848  	7101,492049  	-0,021700  	-0,050010  	0,314615  	0,159418  	-4,536701  	10165,416953  	16208,057658  	2,350780  	-0,047960  
104,556000  	17,529283  	36,644266  	-242,047242  	1256,670793  	80,080288  	73,292039  	0,004720  	0,008758  	0,003961  	0,004118  	0,004333  	-0,000000  	-0,000000  	24,175395  	20,525597  	21,856862  	23,403712  	29,842752  	27,876844  	29,675340  	30,661904  	37,215286  	35,739165  	39,814466  	66,179285  	22,729881  	21,391777  	23,284222  	72,161941  	0,102415  	0,051894  	-4149,302030  	35509,142222  	-0,021697  	-0,050000  	0,289834  	0,146861  	-4,179145  	10235,942259  	16430,467975  	2,383038  	-0,047952  
105,556000  	17,517050  	36,649693  	57,725912  	1256,670793  	80,089911  	73,275983  	0,004707  	0,008773  	0,003960  	0,004099  	0,004399  	0,000000  	-0,000000  	24,178141  	20,537847  	21,870706  	23,423311  	29,845931  	27,895453  	29,685880  	30,671276  	37,230530  	35,754886  	39,828528  	66,184618  	22,740931  	21,409319  	23,284871  	72,165702  	0,086958  	0,044062  	-3526,341651  	24490,410128  	-0,018201  	-0,049998  	0,342658  	0,173627  	-4,959485  	10269,018903  	16162,866661  	2,344226  	-0,047950  
106,557000  	17,513065  	36,651481  	1256,818530  	657,183579  	80,095222  	73,276482  	0,004711  	0,008748  	0,003960  	0,004139  	0,004388  	0,000001  	-0,000000  	24,190983  	20,538725  	21,864412  	23,419909  	29,854012  	27,898755  	29,683003  	30,679129  	37,230892  	35,751742  	39,820937  	66,190261  	22,736768  	21,428699  	23,290690  	72,167043  	0,119316  	0,060458  	-4839,978576  	-9723,563847  	-0,013762  	-0,049985  	0,333473  	0,168973  	-4,829956  	10214,440141  	16252,493119  	2,357225  	-0,047938  
107,555000  	17,514444  	36,653979  	357,499067  	657,183579  	80,096909  	73,295001  	0,004720  	0,008742  	0,003960  	0,004112  	0,004350  	-0,000000  	-0,000000  	24,189733  	20,539528  	21,852190  	23,417812  	29,859164  	27,895209  	29,685544  	30,676670  	37,223313  	35,749048  	39,819137  	66,189035  	22,734449  	21,456310  	23,286876  	72,177374  	0,097279  	0,049292  	-3946,293919  	7100,269145  	-0,021696  	-0,050001  	0,303647  	0,153860  	-4,387120  	10201,154302  	16446,270702  	2,385330  	-0,047952  
108,557000  	17,508312  	36,662612  	957,045375  	1256,670793  	80,096347  	73,290325  	0,004706  	0,008753  	0,003960  	0,004114  	0,004334  	0,000000  	-0,000000  	24,175351  	20,532454  	21,853734  	23,416157  	29,849823  	27,885367  	29,675866  	30,668694  	37,221187  	35,741128  	39,808775  	66,182578  	22,728342  	21,470835  	23,290159  	72,173913  	0,098845  	0,050086  	-4012,935029  	4416,633118  	-0,012270  	-0,049998  	0,291121  	0,147513  	-4,208685  	10224,957035  	16127,864822  	2,339149  	-0,047950  
109,554000  	17,490377  	36,666744  	1256,818530  	956,927186  	80,095347  	73,300489  	0,004713  	0,008777  	0,003961  	0,004092  	0,004347  	0,000000  	-0,000000  	24,177016  	20,527122  	21,852055  	23,403837  	29,845318  	27,888048  	29,677908  	30,660614  	37,209024  	35,737498  	39,811719  	66,166607  	22,712722  	21,490906  	23,278373  	72,153152  	0,081437  	0,041265  	-3309,985374  	-4420,181360  	-0,012269  	-0,049994  	0,301278  	0,152660  	-4,348382  	10277,903012  	16284,310405  	2,361840  	-0,047946  
110,556000  	17,482344  	36,667484  	657,272221  	357,439972  	80,090911  	73,303045  	0,004718  	0,008735  	0,003960  	0,004137  	0,004326  	0,000001  	-0,000000  	24,184489  	20,536249  	21,861909  	23,420995  	29,844777  	27,894464  	29,682183  	30,663010  	37,219577  	35,750039  	39,813591  	66,184471  	22,727235  	21,515837  	23,287260  	72,155889  	0,117535  	0,059556  	-4779,372354  	-7102,463176  	-0,021692  	-0,049991  	0,284839  	0,144330  	-4,106892  	10187,303921  	16399,526265  	2,378550  	-0,047944  
111,557000  	17,483816  	36,666744  	657,272221  	357,439972  	80,081569  	73,302983  	0,004706  	0,008761  	0,003960  	0,004113  	0,004331  	0,000000  	-0,000000  	24,186405  	20,541247  	21,869340  	23,425283  	29,853990  	27,894524  	29,685577  	30,666508  	37,226721  	35,746305  	39,822343  	66,179970  	22,735275  	21,535454  	23,289909  	72,159081  	0,097868  	0,049590  	-3979,201381  	-7103,305364  	-0,021695  	-0,049998  	0,288371  	0,146120  	-4,152135  	10243,735485  	16148,377298  	2,342124  	-0,047950  
112,556000  	17,484490  	36,673650  	57,725912  	956,927186  	80,083756  	73,311712  	0,004716  	0,008735  	0,003962  	0,004127  	0,004351  	-0,000000  	-0,000000  	24,184398  	20,540956  	21,865475  	23,421202  	29,848555  	27,887555  	29,685454  	30,666418  	37,225592  	35,740900  	39,822869  	66,176081  	22,745906  	21,545097  	23,288005  	72,153262  	0,109622  	0,055546  	-4458,558424  	21306,056659  	-0,021698  	-0,050004  	0,304602  	0,154344  	-4,381605  	10187,309581  	16354,222290  	2,371979  	-0,047955  
113,556000  	17,490806  	36,676086  	-242,047242  	-242,047242  	80,090879  	73,301549  	0,004720  	0,008716  	0,003961  	0,004116  	0,004339  	-0,000000  	-0,000000  	24,181816  	20,538283  	21,865331  	23,419912  	29,849909  	27,892629  	29,683024  	30,667854  	37,216366  	35,748266  	39,817747  	66,177327  	22,750261  	21,571844  	23,286545  	72,145377  	0,100961  	0,051158  	-4105,460700  	-0,000000  	-0,544435  	-0,050000  	0,294598  	0,149275  	-4,248523  	10146,306710  	16434,499860  	2,383623  	-0,047952  
114,558000  	17,496938  	36,678183  	-242,047242  	-242,047242  	80,099815  	73,295313  	0,004704  	0,008778  	0,003961  	0,004093  	0,004347  	-0,000000  	-0,000000  	24,185251  	20,539431  	21,869406  	23,416516  	29,853293  	27,897965  	29,683501  	30,674612  	37,214983  	35,746369  	39,820274  	66,180101  	22,755786  	21,596994  	23,286820  	72,144282  	0,081762  	0,041429  	-3324,045915  	-0,000000  	-0,544462  	-0,050003  	0,301350  	0,152696  	-4,355601  	10279,868297  	16103,143934  	2,335564  	-0,047954  
115,555000  	17,484337  	36,676703  	-242,047242  	-242,047242  	80,107969  	73,296747  	0,004720  	0,008789  	0,003961  	0,004129  	0,004342  	0,000001  	-0,000000  	24,193088  	20,540152  	21,866690  	23,417130  	29,848696  	27,899813  	29,686283  	30,674038  	37,210608  	35,743935  	39,822788  	66,181340  	22,761447  	21,615931  	23,289345  	72,147077  	0,110983  	0,056236  	-4514,648445  	-0,000000  	-0,544336  	-0,049990  	0,297381  	0,150685  	-4,302483  	10302,414605  	16430,439731  	2,383034  	-0,047943  
116,559000  	17,488936  	36,668440  	957,045375  	956,927186  	80,105407  	73,300489  	0,004717  	0,008712  	0,003960  	0,004116  	0,004339  	0,000000  	-0,000000  	24,193067  	20,541854  	21,869738  	23,422687  	29,851942  	27,900363  	29,687052  	30,672418  	37,211042  	35,747565  	39,825977  	66,182438  	22,761618  	21,635055  	23,296779  	72,144665  	0,100713  	0,051032  	-4094,159526  	-1,916907  	-0,013764  	-0,049995  	0,294579  	0,149265  	-4,257992  	10136,138587  	16385,340528  	2,376493  	-0,047947  
117,554000  	17,513310  	36,668810  	957,045375  	1256,670793  	80,098471  	73,299460  	0,004705  	0,008775  	0,003962  	0,004118  	0,004335  	-0,000000  	-0,000000  	24,190611  	20,543632  	21,863913  	23,425352  	29,854288  	27,902304  	29,690258  	30,672725  	37,218224  	35,750428  	39,827836  	66,183175  	22,756397  	21,652603  	23,298278  	72,143288  	0,101980  	0,051674  	-4140,445800  	4416,845617  	-0,012271  	-0,050001  	0,291244  	0,147575  	-4,206131  	10273,106527  	16127,088101  	2,339036  	-0,047952  
118,557000  	17,492891  	36,670413  	357,499067  	1256,670793  	80,094472  	73,310247  	0,004718  	0,008738  	0,003962  	0,004137  	0,004392  	-0,000001  	-0,000000  	24,188790  	20,548919  	21,866322  	23,429199  	29,852712  	27,909653  	29,696712  	30,673903  	37,223773  	35,754340  	39,829637  	66,184303  	22,754455  	21,674312  	23,305429  	72,146886  	0,117647  	0,059612  	-4782,026927  	16233,114206  	-0,015678  	-0,050007  	0,337063  	0,170792  	-4,857268  	10192,437858  	16394,668232  	2,377846  	-0,047958  
119,556000  	17,457940  	36,667453  	1256,818530  	1256,670793  	80,094035  	73,310278  	0,004714  	0,008717  	0,003963  	0,004109  	0,004345  	-0,000000  	-0,000000  	24,195237  	20,551515  	21,876996  	23,431921  	29,854214  	27,909472  	29,698249  	30,674973  	37,223405  	35,755917  	39,832492  	66,179919  	22,752344  	21,692965  	23,312145  	72,146015  	0,094812  	0,048042  	-3860,318099  	-1,993646  	-0,011069  	-0,050002  	0,299415  	0,151716  	-4,314443  	10147,377076  	16300,762752  	2,364226  	-0,047954  
120,558000  	17,446351  	36,666590  	57,725912  	57,696365  	80,099909  	73,303357  	0,004706  	0,008748  	0,003960  	0,004118  	0,004357  	0,000001  	-0,000000  	24,199648  	20,547474  	21,867849  	23,428682  	29,848790  	27,901428  	29,694646  	30,676289  	37,217544  	35,754396  	39,827454  	66,174600  	22,748021  	21,711919  	23,307066  	72,138911  	0,101924  	0,051646  	-4152,182900  	-1,524801  	-0,051172  	-0,049992  	0,309261  	0,156705  	-4,464720  	10215,639969  	16132,835831  	2,339870  	-0,047944  
121,556000  	17,461404  	36,669796  	57,725912  	57,696365  	80,102471  	73,304791  	0,004718  	0,008740  	0,003961  	0,004116  	0,004404  	0,000000  	-0,000000  	24,189271  	20,548763  	21,863581  	23,429326  	29,848135  	27,902018  	29,692672  	30,676488  	37,217030  	35,757169  	39,821656  	66,178353  	22,748704  	21,744221  	23,307443  	72,129878  	0,100234  	0,050789  	-4080,802700  	-1,524866  	-0,051174  	-0,049994  	0,346362  	0,175504  	-5,001177  	10197,276790  	16397,662136  	2,378280  	-0,047946  
122,557000  	17,494884  	36,667761  	1256,818530  	1256,670793  	80,096784  	73,303793  	0,004712  	0,008789  	0,003961  	0,004076  	0,004314  	-0,000001  	-0,000000  	24,191720  	20,547810  	21,866709  	23,430527  	29,859322  	27,901661  	29,694594  	30,671294  	37,220259  	35,756895  	39,827338  	66,179002  	22,743604  	21,774797  	23,305303  	72,123151  	0,068317  	0,034617  	-2776,240047  	-1,993908  	-0,011070  	-0,050010  	0,275033  	0,139361  	-3,968497  	10302,114648  	16269,277337  	2,359659  	-0,047960  
123,555000  	17,514107  	36,671924  	357,499067  	1256,670793  	80,088848  	73,316576  	0,004711  	0,008747  	0,003959  	0,004133  	0,004333  	0,000000  	-0,000000  	24,196371  	20,542973  	21,859063  	23,428094  	29,855517  	27,899303  	29,698716  	30,674971  	37,216407  	35,754390  	39,831412  	66,180952  	22,735743  	21,809067  	23,303434  	72,124679  	0,114238  	0,057885  	-4638,704178  	16230,619349  	-0,015675  	-0,049999  	0,290268  	0,147081  	-4,175565  	10211,977521  	16238,010816  	2,355124  	-0,047950  
124,560000  	17,506197  	36,675007  	957,045375  	57,696365  	80,086099  	73,318197  	0,004721  	0,008749  	0,003962  	0,004177  	0,004341  	0,000001  	-0,000000  	24,195111  	20,550713  	21,869194  	23,434607  	29,859732  	27,905445  	29,698620  	30,683973  	37,221961  	35,756937  	39,833034  	66,189054  	22,737502  	21,837419  	23,309128  	72,124126  	0,150248  	0,076132  	-6104,403279  	-21303,813443  	-0,021692  	-0,049992  	0,296477  	0,150227  	-4,262134  	10216,686282  	16467,185661  	2,388363  	-0,047945  
125,557000  	17,489610  	36,674144  	-242,047242  	-242,047242  	80,090723  	73,302172  	0,004707  	0,008765  	0,003962  	0,004097  	0,004387  	0,000001  	-0,000000  	24,200626  	20,547251  	21,872583  	23,432208  	29,854132  	27,911328  	29,700580  	30,686078  	37,222803  	35,754959  	39,835340  	66,182903  	22,731164  	21,850497  	23,311054  	72,131496  	0,084831  	0,042984  	-3449,404332  	-0,000000  	-0,544344  	-0,049991  	0,332822  	0,168643  	-4,799208  	10251,892339  	16170,238443  	2,345295  	-0,047944  
126,561000  	17,478573  	36,666004  	-242,047242  	-242,047242  	80,091910  	73,304417  	0,004713  	0,008768  	0,003962  	0,004133  	0,004367  	0,000001  	-0,000000  	24,202756  	20,552204  	21,866806  	23,432870  	29,857031  	27,910616  	29,703213  	30,681706  	37,221158  	35,761568  	39,833325  	66,182568  	22,739546  	21,864066  	23,319321  	72,127510  	0,114775  	0,058157  	-4667,705609  	-0,000000  	-0,544340  	-0,049990  	0,317215  	0,160735  	-4,573447  	10258,856439  	16296,483730  	2,363605  	-0,047943  
127,556000  	17,477377  	36,659066  	657,272221  	657,183579  	80,100565  	73,316296  	0,004722  	0,008709  	0,003961  	0,004083  	0,004367  	0,000001  	-0,000000  	24,197499  	20,551431  	21,870444  	23,429601  	29,859155  	27,910981  	29,697790  	30,672953  	37,221379  	35,753021  	39,825740  	66,180906  	22,741408  	21,861573  	23,301583  	72,126977  	0,074218  	0,037607  	-3017,443024  	-1,810269  	-0,018197  	-0,049988  	0,316740  	0,160495  	-4,564447  	10129,779353  	16484,337056  	2,390851  	-0,047941  
128,558000  	17,487617  	36,663445  	1256,818530  	1256,670793  	80,108625  	73,303700  	0,004705  	0,008788  	0,003962  	0,004102  	0,004358  	-0,000001  	-0,000000  	24,199172  	20,555407  	21,870977  	23,430318  	29,856414  	27,907698  	29,700226  	30,684824  	37,217252  	35,759556  	39,835067  	66,183154  	22,734020  	21,878031  	23,317282  	72,132857  	0,089591  	0,045396  	-3641,321027  	-1,993895  	-0,011070  	-0,050009  	0,309483  	0,156817  	-4,473435  	10300,116820  	16122,766712  	2,338410  	-0,047960  
129,559000  	17,498808  	36,671430  	957,045375  	956,927186  	80,117311  	73,301393  	0,004716  	0,008818  	0,003962  	0,004068  	0,004360  	0,000001  	-0,000000  	24,194561  	20,541861  	21,869114  	23,423441  	29,860764  	27,911144  	29,704034  	30,669872  	37,219247  	35,750511  	39,831530  	66,181158  	22,743952  	21,874555  	23,314697  	72,124974  	0,061667  	0,031247  	-2505,947945  	-1,916658  	-0,013762  	-0,049988  	0,311470  	0,157824  	-4,509418  	10366,467486  	16347,895550  	2,371062  	-0,047941  
130,556000  	17,508742  	36,669642  	357,499067  	357,439972  	80,117686  	73,310559  	0,004720  	0,008930  	0,003963  	0,004117  	0,004373  	0,000000  	-0,000000  	24,208277  	20,551175  	21,882983  	23,434186  	29,866155  	27,919734  	29,706216  	30,693318  	37,224163  	35,762667  	39,847100  	66,187672  	22,742464  	21,877951  	23,318976  	72,128474  	0,101179  	0,051268  	-4109,073196  	-1,685219  	-0,026852  	-0,049999  	0,321961  	0,163140  	-4,655300  	10606,268383  	16449,052773  	2,385733  	-0,047951  
131,558000  	17,517204  	36,666775  	1256,818530  	1256,670793  	80,107907  	73,324277  	0,004705  	0,008667  	0,003962  	0,004096  	0,004361  	-0,000000  	-0,000000  	24,202401  	20,554544  	21,872481  	23,436633  	29,861240  	27,911579  	29,712312  	30,688867  	37,224526  	35,769653  	39,834964  	66,189387  	22,742616  	21,861680  	23,316818  	72,132873  	0,084423  	0,042778  	-3426,556229  	-1,993691  	-0,011069  	-0,050004  	0,311846  	0,158015  	-4,493503  	10039,350758  	16122,117092  	2,338315  	-0,047955  
132,558000  	17,523213  	36,659745  	57,725912  	1256,670793  	80,103220  	73,334878  	0,004719  	0,008746  	0,003961  	0,004110  	0,004380  	-0,000000  	-0,000000  	24,196898  	20,558581  	21,872837  	23,430337  	29,866223  	27,921773  	29,706396  	30,680411  	37,223127  	35,761238  	39,846954  	66,189365  	22,747919  	21,839896  	23,314799  	72,135214  	0,096042  	0,048665  	-3895,509137  	24492,330938  	-0,018202  	-0,050003  	0,327476  	0,165934  	-4,708084  	10209,564422  	16411,784323  	2,380328  	-0,047954  
133,557000  	17,509140  	36,658203  	1256,818530  	57,696365  	80,097284  	73,331074  	0,004718  	0,008759  	0,003961  	0,004126  	0,004388  	0,000001  	-0,000000  	24,189572  	20,549713  	21,878054  	23,433994  	29,859131  	27,895021  	29,705216  	30,681418  	37,217078  	35,759930  	39,840221  	66,183274  	22,743556  	21,811418  	23,315659  	72,120374  	0,108439  	0,054947  	-4401,214040  	-24487,528625  	-0,018196  	-0,049987  	0,333309  	0,168890  	-4,790444  	10238,228017  	16402,979139  	2,379051  	-0,047940  
134,560000  	17,495160  	36,659005  	1256,818530  	657,183579  	80,093035  	73,328954  	0,004707  	0,008755  	0,003960  	0,004111  	0,004364  	0,000000  	-0,000000  	24,200626  	20,560228  	21,892020  	23,444984  	29,863829  	27,918256  	29,707450  	30,689288  	37,220448  	35,757313  	39,845119  	66,193114  	22,761179  	21,803648  	23,332534  	72,135145  	0,096656  	0,048976  	-3925,997265  	-9725,469107  	-0,013764  	-0,049996  	0,314279  	0,159247  	-4,515501  	10229,446488  	16150,142571  	2,342380  	-0,047948  
135,557000  	17,487617  	36,662335  	1256,818530  	657,183579  	80,102502  	73,327987  	0,004719  	0,008740  	0,003962  	0,004092  	0,004335  	-0,000001  	-0,000000  	24,192658  	20,559376  	21,888929  	23,442674  	29,866409  	27,917630  	29,694590  	30,688920  	37,222628  	35,758619  	39,841686  	66,188336  	22,757441  	21,785833  	23,326498  	72,129835  	0,081326  	0,041208  	-3305,198922  	-9727,439894  	-0,013767  	-0,050007  	0,291822  	0,147868  	-4,199319  	10196,857274  	16416,811821  	2,381057  	-0,047957  
136,558000  	17,476090  	36,666096  	1256,818530  	1256,670793  	80,108875  	73,320941  	0,004717  	0,008786  	0,003962  	0,004093  	0,004351  	0,000000  	-0,000000  	24,192877  	20,549296  	21,869724  	23,431109  	29,856162  	27,911519  	29,698152  	30,684665  	37,212962  	35,752045  	39,840243  	66,181145  	22,753942  	21,740655  	23,322778  	72,127055  	0,081692  	0,041394  	-3322,729060  	-1,993475  	-0,011068  	-0,049998  	0,304262  	0,154172  	-4,386990  	10297,500685  	16375,532669  	2,375070  	-0,047949  
137,557000  	17,468088  	36,673250  	-242,047242  	-242,047242  	80,108750  	73,311557  	0,004707  	0,008750  	0,003961  	0,004126  	0,004341  	-0,000000  	-0,000000  	24,198002  	20,552751  	21,879179  	23,435727  	29,857309  	27,921079  	29,708100  	30,683103  	37,225329  	35,755314  	39,846367  	66,190257  	22,762207  	21,729884  	23,326169  	72,132390  	0,108466  	0,054961  	-4415,239668  	-0,000000  	-0,544452  	-0,050002  	0,296102  	0,150037  	-4,275154  	10218,261057  	16164,829645  	2,344510  	-0,047953  
138,557000  	17,463673  	36,680465  	357,499067  	357,439972  	80,105314  	73,317730  	0,004722  	0,008725  	0,003961  	0,004116  	0,004393  	-0,000000  	-0,000000  	24,195561  	20,553026  	21,883687  	23,430805  	29,852141  	27,913015  	29,704239  	30,685648  	37,215489  	35,757462  	39,839180  	66,184900  	22,758177  	21,708639  	23,325912  	72,129348  	0,100314  	0,050830  	-4085,865129  	-1,685381  	-0,026854  	-0,050005  	0,337381  	0,170954  	-4,864274  	10164,571555  	16485,325609  	2,390994  	-0,047955  
139,557000  	17,466892  	36,683332  	1256,818530  	1256,670793  	80,102939  	73,317044  	0,004712  	0,008751  	0,003961  	0,004105  	0,004365  	0,000001  	-0,000000  	24,187538  	20,549349  	21,871183  	23,428195  	29,852366  	27,905811  	29,699757  	30,678641  	37,207249  	35,757887  	39,829771  	66,177133  	22,747546  	21,681574  	23,314686  	72,122331  	0,091645  	0,046437  	-3732,708945  	-1,993306  	-0,011067  	-0,049993  	0,315252  	0,159740  	-4,544084  	10220,511443  	16272,913800  	2,360187  	-0,047945  
140,558000  	17,476887  	36,683209  	1256,818530  	1256,670793  	80,098815  	73,312180  	0,004709  	0,008737  	0,003961  	0,004114  	0,004401  	0,000001  	-0,000000  	24,201887  	20,549072  	21,870192  	23,428166  	29,860713  	27,908923  	29,697499  	30,681035  	37,214955  	35,753182  	39,834660  	66,174563  	22,748149  	21,670554  	23,325564  	72,129145  	0,098721  	0,050023  	-4018,784912  	-1,993323  	-0,011067  	-0,049993  	0,343754  	0,174183  	-4,955458  	10191,322216  	16195,863150  	2,349011  	-0,047946  
141,557000  	17,485655  	36,677258  	57,725912  	1256,670793  	80,091723  	73,309062  	0,004723  	0,008793  	0,003960  	0,004096  	0,004373  	0,000001  	-0,000000  	24,202449  	20,553665  	21,876873  	23,437278  	29,867070  	27,912547  	29,702577  	30,688543  	37,216452  	35,763669  	39,845043  	66,181077  	22,748741  	21,663179  	23,331533  	72,133746  	0,084710  	0,042923  	-3445,781140  	24483,652320  	-0,018196  	-0,049983  	0,321701  	0,163008  	-4,634831  	10311,252730  	16504,771860  	2,393815  	-0,047937  
142,558000  	17,484184  	36,672448  	1256,818530  	1256,670793  	80,089786  	73,315111  	0,004711  	0,008735  	0,003962  	0,004067  	0,004349  	0,000001  	-0,000000  	24,192520  	20,553282  	21,871696  	23,438464  	29,859506  	27,908651  	29,696667  	30,681572  	37,212552  	35,758247  	39,834871  	66,175739  	22,742882  	21,642138  	23,321574  	72,123865  	0,060708  	0,030761  	-2469,021790  	-1,992921  	-0,011065  	-0,049982  	0,302908  	0,153486  	-4,358935  	10185,575631  	16246,597106  	2,356370  	-0,047936  
143,557000  	17,484552  	36,666435  	357,499067  	1256,670793  	80,102127  	73,313770  	0,004714  	0,008760  	0,003961  	0,004132  	0,004341  	-0,000001  	-0,000000  	24,193582  	20,556163  	21,874161  	23,438357  	29,860842  	27,908283  	29,695482  	30,682384  	37,218375  	35,746296  	39,838897  	66,179461  	22,745086  	21,625530  	23,322576  	72,121247  	0,113837  	0,057682  	-4628,223925  	16233,836870  	-0,015678  	-0,050010  	0,296018  	0,149995  	-4,268391  	10239,732755  	16301,497106  	2,364332  	-0,047960  
144,557000  	17,487250  	36,660700  	957,045375  	1256,670793  	80,113374  	73,309842  	0,004719  	0,008748  	0,003961  	0,004094  	0,004357  	0,000001  	-0,000000  	24,197466  	20,558836  	21,881982  	23,444172  	29,870699  	27,910276  	29,707723  	30,691023  	37,220722  	35,752920  	39,844733  	66,189938  	22,751348  	21,605035  	23,329611  	72,128921  	0,083044  	0,042079  	-3374,825419  	4415,895033  	-0,012268  	-0,049989  	0,309054  	0,156600  	-4,466326  	10214,953746  	16423,032644  	2,381960  	-0,047942  
145,558000  	17,476212  	36,660485  	57,725912  	-242,047242  	80,113499  	73,302422  	0,004709  	0,008777  	0,003961  	0,004099  	0,004409  	-0,000001  	-0,000000  	24,196142  	20,559972  	21,884036  	23,442666  	29,869046  	27,907540  	29,712165  	30,689490  	37,217457  	35,756893  	39,837815  	66,186720  	22,750024  	21,573781  	23,322198  	72,134236  	0,086689  	0,043926  	-3524,917600  	-27705,539198  	-0,093579  	-0,050012  	0,349813  	0,177253  	-5,060950  	10277,329980  	16210,281903  	2,351103  	-0,047961  
146,557000  	17,464623  	36,659745  	657,272221  	-242,047242  	80,110063  	73,308096  	0,004714  	0,008739  	0,003962  	0,004100  	0,004364  	0,000000  	-0,000000  	24,194959  	20,555598  	21,883852  	23,441429  	29,864033  	27,904115  	29,708122  	30,689088  	37,220505  	35,752657  	39,838453  	66,179607  	22,748749  	21,547739  	23,319390  	72,135722  	0,087603  	0,044389  	-3564,108984  	-32743,492966  	-0,035221  	-0,049999  	0,314883  	0,159554  	-4,549515  	10194,877132  	16312,604206  	2,365943  	-0,047951  
147,557000  	17,449815  	36,657062  	-242,047242  	657,183579  	80,107407  	73,315017  	0,004721  	0,008764  	0,003960  	0,004123  	0,004358  	-0,000000  	-0,000000  	24,197685  	20,545106  	21,880990  	23,442424  	29,863424  	27,906474  	29,707500  	30,689167  	37,217273  	35,756435  	39,837785  	66,173707  	22,747100  	21,524931  	23,328081  	72,132675  	0,106378  	0,053902  	-4330,692441  	32744,093375  	-0,035226  	-0,050001  	0,309581  	0,156867  	-4,466608  	10248,633135  	16460,407011  	2,387380  	-0,047952  
148,556000  	17,463673  	36,655890  	-242,047242  	57,696365  	80,102908  	73,317699  	0,004706  	0,008725  	0,003962  	0,004115  	0,004381  	0,000000  	-0,000000  	24,197839  	20,551782  	21,884280  	23,431665  	29,864412  	27,914651  	29,706625  	30,685382  	37,209717  	35,759683  	39,842196  	66,175184  	22,742928  	21,504022  	23,324133  	72,129209  	0,099480  	0,050407  	-4046,726478  	27698,910057  	-0,093566  	-0,049999  	0,327724  	0,166060  	-4,723386  	10164,835432  	16133,612552  	2,339983  	-0,047951  
149,567000  	17,488108  	36,655952  	957,045375  	956,927186  	80,096847  	73,319039  	0,004719  	0,008756  	0,003961  	0,004080  	0,004339  	-0,000001  	-0,000000  	24,192847  	20,552516  	21,883465  	23,430824  	29,866716  	27,914028  	29,701144  	30,688566  	37,213474  	35,755919  	39,840831  	66,184134  	22,748798  	21,483309  	23,323339  	72,129397  	0,071141  	0,036048  	-2890,228111  	-1,917601  	-0,013769  	-0,050015  	0,294952  	0,149454  	-4,246418  	10231,491007  	16427,650599  	2,382629  	-0,047964  
150,558000  	17,482773  	36,655089  	357,499067  	357,439972  	80,094597  	73,312617  	0,004721  	0,008744  	0,003962  	0,004136  	0,004350  	0,000000  	-0,000000  	24,196154  	20,545942  	21,879335  	23,440946  	29,863112  	27,911969  	29,700411  	30,676155  	37,212412  	35,755020  	39,838082  	66,186588  	22,746726  	21,471627  	23,323485  	72,134803  	0,116839  	0,059203  	-4747,923765  	-1,685207  	-0,026851  	-0,049999  	0,303595  	0,153834  	-4,373535  	10205,708133  	16451,919577  	2,386149  	-0,047950  
151,558000  	17,486544  	36,656199  	1256,818530  	1256,670793  	80,096566  	73,307472  	0,004705  	0,008752  	0,003961  	0,004115  	0,004348  	0,000000  	-0,000000  	24,200701  	20,550893  	21,882848  	23,444953  	29,862760  	27,917567  	29,699276  	30,675427  	37,218010  	35,763082  	39,850388  	66,182353  	22,747145  	21,466401  	23,323978  	72,144508  	0,099467  	0,050401  	-4041,420100  	-1,993456  	-0,011068  	-0,049997  	0,301898  	0,152974  	-4,353642  	10224,183089  	16113,679085  	2,337092  	-0,047949  
152,558000  	17,501751  	36,655212  	1256,818530  	1256,670793  	80,097065  	73,301299  	0,004719  	0,008747  	0,003961  	0,004118  	0,004365  	-0,000001  	-0,000000  	24,203325  	20,551635  	21,884726  	23,450525  	29,868739  	27,923273  	29,712799  	30,692598  	37,227815  	35,767676  	39,845713  	66,185205  	22,752454  	21,460276  	23,333831  	72,141199  	0,102386  	0,051880  	-4156,500890  	-1,993822  	-0,011070  	-0,050007  	0,315466  	0,159849  	-4,553769  	10212,767030  	16423,187988  	2,381982  	-0,047958  
153,560000  	17,511133  	36,652221  	1256,818530  	956,927186  	80,098659  	73,304510  	0,004715  	0,008749  	0,003962  	0,004120  	0,004377  	-0,000001  	-0,000000  	24,197282  	20,556383  	21,878581  	23,436461  	29,866222  	27,906707  	29,702571  	30,685401  	37,221237  	35,758048  	39,840163  	66,186245  	22,744541  	21,440498  	23,322845  	72,133483  	0,103764  	0,052578  	-4209,731314  	-4421,194933  	-0,012272  	-0,050007  	0,324692  	0,164524  	-4,685833  	10215,903139  	16325,646045  	2,367835  	-0,047957  
154,557000  	17,521435  	36,656353  	1256,818530  	357,439972  	80,105970  	73,300831  	0,004708  	0,008759  	0,003960  	0,004132  	0,004362  	-0,000000  	-0,000000  	24,199843  	20,554987  	21,883824  	23,427523  	29,873703  	27,905505  	29,700507  	30,680672  	37,218397  	35,753013  	39,836203  	66,177884  	22,721658  	21,441005  	23,328951  	72,139005  	0,113781  	0,057654  	-4614,623244  	-16235,720868  	-0,015676  	-0,050005  	0,313299  	0,158751  	-4,528727  	10237,350784  	16181,034854  	2,346861  	-0,047956  
155,560000  	17,540566  	36,657278  	1256,818530  	1256,670793  	80,114468  	73,305602  	0,004720  	0,008752  	0,003961  	0,004124  	0,004389  	0,000000  	-0,000000  	24,187869  	20,553275  	21,880738  	23,438569  	29,870420  	27,908386  	29,697946  	30,687945  	37,215456  	35,770435  	39,837224  	66,182177  	22,729555  	21,423088  	23,324157  	72,137046  	0,107113  	0,054275  	-4340,016203  	-1,993373  	-0,011067  	-0,049995  	0,334616  	0,169553  	-4,839525  	10222,613973  	16437,811513  	2,384103  	-0,047947  
156,556000  	17,552707  	36,648953  	1256,818530  	1256,670793  	80,116967  	73,319070  	0,004714  	0,008759  	0,003961  	0,004077  	0,004361  	0,000000  	-0,000000  	24,192301  	20,549273  	21,885103  	23,430067  	29,854254  	27,907724  	29,693537  	30,671791  	37,217132  	35,756769  	39,835587  	66,185296  	22,708810  	21,400764  	23,304975  	72,128562  	0,068856  	0,034890  	-2786,957117  	-1,993478  	-0,011068  	-0,049998  	0,312365  	0,158278  	-4,510444  	10239,127181  	16311,545042  	2,365790  	-0,047949  
157,562000  	17,531215  	36,650525  	957,045375  	1256,670793  	80,113093  	73,317730  	0,004709  	0,008738  	0,003962  	0,004145  	0,004322  	-0,000000  	-0,000000  	24,195968  	20,560594  	21,889647  	23,438069  	29,868408  	27,909538  	29,701089  	30,690064  	37,210210  	35,755775  	39,844163  	66,187916  	22,696258  	21,404859  	23,330778  	72,149529  	0,124106  	0,062886  	-5029,265059  	4416,762493  	-0,012270  	-0,050000  	0,280894  	0,142331  	-4,054500  	10193,475682  	16194,507420  	2,348815  	-0,047951  
158,558000  	17,509324  	36,658789  	-242,047242  	1256,670793  	80,111968  	73,324215  	0,004722  	0,008728  	0,003961  	0,004141  	0,004378  	0,000000  	-0,000001  	24,188689  	20,550624  	21,875113  	23,426659  	29,865222  	27,907584  	29,696714  	30,688862  	37,208797  	35,754360  	39,837765  	66,187638  	22,702628  	21,380358  	23,319625  	72,139799  	0,120768  	0,061194  	-4901,694220  	35508,572754  	-0,021696  	-0,049999  	0,325710  	0,165040  	-4,696122  	10171,360208  	16476,583976  	2,389726  	-0,047951  
159,561000  	17,497827  	36,665541  	-242,047242  	357,439972  	80,109063  	73,329110  	0,004709  	0,008768  	0,003961  	0,004127  	0,004367  	-0,000000  	-0,000000  	24,206702  	20,569436  	21,891935  	23,446138  	29,884290  	27,921735  	29,706514  	30,701455  	37,243961  	35,769404  	39,845595  	66,195805  	22,699850  	21,367987  	23,330569  	72,149828  	0,109404  	0,055436  	-4444,718915  	30943,366342  	-0,051183  	-0,050001  	0,316667  	0,160457  	-4,560491  	10257,285909  	16198,489877  	2,349392  	-0,047953  
160,558000  	17,500893  	36,665973  	-242,047242  	-242,047242  	80,105501  	73,317512  	0,004713  	0,008747  	0,003961  	0,004114  	0,004395  	0,000001  	-0,000000  	24,204791  	20,557607  	21,876760  	23,442995  	29,873028  	27,910169  	29,697429  	30,690037  	37,225954  	35,766498  	39,847891  	66,193549  	22,671505  	21,357215  	23,334194  	72,146984  	0,099272  	0,050302  	-4032,507036  	-0,000000  	-0,544319  	-0,049988  	0,338811  	0,171678  	-4,885182  	10213,327328  	16298,503203  	2,363898  	-0,047941  
161,560000  	17,507638  	36,669858  	-242,047242  	1256,670793  	80,104001  	73,302764  	0,004719  	0,008715  	0,003961  	0,004148  	0,004365  	-0,000001  	-0,000000  	24,183731  	20,546205  	21,874971  	23,426906  	29,856705  	27,900278  	29,695850  	30,678214  	37,207663  	35,756238  	39,831197  	66,175553  	22,650688  	21,322350  	23,318739  	72,134913  	0,126364  	0,064030  	-5132,261453  	35513,869583  	-0,021700  	-0,050008  	0,315439  	0,159835  	-4,557049  	10142,757453  	16424,713184  	2,382203  	-0,047958  
162,558000  	17,486177  	36,676580  	357,499067  	657,183579  	80,104189  	73,302515  	0,004708  	0,008743  	0,003961  	0,004048  	0,004359  	-0,000001  	-0,000000  	24,194843  	20,553907  	21,877579  	23,430915  	29,865613  	27,912971  	29,703414  	30,686858  	37,206294  	35,763087  	39,842609  	66,181056  	22,624228  	21,309928  	23,324118  	72,145495  	0,045278  	0,022943  	-1841,673359  	7101,183724  	-0,021699  	-0,050008  	0,310862  	0,157516  	-4,491217  	10204,233815  	16183,068449  	2,347156  	-0,047958  
163,562000  	17,469253  	36,681112  	357,499067  	657,183579  	80,112656  	73,315142  	0,004715  	0,008755  	0,003961  	0,004134  	0,004317  	0,000000  	-0,000000  	24,196442  	20,560634  	21,882901  	23,434003  	29,864816  	27,910011  	29,708230  	30,688053  	37,214779  	35,763994  	39,842004  	66,187243  	22,623400  	21,282450  	23,322063  	72,148408  	0,115179  	0,058362  	-4690,096746  	7100,066367  	-0,021695  	-0,049999  	0,277285  	0,140502  	-4,003671  	10229,946652  	16341,752399  	2,370171  	-0,047951  
164,558000  	17,475875  	36,676672  	957,045375  	57,696365  	80,116780  	73,309717  	0,004717  	0,008746  	0,003961  	0,004104  	0,004379  	-0,000000  	-0,000000  	24,194530  	20,545767  	21,879737  	23,430122  	29,864650  	27,905731  	29,692053  	30,675554  	37,216202  	35,756048  	39,842377  	66,175836  	22,598925  	21,263334  	23,314180  	72,143404  	0,091084  	0,046153  	-3706,842401  	-21308,364807  	-0,021697  	-0,050004  	0,326270  	0,165323  	-4,717564  	10209,586353  	16383,596438  	2,376240  	-0,047955  
165,561000  	17,493933  	36,673280  	957,045375  	1256,670793  	80,116874  	73,312211  	0,004706  	0,008755  	0,003961  	0,004126  	0,004396  	0,000000  	-0,000000  	24,192814  	20,556633  	21,877096  	23,441279  	29,859999  	27,911455  	29,698070  	30,679248  	37,216179  	35,760519  	39,838514  	66,173914  	22,583406  	21,263921  	23,315663  	72,151035  	0,108523  	0,054989  	-4411,583281  	4416,571342  	-0,012270  	-0,049998  	0,339829  	0,172194  	-4,911880  	10228,733382  	16127,900127  	2,339154  	-0,047949  
166,557000  	17,488844  	36,673959  	357,499067  	657,183579  	80,115062  	73,323685  	0,004716  	0,008755  	0,003962  	0,004126  	0,004385  	-0,000000  	-0,000000  	24,195879  	20,560079  	21,879456  	23,440753  	29,865648  	27,905530  	29,704280  	30,683571  	37,205518  	35,762045  	39,834415  	66,177548  	22,573989  	21,264047  	23,314236  	72,152589  	0,109033  	0,055248  	-4433,654684  	7100,224430  	-0,021696  	-0,050000  	0,331509  	0,167978  	-4,782284  	10229,953020  	16347,168258  	2,370956  	-0,047952  
167,557000  	17,467965  	36,670536  	1256,818530  	657,183579  	80,119967  	73,327707  	0,004719  	0,008750  	0,003960  	0,004137  	0,004378  	0,000000  	-0,000000  	24,204420  	20,560783  	21,880638  	23,434338  	29,870899  	27,906091  	29,710049  	30,683421  	37,209172  	35,753731  	39,838551  	66,186513  	22,567123  	21,256646  	23,311450  	72,149783  	0,117525  	0,059551  	-4783,343207  	-9725,580930  	-0,013764  	-0,049996  	0,325348  	0,164856  	-4,694018  	10218,733631  	16425,504027  	2,382318  	-0,047948  
168,558000  	17,461343  	36,664863  	1256,818530  	57,696365  	80,126340  	73,322282  	0,004703  	0,008765  	0,003960  	0,004067  	0,004331  	0,000000  	-0,000000  	24,208842  	20,558680  	21,884920  	23,438984  	29,874341  	27,912393  	29,710682  	30,691009  	37,214142  	35,757099  	39,845945  	66,184582  	22,560286  	21,259595  	23,317388  	72,151972  	0,060941  	0,030879  	-2480,441636  	-24491,862068  	-0,018199  	-0,049996  	0,288037  	0,145950  	-4,162923  	10251,213191  	16076,262352  	2,331665  	-0,047948  
169,560000  	17,468456  	36,667052  	1256,818530  	-242,047242  	80,121748  	73,311993  	0,004721  	0,008712  	0,003961  	0,004112  	0,004354  	-0,000000  	-0,000000  	24,212009  	20,559116  	21,890588  	23,447490  	29,875054  	27,914961  	29,706411  	30,694007  	37,214184  	35,763946  	39,846423  	66,185447  	22,552653  	21,263488  	23,316662  	72,151520  	0,097397  	0,049352  	-3963,278886  	-35512,618393  	-0,021696  	-0,050005  	0,306542  	0,155327  	-4,434072  	10137,325681  	16457,243641  	2,386921  	-0,047955  
170,558000  	17,484214  	36,661625  	1256,818530  	357,439972  	80,118686  	73,312617  	0,004716  	0,008763  	0,003961  	0,004140  	0,004356  	-0,000000  	-0,000000  	24,202088  	20,561389  	21,889578  	23,443599  	29,870965  	27,914239  	29,705359  	30,691023  	37,215268  	35,761962  	39,842540  	66,188505  	22,536946  	21,262537  	23,314827  	72,149526  	0,119680  	0,060643  	-4864,670117  	-16234,690156  	-0,015675  	-0,050002  	0,307964  	0,156048  	-4,452236  	10247,865556  	16353,728013  	2,371908  	-0,047953  
171,558000  	17,494608  	36,659775  	357,499067  	357,439972  	80,114905  	73,323903  	0,004706  	0,008765  	0,003961  	0,004120  	0,004352  	-0,000001  	-0,000000  	24,191976  	20,557858  	21,887175  	23,436451  	29,867626  	27,912755  	29,704998  	30,683363  	37,216183  	35,761189  	39,834989  	66,182808  	22,517631  	21,258465  	23,315530  	72,144900  	0,103774  	0,052583  	-4215,411750  	-1,685497  	-0,026856  	-0,050008  	0,305238  	0,154666  	-4,403060  	10250,691803  	16129,248796  	2,339350  	-0,047959  
172,557000  	17,490070  	36,662119  	957,045375  	-242,047242  	80,114843  	73,319975  	0,004720  	0,008759  	0,003960  	0,004139  	0,004374  	0,000000  	-0,000000  	24,198229  	20,554850  	21,881708  	23,435777  	29,865394  	27,911055  	29,700399  	30,675719  	37,212052  	35,760176  	39,831759  	66,178929  	22,502845  	21,245478  	23,307556  	72,138984  	0,119387  	0,060494  	-4851,398989  	-34192,855088  	-0,026850  	-0,049998  	0,322717  	0,163523  	-4,657840  	10239,278575  	16439,640336  	2,384368  	-0,047950  
173,561000  	17,482344  	36,669457  	1256,818530  	1256,670793  	80,113156  	73,314924  	0,004714  	0,008746  	0,003961  	0,004085  	0,004369  	0,000001  	-0,000000  	24,199712  	20,553448  	21,875973  	23,437811  	29,860556  	27,907813  	29,697934  	30,680961  	37,206508  	35,754734  	39,836893  	66,178823  	22,492333  	21,232454  	23,302124  	72,138394  	0,075201  	0,038105  	-3058,260728  	-1,993304  	-0,011067  	-0,049993  	0,318305  	0,161288  	-4,596440  	10210,619224  	16312,554778  	2,365936  	-0,047945  
174,557000  	17,461987  	36,669950  	657,272221  	1256,670793  	80,116967  	73,318416  	0,004709  	0,008735  	0,003961  	0,004143  	0,004372  	0,000000  	-0,000000  	24,197444  	20,553544  	21,885033  	23,441463  	29,860953  	27,908129  	29,703982  	30,685249  	37,211207  	35,753741  	39,835997  	66,180020  	22,491275  	21,227470  	23,307203  	72,137513  	0,122184  	0,061912  	-4974,374517  	9722,117700  	-0,013765  	-0,049997  	0,320610  	0,162456  	-4,629943  	10187,081783  	16212,950996  	2,351490  	-0,047949  
175,559000  	17,458216  	36,666158  	-242,047242  	357,439972  	80,117561  	73,321970  	0,004718  	0,008747  	0,003959  	0,004130  	0,004349  	-0,000001  	-0,000000  	24,199933  	20,556513  	21,888593  	23,438144  	29,870833  	27,910720  	29,707808  	30,687596  	37,213677  	35,754570  	39,839649  	66,181555  	22,489382  	21,224668  	23,313683  	72,143003  	0,112331  	0,056919  	-4573,238383  	30947,390610  	-0,051190  	-0,050009  	0,302825  	0,153444  	-4,371208  	10212,049680  	16393,446663  	2,377668  	-0,047959  
176,559000  	17,470418  	36,659313  	957,045375  	-242,047242  	80,114874  	73,324028  	0,004712  	0,008762  	0,003962  	0,004101  	0,004370  	-0,000000  	-0,000000  	24,207384  	20,556819  	21,887973  	23,446062  	29,868124  	27,905117  	29,707670  	30,693974  	37,218374  	35,758013  	39,839830  	66,187216  	22,490620  	21,220798  	23,308600  	72,146726  	0,088404  	0,044795  	-3595,540379  	-34193,896753  	-0,026851  	-0,050000  	0,318952  	0,161615  	-4,600772  	10244,284463  	16268,253479  	2,359511  	-0,047951  
177,558000  	17,480811  	36,656322  	57,725912  	1256,670793  	80,109282  	73,318759  	0,004711  	0,008740  	0,003961  	0,004137  	0,004343  	0,000001  	-0,000000  	24,198053  	20,565927  	21,890550  	23,437262  	29,863794  	27,904944  	29,704679  	30,698301  	37,216984  	35,758767  	39,839317  	66,187894  	22,492956  	21,224423  	23,312367  	72,151655  	0,117370  	0,059472  	-4770,301218  	24487,664320  	-0,018199  	-0,049992  	0,297831  	0,150913  	-4,295905  	10197,334093  	16243,087742  	2,355861  	-0,047945  
178,560000  	17,478420  	36,664524  	657,272221  	1256,670793  	80,109531  	73,312461  	0,004722  	0,008745  	0,003962  	0,004090  	0,004359  	-0,000001  	-0,000000  	24,208316  	20,560848  	21,887315  	23,434659  	29,869950  	27,918964  	29,701920  	30,690210  	37,219704  	35,755682  	39,848124  	66,182158  	22,494323  	21,228865  	23,310221  	72,152799  	0,079284  	0,040174  	-3224,125498  	9724,581151  	-0,013768  	-0,050012  	0,310499  	0,157332  	-4,482949  	10207,544663  	16489,851770  	2,391651  	-0,047961  
179,558000  	17,469222  	36,662026  	-242,047242  	1256,670793  	80,107282  	73,318073  	0,004708  	0,008723  	0,003963  	0,004139  	0,004354  	-0,000001  	-0,000000  	24,207990  	20,558520  	21,876224  	23,445813  	29,867785  	27,907128  	29,703386  	30,692534  	37,214489  	35,765229  	39,835840  	66,187508  	22,495156  	21,223784  	23,317319  	72,155673  	0,119497  	0,060550  	-4861,135502  	35513,565347  	-0,021699  	-0,050007  	0,306843  	0,155479  	-4,425032  	10161,611600  	16171,869555  	2,345531  	-0,047958  
180,561000  	17,454690  	36,652530  	957,045375  	1256,670793  	80,106907  	73,325431  	0,004714  	0,008767  	0,003960  	0,004172  	0,004402  	0,000000  	-0,000000  	24,202965  	20,560425  	21,895077  	23,447066  	29,874137  	27,918627  	29,701841  	30,681041  	37,216055  	35,761627  	39,841282  	66,192543  	22,493140  	21,230005  	23,310241  	72,140582  	0,145816  	0,073886  	-5933,358303  	4416,653171  	-0,012270  	-0,049999  	0,344950  	0,174789  	-4,968921  	10255,602894  	16314,348296  	2,366196  	-0,047950  
181,559000  	17,459871  	36,646085  	57,725912  	-242,047242  	80,112250  	73,308345  	0,004720  	0,008728  	0,003960  	0,004124  	0,004363  	0,000000  	-0,000000  	24,207447  	20,567738  	21,893379  	23,447034  	29,878486  	27,910966  	29,708761  	30,703474  	37,214929  	35,765925  	39,843817  	66,195317  	22,513729  	21,237693  	23,317351  	72,151981  	0,107440  	0,054440  	-4369,129591  	-27698,707382  	-0,093556  	-0,049998  	0,313592  	0,158899  	-4,532149  	10172,173771  	16435,933262  	2,383831  	-0,047949  
182,558000  	17,473974  	36,643865  	657,272221  	357,439972  	80,122622  	73,301174  	0,004707  	0,008762  	0,003960  	0,004039  	0,004349  	-0,000001  	-0,000000  	24,196763  	20,563244  	21,888126  	23,451101  	29,860928  	27,914011  	29,696369  	30,694519  	37,212815  	35,767973  	39,842138  	66,180547  	22,500261  	21,225765  	23,312321  	72,136796  	0,037921  	0,019215  	-1540,798165  	-7105,412135  	-0,021701  	-0,050015  	0,302341  	0,153199  	-4,380811  	10245,559989  	16158,255767  	2,343557  	-0,047964  
183,563000  	17,480689  	36,643495  	657,272221  	1256,670793  	80,121060  	73,320380  	0,004716  	0,008755  	0,003960  	0,004108  	0,004347  	0,000001  	-0,000000  	24,201797  	20,549537  	21,885075  	23,435351  	29,860425  	27,894644  	29,691962  	30,677498  	37,207755  	35,756056  	39,831158  	66,184520  	22,506904  	21,225704  	23,310411  	72,135842  	0,094081  	0,047672  	-3821,227002  	9721,185718  	-0,013764  	-0,049992  	0,300885  	0,152461  	-4,346451  	10230,686641  	16353,212554  	2,371833  	-0,047945  
184,559000  	17,485410  	36,649169  	57,725912  	1256,670793  	80,116436  	73,323809  	0,004719  	0,008722  	0,003960  	0,004125  	0,004334  	-0,000000  	-0,000000  	24,201696  	20,559440  	21,892324  	23,438598  	29,856379  	27,901831  	29,705971  	30,680063  	37,202423  	35,757293  	39,832153  	66,181414  	22,511466  	21,227383  	23,302108  	72,143265  	0,108238  	0,054845  	-4396,454592  	24493,023218  	-0,018203  	-0,050004  	0,290898  	0,147400  	-4,197205  	10158,058805  	16418,527667  	2,381306  	-0,047955  
185,559000  	17,492063  	36,646856  	57,725912  	-242,047242  	80,115343  	73,314082  	0,004705  	0,008762  	0,003961  	0,004160  	0,004375  	-0,000001  	-0,000000  	24,192571  	20,572433  	21,892497  	23,444555  	29,868334  	27,918225  	29,701706  	30,686585  	37,218227  	35,755747  	39,835626  	66,186723  	22,525352  	21,225620  	23,309071  	72,142215  	0,136233  	0,069030  	-5530,959276  	-27708,644753  	-0,093590  	-0,050018  	0,323630  	0,163986  	-4,675409  	10244,494575  	16117,379098  	2,337628  	-0,047967  
186,559000  	17,513708  	36,648213  	1256,818530  	357,439972  	80,118405  	73,330045  	0,004716  	0,008742  	0,003960  	0,004131  	0,004385  	-0,000000  	-0,000000  	24,191737  	20,565334  	21,881362  	23,427652  	29,862792  	27,911689  	29,695989  	30,681965  	37,213672  	35,753268  	39,845873  	66,185559  	22,518547  	21,241692  	23,313508  	72,137507  	0,112756  	0,057134  	-4572,957525  	-16234,672323  	-0,015675  	-0,050002  	0,330926  	0,167683  	-4,771759  	10202,175854  	16350,013878  	2,371369  	-0,047953  
187,558000  	17,528885  	36,653855  	1256,818530  	1256,670793  	80,118280  	73,325992  	0,004719  	0,008741  	0,003958  	0,004098  	0,004364  	0,000001  	-0,000000  	24,203947  	20,552741  	21,879710  	23,435814  	29,863687  	27,898047  	29,699318  	30,691146  	37,206789  	35,758953  	39,836911  	66,189288  	22,525030  	21,241184  	23,312085  	72,141769  	0,086156  	0,043656  	-3492,399687  	-1,993276  	-0,011067  	-0,049992  	0,314489  	0,159354  	-4,537365  	10199,962255  	16414,728798  	2,380755  	-0,047945  
188,560000  	17,515763  	36,658974  	57,725912  	57,696365  	80,116468  	73,311089  	0,004705  	0,008781  	0,003960  	0,004118  	0,004360  	-0,000000  	-0,000000  	24,199857  	20,553010  	21,882968  	23,435188  	29,865452  	27,903799  	29,687644  	30,682705  	37,211425  	35,757493  	39,832423  	66,184869  	22,520210  	21,246616  	23,310263  	72,136280  	0,102127  	0,051749  	-4143,771392  	-1,525125  	-0,051183  	-0,050004  	0,311218  	0,157696  	-4,498817  	10285,385669  	16108,799870  	2,336384  	-0,047954  
189,559000  	17,492278  	36,657617  	57,725912  	1256,670793  	80,113499  	73,309405  	0,004718  	0,008740  	0,003960  	0,004079  	0,004330  	-0,000000  	-0,000000  	24,196779  	20,556896  	21,882690  	23,437294  	29,865240  	27,902267  	29,695806  	30,681126  	37,209536  	35,763566  	39,830323  	66,191493  	22,520139  	21,241861  	23,311042  	72,142244  	0,070535  	0,035740  	-2865,221347  	24491,285343  	-0,018201  	-0,050000  	0,287494  	0,145676  	-4,155094  	10196,865056  	16398,693056  	2,378429  	-0,047952  
190,558000  	17,491848  	36,661009  	657,272221  	1256,670793  	80,113062  	73,312710  	0,004716  	0,008755  	0,003961  	0,004118  	0,004303  	-0,000001  	-0,000000  	24,192150  	20,556087  	21,878195  	23,437017  	29,859289  	27,899807  	29,698531  	30,670224  	37,201601  	35,755840  	39,838589  	66,181299  	22,513003  	21,221442  	23,302802  	72,135498  	0,101934  	0,051651  	-4141,550652  	9725,019019  	-0,013769  	-0,050014  	0,266227  	0,134899  	-3,845614  	10228,933590  	16362,236631  	2,373142  	-0,047963  
191,560000  	17,496999  	36,663969  	657,272221  	1256,670793  	80,113406  	73,319975  	0,004706  	0,008751  	0,003960  	0,004122  	0,004359  	-0,000000  	-0,000000  	24,199972  	20,562008  	21,893301  	23,446042  	29,874735  	27,907290  	29,704632  	30,684162  	37,213393  	35,763857  	39,845101  	66,183392  	22,510383  	21,225623  	23,310164  	72,145054  	0,105086  	0,053248  	-4269,103731  	9723,140815  	-0,013766  	-0,050003  	0,310888  	0,157529  	-4,486165  	10220,575113  	16148,673864  	2,342167  	-0,047954  
192,558000  	17,513371  	36,664524  	1256,818530  	1256,670793  	80,115405  	73,323965  	0,004720  	0,008756  	0,003960  	0,004128  	0,004364  	-0,000000  	-0,000000  	24,196113  	20,561693  	21,890740  	23,448658  	29,870062  	27,910289  	29,708508  	30,690799  	37,213714  	35,764544  	39,846358  	66,187927  	22,499824  	21,225568  	23,313805  	72,145574  	0,110408  	0,055944  	-4481,603748  	-1,993594  	-0,011069  	-0,050001  	0,314223  	0,159219  	-4,532956  	10232,144688  	16437,444336  	2,384050  	-0,047952  
193,559000  	17,531828  	36,664215  	957,045375  	-242,047242  	80,113843  	73,313365  	0,004710  	0,008755  	0,003962  	0,004106  	0,004372  	-0,000001  	-0,000000  	24,193159  	20,558146  	21,885838  	23,441518  	29,867290  	27,910603  	29,700086  	30,680733  	37,209236  	35,754526  	39,842506  	66,188435  	22,488891  	21,218594  	23,306595  	72,139127  	0,092418  	0,046829  	-3747,688015  	-34199,703533  	-0,026855  	-0,050010  	0,320536  	0,162418  	-4,630178  	10230,002541  	16230,307163  	2,354007  	-0,047960  
194,559000  	17,531399  	36,668840  	357,499067  	357,439972  	80,105220  	73,319351  	0,004710  	0,008759  	0,003961  	0,004131  	0,004355  	0,000000  	-0,000000  	24,196527  	20,555930  	21,877723  	23,433230  	29,864323  	27,910610  	29,699707  	30,676869  	37,205925  	35,755485  	39,839551  	66,185722  	22,484372  	21,215366  	23,309212  	72,139872  	0,112770  	0,057142  	-4574,222653  	-1,685142  	-0,026850  	-0,049997  	0,307325  	0,155724  	-4,429816  	10238,121900  	16223,147215  	2,352969  	-0,047949  
195,558000  	17,535170  	36,669118  	1256,818530  	1256,670793  	80,105657  	73,329577  	0,004722  	0,008724  	0,003960  	0,004074  	0,004353  	-0,000001  	-0,000000  	24,202912  	20,558002  	21,878997  	23,442864  	29,861859  	27,912456  	29,707851  	30,678619  	37,210611  	35,765483  	39,844560  	66,191309  	22,491857  	21,219037  	23,317451  	72,144898  	0,066781  	0,033838  	-2708,293707  	-1,993798  	-0,011070  	-0,050007  	0,305831  	0,154967  	-4,401917  	10162,674891  	16472,410870  	2,389121  	-0,047957  
196,560000  	17,535293  	36,675778  	1256,818530  	57,696365  	80,110781  	73,322968  	0,004710  	0,008745  	0,003961  	0,004123  	0,004327  	0,000000  	-0,000000  	24,204635  	20,558951  	21,886980  	23,443739  	29,863170  	27,908983  	29,701738  	30,680701  	37,212351  	35,762184  	39,842032  	66,189465  	22,500496  	21,222019  	23,315992  	72,147138  	0,106106  	0,053765  	-4304,598627  	-24490,871976  	-0,018198  	-0,049994  	0,285007  	0,144415  	-4,109296  	10208,630593  	16233,647060  	2,354491  	-0,047946  
197,560000  	17,547372  	36,673527  	57,725912  	57,696365  	80,110156  	73,310840  	0,004715  	0,008733  	0,003962  	0,004135  	0,004323  	-0,000001  	-0,000000  	24,200896  	20,556859  	21,886404  	23,438092  	29,865629  	27,907696  	29,698864  	30,681194  	37,208937  	35,756135  	39,835899  	66,181007  	22,504010  	21,218335  	23,316556  	72,148096  	0,116139  	0,058848  	-4708,072101  	-1,525271  	-0,051188  	-0,050009  	0,282067  	0,142925  	-4,073789  	10182,184134  	16328,272772  	2,368216  	-0,047959  
198,560000  	17,560617  	36,662119  	1256,818530  	1256,670793  	80,112593  	73,305976  	0,004722  	0,008738  	0,003960  	0,004091  	0,004374  	-0,000001  	-0,000000  	24,201006  	20,556247  	21,887019  	23,439741  	29,867452  	27,911062  	29,702519  	30,679289  	37,210401  	35,754824  	39,837816  	66,180816  	22,505070  	21,212435  	23,320868  	72,145523  	0,080629  	0,040855  	-3264,352004  	-1,994008  	-0,011071  	-0,050013  	0,322296  	0,163310  	-4,659793  	10192,144975  	16477,883217  	2,389915  	-0,047962  
199,561000  	17,576990  	36,662026  	1256,818530  	1256,670793  	80,121373  	73,316046  	0,004709  	0,008777  	0,003961  	0,004102  	0,004370  	0,000000  	-0,000000  	24,202083  	20,556354  	21,888845  	23,434940  	29,864361  	27,908850  	29,694193  	30,683028  	37,211299  	35,750024  	39,838745  	66,182537  	22,501520  	21,209742  	23,319899  	72,138086  	0,089453  	0,045326  	-3618,449641  	-1,993396  	-0,011067  	-0,049995  	0,319133  	0,161707  	-4,613205  	10277,015167  	16193,914288  	2,348729  	-0,047947  
200,559000  	17,587414  	36,662643  	1256,818530  	1256,670793  	80,126247  	73,315672  	0,004715  	0,008710  	0,003963  	0,004143  	0,004366  	-0,000000  	-0,000000  	24,199021  	20,557135  	21,884085  	23,442752  	29,862207  	27,907344  	29,694527  	30,686749  	37,211130  	35,754896  	39,840047  	66,188622  	22,505654  	21,209585  	23,322256  	72,136646  	0,122623  	0,062134  	-4957,661804  	-1,993640  	-0,011069  	-0,050002  	0,316524  	0,160385  	-4,579019  	10132,713840  	16332,558856  	2,368837  	-0,047953  
201,560000  	17,583643  	36,665603  	957,045375  	1256,670793  	80,124466  	73,323186  	0,004721  	0,008779  	0,003959  	0,004118  	0,004352  	0,000000  	-0,000000  	24,200054  	20,556625  	21,879953  	23,438958  	29,861044  	27,899780  	29,694095  	30,681310  	37,204210  	35,755676  	39,838320  	66,187046  	22,515994  	21,204699  	23,321491  	72,137605  	0,102227  	0,051799  	-4134,503994  	4416,658023  	-0,012270  	-0,049999  	0,305130  	0,154611  	-4,408158  	10281,240035  	16459,369030  	2,387230  	-0,047950  
202,560000  	17,565124  	36,662828  	-242,047242  	1256,670793  	80,117405  	73,339211  	0,004704  	0,008738  	0,003960  	0,004048  	0,004343  	-0,000001  	-0,000000  	24,209951  	20,559496  	21,884391  	23,434464  	29,870188  	27,905448  	29,696446  	30,678885  	37,203386  	35,758468  	39,842525  	66,189735  	22,519324  	21,199590  	23,325150  	72,137498  	0,045877  	0,023246  	-1856,991820  	35514,665278  	-0,021700  	-0,050009  	0,297843  	0,150919  	-4,288298  	10193,692868  	16096,393529  	2,334585  	-0,047959  
203,560000  	17,542957  	36,662920  	-242,047242  	357,439972  	80,113531  	73,330731  	0,004718  	0,008736  	0,003962  	0,004140  	0,004315  	-0,000000  	-0,000000  	24,209005  	20,562419  	21,886687  	23,437376  	29,859453  	27,907946  	29,696836  	30,676482  	37,204920  	35,758834  	39,837172  	66,187260  	22,523603  	21,195023  	23,320399  	72,140683  	0,119883  	0,060746  	-4858,284299  	30943,964544  	-0,051184  	-0,050002  	0,276062  	0,139883  	-3,977388  	10189,812525  	16387,232901  	2,376767  	-0,047953  
204,561000  	17,531613  	36,667607  	957,045375  	956,927186  	80,111656  	73,323186  	0,004720  	0,008794  	0,003961  	0,004160  	0,004332  	-0,000001  	-0,000000  	24,208279  	20,558764  	21,892713  	23,438479  	29,867015  	27,914179  	29,701479  	30,682753  	37,212466  	35,759632  	39,843047  	66,190536  	22,535158  	21,200260  	23,318714  	72,141306  	0,136148  	0,068987  	-5522,050356  	-1,917303  	-0,013767  	-0,050006  	0,289412  	0,146647  	-4,173211  	10313,938903  	16448,396091  	2,385638  	-0,047957  
205,559000  	17,517878  	36,682006  	57,725912  	1256,670793  	80,111531  	73,326366  	0,004706  	0,008745  	0,003961  	0,004127  	0,004370  	-0,000002  	-0,000000  	24,193932  	20,565044  	21,882404  	23,437858  	29,869786  	27,905871  	29,705144  	30,680566  	37,206462  	35,755675  	39,845468  	66,187006  	22,544969  	21,198835  	23,326855  	72,140600  	0,109698  	0,055585  	-4455,814029  	24499,390049  	-0,018207  	-0,050019  	0,319252  	0,161767  	-4,601260  	10207,788024  	16131,268269  	2,339643  	-0,047968  
206,559000  	17,516590  	36,696313  	657,272221  	657,183579  	80,113906  	73,328050  	0,004717  	0,008742  	0,003963  	0,004119  	0,004408  	0,000000  	-0,000000  	24,190685  	20,554710  	21,880801  	23,439028  	29,859929  	27,911487  	29,696789  	30,676553  	37,194812  	35,757837  	39,834389  	66,187620  	22,544198  	21,188508  	23,324236  	72,139853  	0,102917  	0,052149  	-4183,762197  	-1,810468  	-0,018199  	-0,049994  	0,349786  	0,177239  	-5,041852  	10200,829584  	16374,501750  	2,374921  	-0,047946  
207,560000  	17,508128  	36,705563  	657,272221  	657,183579  	80,118248  	73,331697  	0,004720  	0,008762  	0,003961  	0,004130  	0,004388  	0,000000  	-0,000000  	24,200781  	20,561107  	21,893385  	23,437709  	29,868297  	27,909219  	29,696895  	30,682694  	37,209243  	35,758049  	39,839450  	66,189136  	22,557949  	21,204849  	23,325586  	72,141922  	0,111883  	0,056692  	-4552,466336  	-1,810539  	-0,018199  	-0,049996  	0,333407  	0,168940  	-4,806253  	10244,268900  	16447,216889  	2,385467  	-0,047948  
208,561000  	17,502916  	36,713210  	57,725912  	1256,670793  	80,115561  	73,334753  	0,004705  	0,008765  	0,003961  	0,004096  	0,004353  	0,000000  	-0,000000  	24,201556  	20,569442  	21,887688  	23,455746  	29,870136  	27,908666  	29,702515  	30,692020  	37,206910  	35,756809  	39,835585  	66,186191  	22,561567  	21,208916  	23,317448  	72,147357  	0,084153  	0,042641  	-3426,435956  	24489,140349  	-0,018200  	-0,049996  	0,305682  	0,154891  	-4,402852  	10250,318272  	16115,458481  	2,337350  	-0,047948  
209,562000  	17,500280  	36,711113  	957,045375  	1256,670793  	80,113968  	73,322812  	0,004721  	0,008765  	0,003960  	0,004107  	0,004346  	0,000000  	-0,000000  	24,218961  	20,577872  	21,903150  	23,464026  	29,886862  	27,927391  	29,719601  	30,700933  	37,227854  	35,772757  	39,863838  	66,201689  	22,581491  	21,211969  	23,343365  	72,157246  	0,093670  	0,047463  	-3814,039710  	4416,681310  	-0,012270  	-0,049999  	0,300288  	0,152158  	-4,331755  	10251,177819  	16468,153030  	2,388504  	-0,047951  
210,560000  	17,489365  	36,701678  	357,499067  	657,183579  	80,109656  	73,324745  	0,004715  	0,008766  	0,003962  	0,004094  	0,004341  	0,000000  	-0,000000  	24,201697  	20,564331  	21,888871  	23,441784  	29,876656  	27,908641  	29,698457  	30,690074  	37,205678  	35,763484  	39,841125  	66,195883  	22,566179  	21,190417  	23,328728  	72,139631  	0,082417  	0,041761  	-3356,122143  	7099,553184  	-0,021694  	-0,049995  	0,296122  	0,150047  	-4,267730  	10254,552337  	16332,318778  	2,368803  	-0,047947  
211,560000  	17,481271  	36,695481  	1256,818530  	657,183579  	80,107407  	73,323591  	0,004709  	0,008746  	0,003961  	0,004107  	0,004351  	-0,000001  	-0,000000  	24,200553  	20,561637  	21,891086  	23,446001  	29,865712  	27,914843  	29,706027  	30,683754  	37,201230  	35,756628  	39,839039  	66,187719  	22,569912  	21,188786  	23,331637  	72,134688  	0,093126  	0,047187  	-3792,558187  	-9727,303142  	-0,013767  	-0,050006  	0,304509  	0,154297  	-4,387890  	10211,412978  	16199,859729  	2,349591  	-0,047957  
212,561000  	17,499544  	36,695357  	1256,818530  	1256,670793  	80,106220  	73,321409  	0,004719  	0,008749  	0,003962  	0,004123  	0,004348  	0,000001  	-0,000000  	24,208641  	20,569603  	21,894819  	23,446273  	29,870281  	27,920916  	29,712420  	30,682061  	37,206771  	35,760916  	39,848889  	66,186773  	22,566976  	21,200269  	23,335947  	72,138988  	0,106102  	0,053762  	-4316,862282  	-1,993170  	-0,011066  	-0,049989  	0,301600  	0,152823  	-4,346608  	10217,194228  	16428,067204  	2,382690  	-0,047942  
213,559000  	17,519135  	36,689591  	57,725912  	956,927186  	80,104595  	73,320349  	0,004713  	0,008766  	0,003963  	0,004084  	0,004411  	0,000000  	-0,000000  	24,210691  	20,572632  	21,895577  	23,448860  	29,872659  	27,916224  	29,713165  	30,688732  	37,210146  	35,761282  	39,847629  	66,188488  	22,560951  	21,204625  	23,336940  	72,141749  	0,074446  	0,037723  	-3024,925829  	21303,395114  	-0,021695  	-0,049997  	0,352141  	0,178432  	-5,074578  	10253,063870  	16291,830469  	2,362930  	-0,047949  
214,560000  	17,513739  	36,687680  	657,272221  	-242,047242  	80,106282  	73,326958  	0,004712  	0,008716  	0,003960  	0,004112  	0,004381  	0,000000  	-0,000000  	24,218301  	20,585639  	21,906150  	23,465775  	29,886902  	27,927194  	29,720001  	30,703771  	37,222649  	35,773619  	39,857849  	66,198301  	22,584467  	21,216615  	23,344029  	72,144284  	0,097007  	0,049154  	-3942,353650  	-32742,078242  	-0,035220  	-0,049997  	0,327644  	0,166020  	-4,718148  	10146,620816  	16266,544694  	2,359263  	-0,047948  
215,560000  	17,500218  	36,686477  	-242,047242  	657,183579  	80,107969  	73,314051  	0,004720  	0,008726  	0,003960  	0,004087  	0,004379  	-0,000001  	-0,000000  	24,220456  	20,579947  	21,906205  	23,454845  	29,883118  	27,926821  	29,711362  	30,704478  	37,222941  	35,765325  	39,852852  	66,190047  	22,575256  	21,208152  	23,341320  	72,145428  	0,076935  	0,038984  	-3128,637045  	32747,337602  	-0,035229  	-0,050006  	0,326073  	0,165224  	-4,705624  	10167,472791  	16432,621609  	2,383350  	-0,047957  
216,561000  	17,480290  	36,683147  	957,045375  	1256,670793  	80,109781  	73,318166  	0,004710  	0,008764  	0,003960  	0,004110  	0,004329  	0,000001  	-0,000000  	24,213263  	20,574509  	21,893326  	23,447194  	29,881574  	27,927271  	29,710598  	30,691317  	37,212487  	35,771188  	39,850378  	66,186644  	22,580509  	21,197525  	23,335869  	72,149117  	0,095359  	0,048319  	-3881,215133  	4415,655043  	-0,012267  	-0,049986  	0,286920  	0,145384  	-4,139190  	10249,409203  	16232,234842  	2,354287  	-0,047939  
217,561000  	17,467321  	36,676888  	1256,818530  	1256,670793  	80,114655  	73,317667  	0,004714  	0,008785  	0,003960  	0,004116  	0,004318  	0,000001  	-0,000000  	24,220983  	20,579503  	21,904370  	23,452984  	29,883279  	27,935249  	29,716763  	30,698243  	37,215740  	35,771459  	39,852183  	66,193448  	22,578747  	21,199001  	23,342119  	72,156380  	0,100422  	0,050885  	-4088,719234  	-1,993319  	-0,011067  	-0,049993  	0,277854  	0,140791  	-4,011572  	10294,607230  	16304,957042  	2,364834  	-0,047946  
218,560000  	17,475967  	36,676333  	1256,818530  	1256,670793  	80,114905  	73,320286  	0,004719  	0,008743  	0,003961  	0,004132  	0,004340  	-0,000001  	-0,000000  	24,214244  	20,580670  	21,898363  	23,450385  	29,877978  	27,926767  	29,716378  	30,693973  	37,214561  	35,762460  	39,841758  	66,183685  	22,561052  	21,180618  	23,345430  	72,155076  	0,113936  	0,057732  	-4636,730910  	-1,993823  	-0,011070  	-0,050007  	0,295319  	0,149640  	-4,262245  	10204,079592  	16418,534728  	2,381307  	-0,047958  
219,562000  	17,498501  	36,676610  	1256,818530  	1256,670793  	80,117842  	73,326803  	0,004707  	0,008759  	0,003962  	0,004093  	0,004387  	-0,000000  	-0,000000  	24,214951  	20,574821  	21,899117  	23,447341  	29,874456  	27,932136  	29,716254  	30,690371  	37,214483  	35,764164  	39,844351  	66,181830  	22,555865  	21,171175  	23,345015  	72,148685  	0,081830  	0,041464  	-3326,277373  	-1,993756  	-0,011069  	-0,050006  	0,332732  	0,168598  	-4,799694  	10239,272915  	16165,472205  	2,344604  	-0,047956  
220,562000  	17,526217  	36,677597  	1256,818530  	1256,670793  	80,115780  	73,324059  	0,004716  	0,008740  	0,003961  	0,004120  	0,004343  	0,000001  	-0,000000  	24,219837  	20,571184  	21,898122  	23,448620  	29,881880  	27,933270  	29,714043  	30,695570  	37,218355  	35,764058  	39,844568  	66,183817  	22,548188  	21,170692  	23,345253  	72,138050  	0,104065  	0,052731  	-4224,196380  	-1,993311  	-0,011067  	-0,049993  	0,298229  	0,151115  	-4,302404  	10197,362391  	16363,472322  	2,373321  	-0,047945  
221,561000  	17,533576  	36,676672  	957,045375  	1256,670793  	80,124060  	73,320910  	0,004720  	0,008737  	0,003961  	0,004147  	0,004355  	0,000000  	-0,000000  	24,218693  	20,572018  	21,897425  	23,455482  	29,886112  	27,927501  	29,717901  	30,703055  	37,219155  	35,763024  	39,842467  	66,186533  	22,548911  	21,170027  	23,350761  	72,135025  	0,125749  	0,063718  	-5102,171477  	4416,323588  	-0,012269  	-0,049994  	0,307594  	0,155860  	-4,444980  	10190,831955  	16428,921596  	2,382814  	-0,047947  
222,561000  	17,519902  	36,672170  	357,499067  	1256,670793  	80,126247  	73,316982  	0,004707  	0,008769  	0,003961  	0,004090  	0,004378  	-0,000000  	-0,000000  	24,217219  	20,573207  	21,903253  	23,459528  	29,884623  	27,929565  	29,723159  	30,706854  	37,217130  	35,767571  	39,847915  	66,194370  	22,556443  	21,172569  	23,355406  	72,142962  	0,079610  	0,040339  	-3231,648750  	16232,311905  	-0,015677  	-0,050004  	0,325280  	0,164822  	-4,704774  	10259,948028  	16158,559394  	2,343601  	-0,047955  
223,560000  	17,512819  	36,671708  	1256,818530  	1256,670793  	80,123247  	73,316576  	0,004719  	0,008759  	0,003962  	0,004076  	0,004326  	0,000001  	-0,000000  	24,221367  	20,572570  	21,905547  	23,458742  	29,885918  	27,927074  	29,722702  	30,704155  	37,219519  	35,770987  	39,853971  	66,196059  	22,556818  	21,169121  	23,360982  	72,144005  	0,068292  	0,034604  	-2773,173834  	-1,993324  	-0,011067  	-0,049993  	0,284310  	0,144062  	-4,110625  	10238,854814  	16415,265442  	2,380833  	-0,047946  
224,561000  	17,519442  	36,671338  	57,725912  	57,696365  	80,120623  	73,323248  	0,004719  	0,008760  	0,003961  	0,004084  	0,004361  	-0,000001  	-0,000000  	24,223728  	20,572976  	21,903662  	23,460333  	29,884615  	27,925932  	29,720257  	30,699881  	37,219922  	35,770934  	39,851911  	66,192633  	22,562991  	21,158452  	23,365580  	72,140098  	0,075079  	0,038043  	-3047,675374  	-1,525289  	-0,051188  	-0,050010  	0,312095  	0,158141  	-4,506196  	10240,382191  	16414,834715  	2,380770  	-0,047960  
225,561000  	17,508128  	36,664061  	57,725912  	1256,670793  	80,113656  	73,328424  	0,004706  	0,008730  	0,003962  	0,004156  	0,004358  	0,000000  	-0,000000  	24,219294  	20,575056  	21,899001  	23,455374  	29,881036  	27,928413  	29,715707  	30,699112  	37,214479  	35,770141  	39,846053  	66,190978  	22,569882  	21,150576  	23,358579  	72,141855  	0,132871  	0,067327  	-5394,781694  	24489,321489  	-0,018200  	-0,049996  	0,310117  	0,157138  	-4,469637  	10176,371756  	16138,470584  	2,340687  	-0,047948  
226,560000  	17,486422  	36,665171  	1256,818530  	657,183579  	80,108469  	73,324246  	0,004717  	0,008781  	0,003962  	0,004105  	0,004363  	0,000000  	-0,000000  	24,217140  	20,574156  	21,895814  	23,448126  	29,879782  	27,915520  	29,714520  	30,698887  	37,213526  	35,768164  	39,845190  	66,188695  	22,573000  	21,145699  	23,352455  	72,137283  	0,091672  	0,046451  	-3726,471281  	-9726,015400  	-0,013765  	-0,049999  	0,313432  	0,158818  	-4,516749  	10285,766983  	16375,497364  	2,375065  	-0,047950  
227,562000  	17,478144  	36,670999  	357,499067  	-242,047242  	80,109282  	73,323217  	0,004719  	0,008744  	0,003963  	0,004131  	0,004355  	0,000001  	-0,000000  	24,210727  	20,572122  	21,895730  	23,451036  	29,877587  	27,910850  	29,712282  	30,694290  	37,209749  	35,763634  	39,836647  	66,188213  	22,581768  	21,142341  	23,351209  	72,130930  	0,112775  	0,057144  	-4587,696973  	-30936,180284  	-0,051166  	-0,049988  	0,307379  	0,155751  	-4,430722  	10205,437181  	16412,956464  	2,380498  	-0,047941  
228,561000  	17,499605  	36,677844  	957,045375  	956,927186  	80,106595  	73,322718  	0,004709  	0,008752  	0,003960  	0,004087  	0,004347  	0,000001  	-0,000000  	24,214327  	20,569564  	21,902012  	23,443561  	29,883712  	27,916866  	29,708368  	30,694188  	37,211728  	35,765176  	39,840843  	66,181807  	22,578596  	21,137554  	23,354471  	72,134358  	0,077217  	0,039126  	-3138,766077  	-1,916649  	-0,013762  	-0,049987  	0,300999  	0,152518  	-4,337349  	10223,476350  	16210,253658  	2,351099  	-0,047941  
229,560000  	17,536979  	36,684905  	1256,818530  	57,696365  	80,105220  	73,329858  	0,004721  	0,008737  	0,003961  	0,004061  	0,004350  	-0,000001  	-0,000000  	24,218102  	20,568767  	21,900778  	23,451170  	29,878813  	27,920739  	29,710939  	30,697341  	37,209645  	35,763885  	39,844071  	66,183839  	22,586648  	21,134413  	23,361916  	72,143262  	0,056036  	0,028394  	-2274,188470  	-24496,914762  	-0,018203  	-0,050008  	0,303305  	0,153687  	-4,365106  	10190,292174  	16453,585995  	2,386391  	-0,047958  
230,561000  	17,557766  	36,679786  	1256,818530  	657,183579  	80,106220  	73,331604  	0,004715  	0,008732  	0,003962  	0,004081  	0,004338  	0,000000  	-0,000000  	24,222396  	20,585264  	21,907005  	23,460161  	29,882167  	27,930281  	29,721126  	30,704289  	37,224176  	35,781541  	39,848611  	66,189527  	22,596180  	21,138032  	23,374065  	72,155891  	0,072223  	0,036596  	-2927,177509  	-9725,828792  	-0,013765  	-0,049998  	0,293792  	0,148866  	-4,227725  	10179,839657  	16335,736348  	2,369298  	-0,047950  
231,560000  	17,560066  	36,677381  	1256,818530  	-242,047242  	80,106345  	73,319382  	0,004711  	0,008770  	0,003961  	0,004104  	0,004342  	-0,000000  	-0,000000  	24,224253  	20,579958  	21,912523  	23,453448  	29,877835  	27,931717  	29,720687  	30,706623  	37,220585  	35,770740  	39,849540  	66,197996  	22,594850  	21,156226  	23,363145  	72,150925  	0,090630  	0,045923  	-3672,297542  	-35512,251743  	-0,021696  	-0,050004  	0,296762  	0,150371  	-4,278239  	10261,043863  	16248,312951  	2,356619  	-0,047955  
232,561000  	17,545226  	36,677690  	1256,818530  	956,927186  	80,103345  	73,309156  	0,004720  	0,008704  	0,003962  	0,004146  	0,004381  	-0,000000  	-0,000000  	24,216283  	20,564996  	21,895552  	23,440122  	29,870247  	27,924290  	29,715770  	30,693957  	37,215183  	35,768216  	39,826768  	66,188942  	22,585451  	21,147463  	23,360868  	72,129778  	0,125211  	0,063445  	-5077,504132  	-4420,672446  	-0,012270  	-0,050000  	0,328348  	0,166376  	-4,738628  	10118,703577  	16441,885763  	2,384694  	-0,047952  
233,561000  	17,530510  	36,675624  	1256,818530  	57,696365  	80,104095  	73,314363  	0,004712  	0,008721  	0,003962  	0,004104  	0,004368  	0,000000  	-0,000000  	24,213493  	20,577749  	21,894550  	23,448416  	29,875662  	27,929229  	29,712719  	30,696845  	37,217652  	35,764186  	39,841043  	66,180499  	22,589479  	21,152358  	23,371805  	72,146612  	0,090638  	0,045927  	-3677,949950  	-24491,600196  	-0,018199  	-0,049996  	0,318004  	0,161135  	-4,586347  	10155,603260  	16263,127125  	2,358767  	-0,047948  
234,560000  	17,539585  	36,671985  	1256,818530  	657,183579  	80,108407  	73,324152  	0,004713  	0,008715  	0,003962  	0,004142  	0,004351  	0,000000  	-0,000000  	24,218920  	20,572968  	21,897327  	23,460059  	29,875113  	27,921830  	29,716576  	30,701581  	37,222798  	35,759474  	39,841109  	66,194541  	22,588215  	21,161535  	23,368102  	72,139588  	0,121772  	0,061703  	-4938,025356  	-9725,818108  	-0,013765  	-0,049998  	0,303990  	0,154034  	-4,380706  	10144,095941  	16282,538071  	2,361582  	-0,047949  
235,562000  	17,542988  	36,668378  	1256,818530  	-242,047242  	80,112406  	73,304323  	0,004722  	0,008769  	0,003960  	0,004105  	0,004388  	0,000001  	-0,000000  	24,220238  	20,581932  	21,896876  	23,448291  	29,884538  	27,929354  	29,724086  	30,698840  	37,215512  	35,780492  	39,846171  	66,193926  	22,611620  	21,173860  	23,368854  	72,151057  	0,091654  	0,046442  	-3715,350323  	-35503,348128  	-0,021691  	-0,049990  	0,333557  	0,169016  	-4,823648  	10259,698300  	16477,233596  	2,389821  	-0,047943  
236,562000  	17,539248  	36,668748  	1256,818530  	-242,047242  	80,112531  	73,307628  	0,004709  	0,008722  	0,003962  	0,004107  	0,004364  	-0,000000  	-0,000000  	24,208583  	20,565349  	21,908599  	23,449576  	29,874574  	27,929002  	29,710949  	30,686461  	37,226851  	35,761816  	39,836310  	66,182281  	22,608702  	21,185158  	23,366824  	72,148662  	0,093210  	0,047230  	-3779,220368  	-35510,639523  	-0,021695  	-0,050002  	0,314696  	0,159459  	-4,548778  	10159,161714  	16198,052089  	2,349329  	-0,047953  
237,562000  	17,554516  	36,678923  	1256,818530  	1256,670793  	80,115405  	73,307503  	0,004716  	0,008716  	0,003962  	0,004092  	0,004362  	0,000001  	-0,000000  	24,209531  	20,569078  	21,890734  	23,448938  	29,875162  	27,915813  	29,711827  	30,703411  	37,217411  	35,761615  	39,833462  	66,178984  	22,613547  	21,189963  	23,368727  	72,145958  	0,081362  	0,041227  	-3297,991220  	-1,993322  	-0,011067  	-0,049993  	0,312815  	0,158505  	-4,523569  	10144,651286  	16355,811036  	2,372210  	-0,047946  
238,563000  	17,569049  	36,690948  	1256,818530  	1256,670793  	80,117030  	73,309062  	0,004723  	0,008765  	0,003961  	0,004085  	0,004324  	-0,000000  	-0,000000  	24,216369  	20,578235  	21,888324  	23,454570  	29,880503  	27,922572  	29,715396  	30,697863  	37,221766  	35,772716  	39,836953  	66,183371  	22,628725  	21,194717  	23,386076  	72,147405  	0,075743  	0,038379  	-3069,795552  	-1,993632  	-0,011069  	-0,050002  	0,282909  	0,143352  	-4,091145  	10251,460797  	16497,152941  	2,392710  	-0,047953  
239,561000  	17,582110  	36,691596  	1256,818530  	1256,670793  	80,117842  	73,309904  	0,004705  	0,008689  	0,003961  	0,004128  	0,004372  	-0,000001  	-0,000000  	24,209546  	20,569723  	21,887785  	23,445023  	29,871344  	27,909755  	29,707396  	30,690501  	37,210946  	35,758073  	39,828408  	66,178291  	22,614551  	21,197578  	23,367976  	72,134408  	0,110371  	0,055926  	-4470,337977  	-1,994119  	-0,011071  	-0,050016  	0,321012  	0,162659  	-4,642132  	10087,604952  	16118,247612  	2,337754  	-0,047965  
240,562000  	17,586709  	36,685552  	57,725912  	1256,670793  	80,125716  	73,318821  	0,004718  	0,008729  	0,003962  	0,004139  	0,004392  	0,000000  	-0,000000  	24,217150  	20,576611  	21,896974  	23,447880  	29,870216  	27,917444  	29,714631  	30,697193  	37,217524  	35,767072  	39,838427  	66,177296  	22,634494  	21,206437  	23,379700  	72,151495  	0,119189  	0,060394  	-4824,805767  	24488,844425  	-0,018199  	-0,049995  	0,337028  	0,170774  	-4,873002  	10172,886877  	16393,015937  	2,377606  	-0,047947  
241,562000  	17,565554  	36,681791  	57,725912  	1256,670793  	80,117124  	73,315173  	0,004720  	0,008722  	0,003961  	0,004102  	0,004370  	0,000001  	-0,000000  	24,218349  	20,577898  	21,899819  	23,453299  	29,885586  	27,920709  	29,707575  	30,698996  	37,226997  	35,767140  	39,839156  	66,189957  	22,642401  	21,212984  	23,376449  	72,153716  	0,089124  	0,045160  	-3611,042711  	24487,694809  	-0,018199  	-0,049992  	0,319399  	0,161842  	-4,614758  	10158,145821  	16450,090754  	2,385884  	-0,047945  
242,564000  	17,541333  	36,685121  	1256,818530  	1256,670793  	80,105251  	73,309935  	0,004706  	0,008714  	0,003960  	0,004129  	0,004359  	0,000000  	-0,000000  	24,219924  	20,583034  	21,897403  	23,451884  	29,883849  	27,921174  	29,712338  	30,708934  	37,223302  	35,764810  	39,834151  	66,191803  	22,650685  	21,219834  	23,381624  	72,150888  	0,111257  	0,056375  	-4514,321095  	-1,993500  	-0,011068  	-0,049998  	0,310605  	0,157386  	-4,483319  	10140,277854  	16146,167175  	2,341804  	-0,047950  
243,563000  	17,532503  	36,683271  	1256,818530  	1256,670793  	80,102252  	73,307722  	0,004718  	0,008744  	0,003962  	0,004060  	0,004359  	-0,000001  	-0,000000  	24,221136  	20,576951  	21,900844  	23,459026  	29,875886  	27,925023  	29,714546  	30,697729  	37,221787  	35,766326  	39,833666  	66,189552  	22,664440  	21,231977  	23,382896  	72,154940  	0,055559  	0,028152  	-2255,148177  	-1,993875  	-0,011070  	-0,050009  	0,310742  	0,157455  	-4,484775  	10206,813164  	16391,547229  	2,377393  	-0,047959  
244,562000  	17,528272  	36,679447  	1256,818530  	1256,670793  	80,102314  	73,307597  	0,004720  	0,008716  	0,003961  	0,004115  	0,004337  	-0,000001  	-0,000000  	24,217931  	20,576181  	21,899738  	23,458512  	29,878828  	27,923375  	29,716060  	30,697439  	37,221791  	35,772906  	39,837220  	66,191688  	22,672710  	21,237814  	23,378225  	72,151131  	0,099652  	0,050494  	-4045,013559  	-1,993810  	-0,011070  	-0,050007  	0,292924  	0,148427  	-4,227724  	10145,962184  	16449,970715  	2,385867  	-0,047957  
245,573000  	17,517388  	36,688481  	1256,818530  	1256,670793  	80,100596  	73,309904  	0,004705  	0,008729  	0,003962  	0,004088  	0,004363  	0,000000  	-0,000000  	24,219861  	20,579979  	21,903323  	23,469742  	29,884647  	27,928748  	29,724813  	30,705097  	37,219907  	35,777952  	39,841483  	66,199434  	22,682395  	21,246344  	23,388347  	72,151189  	0,077536  	0,039288  	-3150,588988  	-1,993401  	-0,011067  	-0,049996  	0,313910  	0,159061  	-4,527939  	10173,445759  	16125,640577  	2,338826  	-0,047948  
246,563000  	17,520269  	36,699643  	1256,818530  	657,183579  	80,104783  	73,304355  	0,004720  	0,008718  	0,003961  	0,004141  	0,004369  	0,000000  	-0,000000  	24,220086  	20,576926  	21,899944  	23,460917  	29,879162  	27,923801  	29,721565  	30,699323  	37,219331  	35,769009  	39,836094  	66,194289  	22,680821  	21,252804  	23,385333  	72,146891  	0,120695  	0,061157  	-4906,407152  	-9725,789618  	-0,013765  	-0,049998  	0,318247  	0,161258  	-4,597069  	10149,289303  	16450,359075  	2,385923  	-0,047949  
247,562000  	17,539861  	36,698626  	1256,818530  	657,183579  	80,108251  	73,306475  	0,004715  	0,008709  	0,003961  	0,004110  	0,004377  	0,000000  	-0,000000  	24,225523  	20,579185  	21,899034  	23,454973  	29,879149  	27,927296  	29,720434  	30,703035  	37,220221  	35,767516  	39,836927  	66,190773  	22,682694  	21,263399  	23,381226  	72,145446  	0,095795  	0,048540  	-3890,006089  	-9725,793892  	-0,013765  	-0,049998  	0,325233  	0,164798  	-4,698912  	10131,117841  	16342,571486  	2,370290  	-0,047949  
248,569000  	17,556785  	36,697762  	57,725912  	1256,670793  	80,114312  	73,304542  	0,004708  	0,008767  	0,003959  	0,004123  	0,004346  	0,000000  	-0,000000  	24,226531  	20,585198  	21,904707  	23,467401  	29,882356  	27,936472  	29,725185  	30,703817  	37,220451  	35,776185  	39,841463  	66,192014  	22,695957  	21,279233  	23,383948  	72,151842  	0,106127  	0,053776  	-4305,551685  	24490,155454  	-0,018200  	-0,049998  	0,300579  	0,152305  	-4,347816  	10255,503852  	16187,735832  	2,347833  	-0,047950  
249,571000  	17,561782  	36,694710  	1256,818530  	57,696365  	80,118498  	73,301361  	0,004722  	0,008735  	0,003961  	0,004124  	0,004408  	0,000001  	-0,000000  	24,219668  	20,583361  	21,904176  	23,465411  	29,877908  	27,931703  	29,720773  	30,699382  	37,221560  	35,774556  	39,839680  	66,189425  	22,697510  	21,287565  	23,378238  	72,154742  	0,107377  	0,054409  	-4354,408562  	-24489,966186  	-0,018197  	-0,049992  	0,349595  	0,177143  	-5,062303  	10185,591194  	16484,901944  	2,390933  	-0,047945  
250,564000  	17,549948  	36,690948  	1256,818530  	1256,670793  	80,118561  	73,307472  	0,004715  	0,008750  	0,003962  	0,004100  	0,004344  	-0,000000  	-0,000000  	24,222830  	20,585366  	21,900836  	23,457789  	29,876392  	27,930971  	29,723497  	30,709283  	37,225710  	35,768921  	39,842140  	66,194571  	22,695498  	21,292511  	23,374693  	72,154297  	0,087943  	0,044561  	-3567,815686  	-1,993682  	-0,011069  	-0,050003  	0,298760  	0,151384  	-4,322357  	10219,342035  	16332,502367  	2,368829  	-0,047954  
251,567000  	17,537531  	36,686508  	1256,818530  	1256,670793  	80,124028  	73,318821  	0,004710  	0,008736  	0,003961  	0,004115  	0,004337  	0,000000  	-0,000000  	24,228484  	20,591899  	21,901683  	23,460852  	29,882770  	27,932051  	29,729920  	30,712243  	37,226764  	35,770113  	39,843465  	66,198079  	22,705331  	21,299635  	23,377618  	72,152835  	0,099924  	0,050632  	-4055,565783  	-1,993542  	-0,011068  	-0,050000  	0,293377  	0,148656  	-4,240819  	10189,632834  	16219,355408  	2,352419  	-0,047951  
252,562000  	17,536918  	36,681143  	57,725912  	1256,670793  	80,126590  	73,321128  	0,004721  	0,008769  	0,003962  	0,004139  	0,004360  	0,000000  	-0,000000  	24,226921  	20,587886  	21,904713  	23,459738  	29,888350  	27,927328  	29,723221  	30,707907  	37,221360  	35,771862  	39,838955  	66,191274  	22,705927  	21,302675  	23,382279  	72,144317  	0,119339  	0,060470  	-4842,374102  	24490,055020  	-0,018200  	-0,049998  	0,311548  	0,157864  	-4,503648  	10259,672832  	16465,596915  	2,388133  	-0,047949  
253,563000  	17,549488  	36,680280  	1256,818530  	1256,670793  	80,116780  	73,316140  	0,004711  	0,008722  	0,003962  	0,004135  	0,004438  	0,000000  	-0,000000  	24,223831  	20,587055  	21,906890  	23,459704  	29,883218  	27,935225  	29,729351  	30,707616  	37,218972  	35,773846  	39,839825  	66,192623  	22,700394  	21,308836  	23,389750  	72,136105  	0,116144  	0,058851  	-4709,417252  	-1,993347  	-0,011067  	-0,049994  	0,373150  	0,189078  	-5,390322  	10158,080736  	16235,355845  	2,354739  	-0,047946  
254,563000  	17,560219  	36,681945  	1256,818530  	1256,670793  	80,113656  	73,317636  	0,004713  	0,008735  	0,003962  	0,004135  	0,004370  	0,000001  	-0,000000  	24,220879  	20,592042  	21,913896  	23,469140  	29,885379  	27,935596  	29,725698  	30,706361  	37,216631  	35,777749  	39,839905  	66,189423  	22,702750  	21,321581  	23,389111  	72,148483  	0,115988  	0,058772  	-4700,849188  	-1,993317  	-0,011067  	-0,049993  	0,319667  	0,161978  	-4,614602  	10187,101592  	16288,490572  	2,362446  	-0,047946  
255,562000  	17,556908  	36,685737  	1256,818530  	1256,670793  	80,120779  	73,327582  	0,004721  	0,008749  	0,003960  	0,004136  	0,004386  	-0,000001  	-0,000000  	24,221973  	20,588488  	21,913930  	23,461717  	29,890859  	27,931266  	29,718326  	30,703825  	37,217914  	35,772987  	39,843313  	66,191917  	22,698307  	21,324945  	23,385031  	72,145605  	0,116820  	0,059193  	-4736,333819  	-1,993867  	-0,011070  	-0,050009  	0,331818  	0,168135  	-4,788025  	10217,268510  	16470,165442  	2,388796  	-0,047959  
256,565000  	17,540413  	36,685491  	1256,818530  	57,696365  	80,120279  	73,317792  	0,004709  	0,008761  	0,003960  	0,004083  	0,004312  	0,000000  	-0,000000  	24,224214  	20,581993  	21,910944  	23,459845  	29,881025  	27,935009  	29,721548  	30,703837  	37,224493  	35,777492  	39,839406  	66,194809  	22,700440  	21,326785  	23,384909  	72,138146  	0,073574  	0,037280  	-2985,500105  	-24491,090801  	-0,018198  	-0,049995  	0,273567  	0,138618  	-3,952874  	10242,251971  	16206,384179  	2,350537  	-0,047947  
257,562000  	17,531920  	36,696652  	57,725912  	1256,670793  	80,118405  	73,318229  	0,004717  	0,008746  	0,003961  	0,004098  	0,004333  	-0,000000  	-0,000000  	24,222964  	20,584380  	21,912058  	23,463979  	29,885438  	27,923164  	29,722867  	30,701666  	37,224169  	35,773167  	39,839001  	66,181105  	22,694842  	21,326984  	23,381975  	72,146153  	0,086263  	0,043710  	-3504,008628  	24493,647347  	-0,018203  	-0,050006  	0,289669  	0,146777  	-4,184119  	10210,086517  	16372,920065  	2,374691  	-0,047956  
258,563000  	17,532901  	36,701216  	657,272221  	657,183579  	80,118217  	73,317356  	0,004722  	0,008721  	0,003962  	0,004121  	0,004340  	-0,000001  	-0,000000  	24,232296  	20,593223  	21,917901  	23,463439  	29,889328  	27,932298  	29,726750  	30,709444  	37,230403  	35,781493  	39,844070  	66,194768  	22,697939  	21,341766  	23,384146  	72,152534  	0,104742  	0,053074  	-4255,442508  	-1,810889  	-0,018203  	-0,050007  	0,295186  	0,149573  	-4,264241  	10157,169546  	16476,689892  	2,389742  	-0,047957  
259,564000  	17,539708  	36,695296  	-242,047242  	657,183579  	80,111219  	73,314924  	0,004705  	0,008710  	0,003961  	0,004138  	0,004390  	-0,000001  	-0,000000  	24,232657  	20,591918  	21,924503  	23,469393  	29,888093  	27,944555  	29,725392  	30,706686  	37,217638  	35,774200  	39,843152  	66,193354  	22,701157  	21,350968  	23,381938  	72,156107  	0,118042  	0,059813  	-4792,586152  	32751,483403  	-0,035234  	-0,050013  	0,334943  	0,169718  	-4,835318  	10132,551835  	16115,345503  	2,337333  	-0,047963  
260,565000  	17,551358  	36,687649  	-242,047242  	57,696365  	80,106532  	73,319850  	0,004716  	0,008762  	0,003962  	0,004118  	0,004399  	-0,000000  	-0,000000  	24,233978  	20,583907  	21,919508  	23,469505  	29,888865  	27,941897  	29,726045  	30,711423  	37,228475  	35,785709  	39,844965  	66,182882  	22,695456  	21,355923  	23,388880  	72,151661  	0,102502  	0,051939  	-4157,463568  	27699,695052  	-0,093569  	-0,050001  	0,342189  	0,173390  	-4,932938  	10244,018464  	16351,863885  	2,371637  	-0,047952  
261,565000  	17,549089  	36,682808  	57,725912  	-242,047242  	80,110906  	73,321689  	0,004721  	0,008775  	0,003961  	0,004123  	0,004349  	0,000000  	-0,000000  	24,236850  	20,591651  	21,915667  	23,472830  	29,890792  	27,937398  	29,735102  	30,712431  	37,228109  	35,787854  	39,850275  	66,194607  	22,698540  	21,357853  	23,390576  	72,156660  	0,106153  	0,053788  	-4304,945726  	-27697,358463  	-0,093552  	-0,049995  	0,302589  	0,153324  	-4,363699  	10273,474399  	16453,141146  	2,386326  	-0,047947  
262,569000  	17,547434  	36,686878  	657,272221  	357,439972  	80,113531  	73,319943  	0,004704  	0,008720  	0,003960  	0,004115  	0,004380  	-0,000002  	-0,000000  	24,243498  	20,595875  	21,915701  	23,470868  	29,890385  	27,941815  	29,738629  	30,706518  	37,238650  	35,787229  	39,846629  	66,197467  	22,698163  	21,351478  	23,385543  	72,153503  	0,099644  	0,050490  	-4042,183232  	-7106,027000  	-0,021703  	-0,050020  	0,327402  	0,165897  	-4,724565  	10153,530443  	16103,468744  	2,335611  	-0,047968  
263,570000  	17,557276  	36,683363  	-242,047242  	1256,670793  	80,110094  	73,304791  	0,004718  	0,008772  	0,003960  	0,004101  	0,004342  	0,000001  	-0,000000  	24,231192  	20,588541  	21,911842  	23,452269  	29,875341  	27,927343  	29,719076  	30,700754  	37,225633  	35,774150  	39,832695  	66,181956  	22,694990  	21,341026  	23,375590  	72,145374  	0,088253  	0,044718  	-3577,591346  	35504,521473  	-0,021694  	-0,049993  	0,297448  	0,150719  	-4,299707  	10265,904018  	16399,420348  	2,378535  	-0,047945  
264,570000  	17,563898  	36,683486  	957,045375  	57,696365  	80,108532  	73,319569  	0,004719  	0,008710  	0,003959  	0,004099  	0,004339  	-0,000001  	-0,000000  	24,221660  	20,586554  	21,902934  	23,460596  	29,881487  	27,928590  	29,718869  	30,699646  	37,232467  	35,775604  	39,834150  	66,187349  	22,697208  	21,330010  	23,371135  	72,141380  	0,086549  	0,043855  	-3507,339105  	-21312,696170  	-0,021701  	-0,050015  	0,294424  	0,149187  	-4,245788  	10133,726903  	16419,869274  	2,381501  	-0,047965  
265,564000  	17,557521  	36,684011  	1256,818530  	1256,670793  	80,111344  	73,318821  	0,004706  	0,008725  	0,003960  	0,004150  	0,004338  	-0,000000  	-0,000000  	24,228517  	20,591294  	21,914289  	23,470382  	29,895320  	27,940199  	29,731285  	30,707934  	37,226367  	35,784292  	39,842405  	66,187386  	22,688675  	21,341711  	23,370702  	72,145311  	0,128058  	0,064888  	-5191,316483  	-1,993675  	-0,011069  	-0,050003  	0,293799  	0,148870  	-4,239000  	10166,081952  	16138,032796  	2,340624  	-0,047954  
266,564000  	17,555681  	36,683271  	657,272221  	657,183579  	80,107157  	73,314207  	0,004719  	0,008719  	0,003961  	0,004145  	0,004387  	-0,000001  	-0,000000  	24,232850  	20,594121  	21,918904  	23,473291  	29,890240  	27,938150  	29,733097  	30,708988  	37,232851  	35,779130  	39,839093  	66,192153  	22,690969  	21,336713  	23,380239  	72,147496  	0,123733  	0,062697  	-5016,308295  	-1,811154  	-0,018205  	-0,050015  	0,332378  	0,168419  	-4,795930  	10152,274018  	16417,299036  	2,381128  	-0,047964  
267,565000  	17,543540  	36,684196  	657,272221  	-242,047242  	80,105157  	73,305040  	0,004715  	0,008727  	0,003961  	0,004136  	0,004383  	0,000001  	-0,000000  	24,235508  	20,594092  	21,924243  	23,471896  	29,891885  	27,937827  	29,735613  	30,704355  	37,230517  	35,778172  	39,842282  	66,190051  	22,677807  	21,322073  	23,379004  	72,147392  	0,116956  	0,059263  	-4744,797429  	-32736,591993  	-0,035214  	-0,049987  	0,329933  	0,167179  	-4,765654  	10168,429258  	16333,505042  	2,368975  	-0,047940  
268,563000  	17,521710  	36,688636  	1256,818530  	-242,047242  	80,112656  	73,319507  	0,004708  	0,008743  	0,003959  	0,004077  	0,004333  	-0,000000  	-0,000000  	24,234987  	20,601629  	21,922956  	23,469225  	29,894850  	27,934603  	29,733497  	30,710731  	37,233626  	35,779258  	39,845234  	66,193765  	22,668936  	21,313802  	23,371302  	72,150082  	0,069158  	0,035043  	-2809,530984  	-35511,198599  	-0,021696  	-0,050003  	0,289710  	0,146798  	-4,180392  	10203,278055  	16181,755086  	2,346965  	-0,047954  
269,564000  	17,519963  	36,693291  	957,045375  	57,696365  	80,117717  	73,320224  	0,004721  	0,008701  	0,003962  	0,004089  	0,004325  	0,000000  	-0,000000  	24,230669  	20,598055  	21,919524  	23,469513  	29,891995  	27,939408  	29,731304  	30,714091  	37,233827  	35,783177  	39,841803  	66,193164  	22,666578  	21,309618  	23,374545  	72,143252  	0,079070  	0,040066  	-3213,295691  	-21305,223945  	-0,021693  	-0,049996  	0,283930  	0,143869  	-4,099597  	10113,972177  	16466,500735  	2,388264  	-0,047948  
270,571000  	17,528548  	36,689406  	357,499067  	1256,670793  	80,115030  	73,315236  	0,004716  	0,008751  	0,003960  	0,004093  	0,004341  	0,000000  	-0,000000  	24,232708  	20,601064  	21,922381  	23,471035  	29,894684  	27,942323  	29,732597  	30,712006  	37,237446  	35,785851  	39,845430  	66,191000  	22,656948  	21,309900  	23,374162  	72,139658  	0,082099  	0,041600  	-3334,184023  	16230,010789  	-0,015675  	-0,049996  	0,296273  	0,150123  	-4,279261  	10221,953219  	16354,144618  	2,371968  	-0,047948  
271,563000  	17,523581  	36,689221  	357,499067  	1256,670793  	80,113531  	73,300239  	0,004711  	0,008742  	0,003962  	0,004143  	0,004347  	-0,000001  	-0,000000  	24,234125  	20,600541  	21,920605  	23,468568  	29,897163  	27,930266  	29,731473  	30,705812  	37,237857  	35,783138  	39,847296  	66,191091  	22,644615  	21,301968  	23,372121  	72,141736  	0,122530  	0,062087  	-4977,435425  	16232,971575  	-0,015677  	-0,050007  	0,301293  	0,152667  	-4,360403  	10202,124918  	16239,147652  	2,355289  	-0,047957  
272,564000  	17,519043  	36,687063  	957,045375  	1256,670793  	80,105345  	73,309343  	0,004721  	0,008719  	0,003962  	0,004127  	0,004349  	0,000000  	-0,000000  	24,233402  	20,594314  	21,918667  	23,468444  	29,896103  	27,926896  	29,731121  	30,707102  	37,233648  	35,776056  	39,844558  	66,190026  	22,641834  	21,297165  	23,372963  	72,140564  	0,109522  	0,055496  	-4449,562117  	4416,360460  	-0,012269  	-0,049995  	0,302541  	0,153300  	-4,367358  	10152,651087  	16451,305262  	2,386060  	-0,047947  
273,564000  	17,536090  	36,686847  	1256,818530  	956,927186  	80,102064  	73,305882  	0,004711  	0,008722  	0,003962  	0,004151  	0,004439  	-0,000000  	-0,000000  	24,235649  	20,595364  	21,914870  	23,469531  	29,888891  	27,928674  	29,724933  	30,708034  	37,229230  	35,770619  	39,845772  	66,185459  	22,633377  	21,296289  	23,372208  	72,136843  	0,129210  	0,065472  	-5244,695153  	-4420,710645  	-0,012271  	-0,050001  	0,374303  	0,189662  	-5,403421  	10159,581230  	16248,447112  	2,356638  	-0,047952  
274,567000  	17,545594  	36,684442  	657,272221  	357,439972  	80,103189  	73,310309  	0,004712  	0,008782  	0,003960  	0,004114  	0,004354  	-0,000000  	-0,000000  	24,230287  	20,594431  	21,911600  	23,467928  	29,883110  	27,924766  	29,722905  	30,705231  	37,227210  	35,770130  	39,844166  	66,180330  	22,623424  	21,297321  	23,367029  	72,129678  	0,099281  	0,050306  	-4027,357826  	-7103,861968  	-0,021696  	-0,050002  	0,306447  	0,155279  	-4,421711  	10287,312045  	16264,038006  	2,358899  	-0,047954  
275,565000  	17,548538  	36,683980  	-242,047242  	357,439972  	80,102720  	73,302453  	0,004722  	0,008720  	0,003960  	0,004092  	0,004367  	-0,000000  	-0,000000  	24,224918  	20,593027  	21,913061  	23,468546  	29,888187  	27,933778  	29,728357  	30,707910  	37,231633  	35,773016  	39,840462  	66,180967  	22,627862  	21,300487  	23,366392  	72,132677  	0,080799  	0,040942  	-3277,052446  	30943,656380  	-0,051184  	-0,050002  	0,317054  	0,160654  	-4,579734  	10153,709427  	16488,700812  	2,391484  	-0,047953  
276,568000  	17,548354  	36,685336  	957,045375  	-242,047242  	80,094285  	73,309811  	0,004710  	0,008713  	0,003962  	0,004135  	0,004326  	-0,000000  	-0,000000  	24,231363  	20,595455  	21,911821  	23,469082  	29,889087  	27,941637  	29,728266  	30,711140  	37,234716  	35,772504  	39,838251  	66,186261  	22,625855  	21,298737  	23,361596  	72,141297  	0,116400  	0,058981  	-4721,308569  	-34195,068626  	-0,026852  	-0,050002  	0,284136  	0,143974  	-4,094715  	10138,543196  	16217,717234  	2,352181  	-0,047953  
277,570000  	17,528854  	36,686323  	-242,047242  	57,696365  	80,094628  	73,312835  	0,004714  	0,008733  	0,003960  	0,004126  	0,004361  	0,000001  	-0,000000  	24,235397  	20,594778  	21,913887  	23,472448  	29,884140  	27,936879  	29,731397  	30,713024  	37,230760  	35,773886  	39,842596  	66,188846  	22,616179  	21,301185  	23,353978  	72,137515  	0,108745  	0,055102  	-4415,575886  	27693,398865  	-0,093548  	-0,049988  	0,312306  	0,158248  	-4,498894  	10182,389293  	16320,131331  	2,367035  	-0,047941  
278,564000  	17,518369  	36,689160  	357,499067  	1256,670793  	80,095816  	73,298680  	0,004720  	0,008725  	0,003961  	0,004136  	0,004351  	0,000000  	-0,000000  	24,234625  	20,596671  	21,919816  	23,477851  	29,892376  	27,943470  	29,737683  	30,717510  	37,232081  	35,778642  	39,857002  	66,187047  	22,615506  	21,307843  	23,361658  	72,134213  	0,116697  	0,059131  	-4741,743355  	16229,697001  	-0,015674  	-0,049995  	0,303855  	0,153966  	-4,387052  	10166,045872  	16446,454291  	2,385357  	-0,047947  
279,564000  	17,533269  	36,686570  	1256,818530  	1256,670793  	80,098940  	73,287799  	0,004705  	0,008727  	0,003961  	0,004101  	0,004404  	-0,000000  	-0,000000  	24,239111  	20,597133  	21,916545  	23,473227  	29,900214  	27,941565  	29,736433  	30,720946  	37,236035  	35,775578  	39,854316  	66,188954  	22,608643  	21,302241  	23,363670  	72,133415  	0,088246  	0,044715  	-3582,431253  	-1,993628  	-0,011069  	-0,050002  	0,346240  	0,175442  	-5,009293  	10170,154012  	16124,814429  	2,338707  	-0,047953  
280,565000  	17,552585  	36,686693  	1256,818530  	57,696365  	80,100440  	73,294596  	0,004716  	0,008730  	0,003963  	0,004121  	0,004338  	0,000001  	-0,000000  	24,250861  	20,609810  	21,924391  	23,488046  	29,904916  	27,949520  	29,741840  	30,728453  	37,237749  	35,793680  	39,855802  	66,200469  	22,625298  	21,303585  	23,382033  	72,152868  	0,104278  	0,052839  	-4229,017160  	-24489,289983  	-0,018197  	-0,049991  	0,294225  	0,149086  	-4,253452  	10175,372135  	16344,216721  	2,370528  	-0,047943  
281,563000  	17,559667  	36,687988  	-242,047242  	1256,670793  	80,103439  	73,299428  	0,004721  	0,008742  	0,003961  	0,004111  	0,004335  	0,000000  	-0,000000  	24,244652  	20,608832  	21,921228  	23,474180  	29,900905  	27,947473  	29,740476  	30,715790  	37,238563  	35,785215  	39,852426  	66,192334  	22,619270  	21,291496  	23,371324  	72,150004  	0,096495  	0,048895  	-3912,178132  	35505,587599  	-0,021695  	-0,049995  	0,291641  	0,147777  	-4,214971  	10202,598200  	16464,686034  	2,388001  	-0,047947  
282,563000  	17,552370  	36,688111  	357,499067  	1256,670793  	80,101190  	73,301174  	0,004706  	0,008759  	0,003961  	0,004100  	0,004367  	0,000000  	-0,000000  	24,247352  	20,609578  	21,922591  	23,478534  	29,901119  	27,948912  	29,738937  	30,722134  	37,241840  	35,786159  	39,854355  	66,198856  	22,617309  	21,284571  	23,375352  	72,151650  	0,087682  	0,044429  	-3556,263830  	16229,614988  	-0,015674  	-0,049995  	0,317089  	0,160671  	-4,580066  	10237,908959  	16143,116783  	2,341361  	-0,047947  
283,566000  	17,546207  	36,686539  	1256,818530  	357,439972  	80,105439  	73,309000  	0,004718  	0,008713  	0,003962  	0,004106  	0,004298  	0,000001  	-0,000000  	24,241782  	20,586845  	21,915776  	23,469012  	29,889422  	27,941540  	29,739981  	30,712814  	37,232905  	35,780253  	39,852348  	66,186828  	22,615603  	21,251899  	23,363446  	72,137942  	0,092592  	0,046917  	-3756,309274  	-16230,906121  	-0,015672  	-0,049989  	0,262608  	0,133065  	-3,791143  	10138,699542  	16397,655075  	2,378279  	-0,047942  
284,565000  	17,548905  	36,678707  	1256,818530  	956,927186  	80,104626  	73,309312  	0,004721  	0,008765  	0,003963  	0,004099  	0,004351  	-0,000001  	-0,000000  	24,246253  	20,591497  	21,916969  	23,470481  	29,896925  	27,945370  	29,729990  	30,702178  	37,242326  	35,783111  	39,844757  	66,184389  	22,604469  	21,246657  	23,353743  	72,149451  	0,087215  	0,044193  	-3536,223689  	-4421,173891  	-0,012272  	-0,050007  	0,304176  	0,154128  	-4,390511  	10250,353644  	16454,673403  	2,386549  	-0,047957  
285,565000  	17,572268  	36,674668  	957,045375  	57,696365  	80,104001  	73,323092  	0,004707  	0,008706  	0,003963  	0,004101  	0,004362  	0,000000  	-0,000000  	24,237845  	20,588184  	21,908860  	23,465432  	29,873620  	27,937065  	29,732005  	30,708817  	37,240844  	35,789189  	39,837721  	66,194010  	22,594999  	21,227299  	23,353981  	72,129659  	0,088168  	0,044675  	-3569,723833  	-21304,754297  	-0,021693  	-0,049995  	0,312983  	0,158591  	-4,508076  	10123,137849  	16150,022532  	2,342363  	-0,047947  
286,564000  	17,593301  	36,673126  	357,499067  	1256,670793  	80,110250  	73,311681  	0,004716  	0,008741  	0,003960  	0,004084  	0,004419  	-0,000000  	-0,000000  	24,239651  	20,610670  	21,926924  	23,480145  	29,900589  	27,945710  	29,729393  	30,719467  	37,243767  	35,792116  	39,852486  	66,195216  	22,600238  	21,220324  	23,367643  	72,141605  	0,074894  	0,037949  	-3028,717505  	16231,872126  	-0,015676  	-0,050003  	0,358036  	0,181420  	-5,170416  	10199,089267  	16363,048657  	2,373260  	-0,047954  
287,565000  	17,592565  	36,673866  	1256,818530  	357,439972  	80,109282  	73,306599  	0,004717  	0,008738  	0,003963  	0,004111  	0,004360  	-0,000000  	-0,000000  	24,248814  	20,603422  	21,916053  	23,469520  	29,897375  	27,941730  	29,733916  	30,715796  	37,236927  	35,774763  	39,845368  	66,188207  	22,581215  	21,219562  	23,364803  	72,141987  	0,096413  	0,048853  	-3899,239497  	-16234,459523  	-0,015675  	-0,050001  	0,311624  	0,157902  	-4,502898  	10192,435736  	16380,764940  	2,375829  	-0,047952  
288,566000  	17,586004  	36,681328  	1256,818530  	-242,047242  	80,104658  	73,298119  	0,004706  	0,008720  	0,003960  	0,004095  	0,004354  	0,000000  	-0,000000  	24,235488  	20,601167  	21,918296  	23,486394  	29,895854  	27,939491  	29,730578  	30,704586  	37,231476  	35,782238  	39,848729  	66,190011  	22,597280  	21,209207  	23,364225  	72,142286  	0,083303  	0,042210  	-3371,514414  	-35508,161385  	-0,021694  	-0,049998  	0,306619  	0,155366  	-4,433076  	10153,570060  	16140,687767  	2,341009  	-0,047949  
289,567000  	17,582509  	36,686076  	1256,818530  	1256,670793  	80,109344  	73,300551  	0,004721  	0,008728  	0,003961  	0,004107  	0,004336  	-0,000000  	-0,000000  	24,224178  	20,592627  	21,904100  	23,461353  	29,880761  	27,934817  	29,714246  	30,700710  	37,227021  	35,763612  	39,836656  	66,181977  	22,581074  	21,184852  	23,343512  	72,136873  	0,093625  	0,047440  	-3790,894898  	-1,993686  	-0,011069  	-0,050004  	0,292572  	0,148249  	-4,231399  	10171,498160  	16452,759847  	2,386271  	-0,047954  
290,569000  	17,571594  	36,683671  	1256,818530  	657,183579  	80,110531  	73,296560  	0,004717  	0,008730  	0,003961  	0,004092  	0,004348  	-0,000000  	-0,000000  	24,239909  	20,599239  	21,921186  	23,478840  	29,891385  	27,940906  	29,731440  	30,726669  	37,242115  	35,785283  	39,856055  	66,196686  	22,608329  	21,197885  	23,364927  	72,138410  	0,080987  	0,041036  	-3280,631071  	-9726,372948  	-0,013765  	-0,050001  	0,301574  	0,152810  	-4,364900  	10175,183247  	16368,739898  	2,374085  	-0,047952  
291,572000  	17,575917  	36,685799  	1256,818530  	657,183579  	80,110875  	73,300114  	0,004709  	0,008715  	0,003961  	0,004133  	0,004355  	-0,000000  	-0,000000  	24,242451  	20,595260  	21,914215  	23,468192  	29,884961  	27,941287  	29,724600  	30,715459  	37,236227  	35,783333  	39,860269  	66,196240  	22,609034  	21,196924  	23,354211  	72,139334  	0,114631  	0,058084  	-4642,974255  	-9726,654286  	-0,013766  	-0,050003  	0,307279  	0,155701  	-4,445383  	10143,154330  	16201,992179  	2,349900  	-0,047954  
292,566000  	17,576223  	36,688759  	1256,818530  	1256,670793  	80,110875  	73,312149  	0,004718  	0,008757  	0,003962  	0,004134  	0,004374  	-0,000000  	-0,000000  	24,253334  	20,598694  	21,918184  	23,475113  	29,892465  	27,942048  	29,727161  	30,721673  	37,243862  	35,777461  	39,856564  	66,194348  	22,607895  	21,205634  	23,367857  	72,150226  	0,115039  	0,058291  	-4660,149886  	-1,993596  	-0,011069  	-0,050001  	0,322630  	0,163479  	-4,659226  	10234,248632  	16394,293994  	2,377791  	-0,047952  
293,567000  	17,563530  	36,692921  	1256,818530  	956,927186  	80,108063  	73,317044  	0,004712  	0,008707  	0,003961  	0,004111  	0,004346  	0,000001  	-0,000000  	24,243218  	20,606107  	21,925473  	23,476469  	29,891627  	27,943818  	29,736257  	30,721533  	37,244462  	35,780967  	39,858275  	66,190702  	22,612269  	21,195932  	23,357120  	72,139252  	0,096526  	0,048910  	-3913,655857  	-4420,084891  	-0,012269  	-0,049993  	0,299999  	0,152012  	-4,327493  	10126,912782  	16273,972964  	2,360340  	-0,047945  
294,564000  	17,555497  	36,692428  	657,272221  	357,439972  	80,105626  	73,311744  	0,004708  	0,008732  	0,003963  	0,004107  	0,004350  	-0,000000  	-0,000000  	24,236087  	20,602343  	21,920765  	23,469440  	29,885962  	27,939582  	29,728777  	30,710477  	37,233199  	35,778292  	39,854871  	66,180791  	22,605037  	21,181304  	23,350614  	72,132681  	0,093096  	0,047173  	-3776,091667  	-7103,974329  	-0,021697  	-0,050003  	0,303549  	0,153810  	-4,380538  	10179,427924  	16176,847626  	2,346253  	-0,047954  
295,565000  	17,554945  	36,699921  	-242,047242  	1256,670793  	80,102252  	73,314020  	0,004721  	0,008765  	0,003961  	0,004099  	0,004364  	-0,000001  	-0,000000  	24,237847  	20,597245  	21,919216  	23,474896  	29,890283  	27,930055  	29,735478  	30,709022  	37,236369  	35,782160  	39,854678  	66,182437  	22,610074  	21,177792  	23,354844  	72,137655  	0,087028  	0,044098  	-3531,426095  	35513,037484  	-0,021699  	-0,050006  	0,314829  	0,159526  	-4,539553  	10251,486973  	16467,566960  	2,388419  	-0,047957  
296,566000  	17,570827  	36,709603  	957,045375  	1256,670793  	80,100877  	73,308906  	0,004714  	0,008722  	0,003960  	0,004153  	0,004344  	-0,000000  	-0,000000  	24,241159  	20,594714  	21,914964  	23,475602  	29,886724  	27,926879  	29,733263  	30,706861  	37,235607  	35,779790  	39,847459  	66,183788  	22,604959  	21,167857  	23,346036  	72,132202  	0,130429  	0,066089  	-5290,830860  	4416,936179  	-0,012271  	-0,050002  	0,299077  	0,151544  	-4,314791  	10157,884774  	16310,295228  	2,365608  	-0,047953  
297,566000  	17,600567  	36,708153  	957,045375  	1256,670793  	80,105439  	73,304698  	0,004709  	0,008719  	0,003962  	0,004150  	0,004333  	-0,000000  	-0,000000  	24,238479  	20,599306  	21,915215  	23,479401  	29,893283  	27,934835  	29,730844  	30,713497  	37,237469  	35,779325  	39,855426  	66,187628  	22,598047  	21,160270  	23,350439  	72,137112  	0,127881  	0,064798  	-5178,997842  	4417,062320  	-0,012271  	-0,050004  	0,290320  	0,147107  	-4,193857  	10151,251759  	16201,194276  	2,349785  	-0,047955  
298,568000  	17,596336  	36,705933  	357,499067  	1256,670793  	80,110250  	73,302141  	0,004720  	0,008709  	0,003962  	0,004171  	0,004343  	-0,000000  	-0,000000  	24,239999  	20,605684  	21,920806  	23,482730  	29,899843  	27,945661  	29,735939  	30,723319  	37,245809  	35,786525  	39,862893  	66,196055  	22,604173  	21,163034  	23,371086  	72,141539  	0,145550  	0,073751  	-5895,199532  	16232,131239  	-0,015677  	-0,050004  	0,298179  	0,151089  	-4,312053  	10130,075066  	16433,949094  	2,383543  	-0,047955  
299,566000  	17,576009  	36,707043  	357,499067  	1256,670793  	80,113656  	73,301361  	0,004714  	0,008784  	0,003960  	0,004105  	0,004344  	0,000000  	-0,000000  	24,249872  	20,613708  	21,931254  	23,485688  	29,901452  	27,953945  	29,739313  	30,725973  	37,253582  	35,794172  	39,864292  	66,200496  	22,601064  	21,170512  	23,380665  	72,143076  	0,091912  	0,046572  	-3726,884524  	16230,747717  	-0,015675  	-0,049999  	0,298619  	0,151313  	-4,321074  	10291,539743  	16319,488772  	2,366942  	-0,047951  
300,567000  	17,568160  	36,706057  	957,045375  	1256,670793  	80,112406  	73,300052  	0,004709  	0,008724  	0,003962  	0,004142  	0,004371  	-0,000001  	-0,000000  	24,249263  	20,609763  	21,931570  	23,485450  	29,903530  	27,948039  	29,738266  	30,721772  	37,250610  	35,792621  	39,859504  	66,194062  	22,585325  	21,164641  	23,374251  	72,143737  	0,121795  	0,061715  	-4940,389230  	4417,408722  	-0,012272  	-0,050008  	0,319964  	0,162128  	-4,629977  	10163,015881  	16202,931305  	2,350037  	-0,047958  
301,566000  	17,573464  	36,701493  	57,725912  	-242,047242  	80,106063  	73,321627  	0,004720  	0,008763  	0,003960  	0,004123  	0,004358  	-0,000000  	-0,000000  	24,239030  	20,602147  	21,926193  	23,484413  	29,898761  	27,945597  	29,733349  	30,717035  	37,244980  	35,788664  	39,854160  	66,188701  	22,580579  	21,148501  	23,368233  	72,137047  	0,106575  	0,054002  	-4320,792289  	-27700,960988  	-0,093564  	-0,050002  	0,309455  	0,156803  	-4,459574  	10246,875839  	16432,600426  	2,383347  	-0,047953  
302,567000  	17,570888  	36,703652  	657,272221  	357,439972  	80,107438  	73,328611  	0,004710  	0,008706  	0,003962  	0,004080  	0,004341  	-0,000000  	-0,000000  	24,242175  	20,609729  	21,930111  	23,489010  	29,895671  	27,949651  	29,731077  	30,720518  	37,247183  	35,790468  	39,859398  	66,187820  	22,584052  	21,146998  	23,369024  	72,132694  	0,071829  	0,036396  	-2912,829897  	-7103,851564  	-0,021696  	-0,050002  	0,296024  	0,149997  	-4,262491  	10124,530810  	16223,916874  	2,353080  	-0,047953  
