06/22/2020 16:48:29
Tempo T_f_e T_f_s AR AR T_q_e T_q_s Corrente_P_f Corrente_P_q Corrente_P_RESERVA Corrente_eletromag_f Corrente_eletromag_q AR AR T_1 T_2 T_3 T_4 T_5 T_6 T_7 T_8 T_9 T_10 T_11 T_12 T_13 T_14 T_15 T_16 Velocidade_f_(m/s) Vazao_f_(L/s) q_f_(W) AR AR AR Velocidade_q_(m/s) Vazao_q_(L/s) q_q_(W) DeltaP_q_(Pa) DeltaP_f_(Pa) DeltaP_f_(Psi) AR
0,006000  	25,606786  	32,374882  	24,647887  	1256,670793  	80,588464  	74,525497  	0,010616  	0,012017  	0,003960  	0,004397  	0,004485  	0,000000  	-0,000000  	27,802733  	26,850355  	27,967641  	27,733919  	31,042611  	29,453673  	30,888275  	30,299265  	33,291486  	32,400159  	35,334136  	67,109613  	27,518063  	25,809027  	29,687645  	73,600488  	0,328092  	0,166246  	-4703,690509  	25546,314621  	-0,018530  	-0,049999  	0,410320  	0,207912  	-5,285357  	17263,664827  	143474,633292  	20,809236  	-0,047951  
2,550000  	25,616437  	32,400934  	24,646105  	1256,670793  	80,582339  	74,523501  	0,010628  	0,011935  	0,003962  	0,004372  	0,004449  	0,000000  	-0,000000  	27,812613  	26,856928  	27,970959  	27,749607  	31,052965  	29,455820  	30,908476  	30,298611  	33,299402  	32,409841  	35,344372  	67,109544  	27,525282  	25,817807  	29,683826  	73,621255  	0,307712  	0,155920  	-4422,202561  	25546,262018  	-0,018530  	-0,049999  	0,381688  	0,193404  	-4,913194  	17088,314396  	143728,599635  	20,846071  	-0,047951  
3,555000  	25,599841  	32,415623  	24,645367  	1256,670793  	80,583620  	74,523938  	0,010618  	0,011940  	0,003961  	0,004394  	0,004477  	-0,000000  	-0,000000  	27,812417  	26,850874  	27,973074  	27,742924  	31,053890  	29,448540  	30,891829  	30,299077  	33,297276  	32,411369  	35,339045  	67,122650  	27,516611  	25,812368  	29,690560  	73,614427  	0,325895  	0,165133  	-4705,119461  	25548,001422  	-0,018532  	-0,050003  	0,403776  	0,204596  	-5,198245  	17098,708195  	143509,684559  	20,814320  	-0,047954  
4,551000  	25,587240  	32,424615  	24,645306  	1256,670793  	80,580308  	74,524811  	0,010630  	0,011983  	0,003962  	0,004404  	0,004467  	-0,000001  	-0,000000  	27,799993  	26,852936  	27,971751  	27,726417  	31,046792  	29,451111  	30,899168  	30,293791  	33,302624  	32,404335  	35,326610  	67,119577  	27,509073  	25,798197  	29,684010  	73,605413  	0,334091  	0,169286  	-4838,731897  	25550,631849  	-0,018533  	-0,050009  	0,395852  	0,200581  	-5,092704  	17190,076987  	143767,711031  	20,851744  	-0,047959  
5,551000  	25,558044  	32,425477  	24,644999  	-242,047242  	80,573090  	74,525310  	0,010627  	0,011963  	0,003963  	0,004412  	0,004488  	0,000001  	-0,000000  	27,821250  	26,864072  	27,988864  	27,746404  	31,061735  	29,458830  	30,912463  	30,311307  	33,302926  	32,415026  	35,342860  	67,119224  	27,525388  	25,813405  	29,684612  	73,623480  	0,340092  	0,172327  	-4947,309567  	-27064,013293  	-0,102957  	-0,049993  	0,412397  	0,208965  	-5,298802  	17148,285313  	143707,169217  	20,842963  	-0,047945  
6,554000  	25,559642  	32,420735  	24,644630  	-242,047242  	80,570465  	74,520694  	0,010633  	0,011944  	0,003963  	0,004408  	0,004465  	0,000001  	-0,000000  	27,821308  	26,867151  	27,990345  	27,741445  	31,063690  	29,460873  	30,912485  	30,312602  	33,303046  	32,409209  	35,342532  	67,113635  	27,524726  	25,808095  	29,696407  	73,618468  	0,337477  	0,171002  	-4904,727573  	-27064,057161  	-0,102957  	-0,049993  	0,394670  	0,199982  	-5,072694  	17106,163970  	143838,194865  	20,861966  	-0,047945  
7,553000  	25,565266  	32,411127  	24,643340  	657,183579  	80,570684  	74,508842  	0,010619  	0,011961  	0,003959  	0,004362  	0,004445  	-0,000001  	-0,000000  	27,808654  	26,861596  	27,983590  	27,738093  	31,055918  	29,456112  	30,901767  	30,308212  	33,302220  	32,401273  	35,334183  	67,108021  	27,519592  	25,800925  	29,687114  	73,608357  	0,299997  	0,152011  	-4350,334045  	18473,358031  	-0,027583  	-0,050015  	0,378454  	0,191765  	-4,873966  	17144,066104  	143534,864418  	20,817972  	-0,047964  
8,553000  	25,550207  	32,400472  	24,644077  	1256,670793  	80,568434  	74,505661  	0,010627  	0,011969  	0,003961  	0,004411  	0,004488  	-0,000000  	-0,000000  	27,823606  	26,865619  	27,978132  	27,745554  	31,061319  	29,465528  	30,910840  	30,311634  	33,307389  	32,413593  	35,342197  	67,118457  	27,516288  	25,821235  	29,687234  	73,621309  	0,339931  	0,172245  	-4932,603511  	25547,828120  	-0,018531  	-0,050002  	0,412678  	0,209107  	-5,315538  	17159,776361  	143718,671738  	20,844631  	-0,047954  
9,552000  	25,551867  	32,400010  	24,644353  	1256,670793  	80,567247  	74,508406  	0,010622  	0,012000  	0,003958  	0,004401  	0,004472  	0,000000  	-0,000000  	27,828194  	26,867283  	27,990368  	27,757010  	31,062446  	29,472461  	30,914066  	30,322153  	33,316643  	32,422828  	35,342515  	67,135842  	27,524920  	25,843092  	29,701910  	73,626426  	0,331687  	0,168068  	-4811,483447  	25544,730506  	-0,018529  	-0,049996  	0,400234  	0,202801  	-5,151910  	17227,570217  	143595,766348  	20,826805  	-0,047948  
10,555000  	25,539266  	32,397978  	24,643985  	1256,670793  	80,567309  	74,501606  	0,010626  	0,011954  	0,003958  	0,004428  	0,004488  	-0,000000  	-0,000000  	27,821912  	26,867552  	27,987455  	27,755496  	31,062111  	29,471039  	30,909196  	30,319174  	33,307814  	32,418535  	35,346284  	67,131082  	27,521648  	25,845936  	29,699527  	73,617087  	0,353739  	0,179242  	-5139,295213  	25549,511065  	-0,018533  	-0,050006  	0,412406  	0,208969  	-5,314595  	17127,929965  	143696,358683  	20,841395  	-0,047957  
11,551000  	25,520366  	32,392250  	24,645091  	1256,670793  	80,567403  	74,503322  	0,010621  	0,011975  	0,003962  	0,004382  	0,004424  	0,000000  	-0,000000  	27,813565  	26,865249  	27,984100  	27,744907  	31,066086  	29,465958  	30,907837  	30,313485  	33,306261  	32,417832  	35,346701  	67,119558  	27,513094  	25,845997  	29,689943  	73,613467  	0,315843  	0,160040  	-4597,539926  	25545,290283  	-0,018530  	-0,049997  	0,362198  	0,183529  	-4,666337  	17172,792662  	143576,574296  	20,824022  	-0,047949  
12,553000  	25,522701  	32,384552  	24,645459  	57,696365  	80,566653  	74,506565  	0,010627  	0,011962  	0,003960  	0,004354  	0,004482  	0,000000  	-0,000000  	27,812069  	26,865943  	27,981505  	27,748679  	31,069058  	29,462406  	30,905520  	30,315706  	33,306992  	32,416824  	35,344471  	67,110600  	27,506614  	25,848044  	29,686452  	73,615598  	0,293151  	0,148542  	-4260,992886  	1791,075956  	-0,053872  	-0,049999  	0,408388  	0,206933  	-5,257956  	17145,220656  	143705,488677  	20,842719  	-0,047951  
13,553000  	25,563945  	32,374297  	24,645797  	57,696365  	80,567934  	74,501045  	0,010615  	0,012005  	0,003961  	0,004397  	0,004450  	-0,000000  	-0,000000  	27,812971  	26,868007  	27,982889  	27,753763  	31,067071  	29,461516  	30,903695  	30,315223  	33,306795  	32,412458  	35,348081  	67,112043  	27,504488  	25,843610  	29,686719  	73,614596  	0,328201  	0,166302  	-4734,643749  	1791,233003  	-0,053878  	-0,050005  	0,383022  	0,194080  	-4,936897  	17238,974249  	143460,701755  	20,807216  	-0,047956  
14,553000  	25,595600  	32,368200  	24,646289  	1256,670793  	80,577558  	74,499673  	0,010626  	0,011969  	0,003959  	0,004395  	0,004460  	0,000000  	-0,000000  	27,816592  	26,867984  	27,990540  	27,753023  	31,067545  	29,463587  	30,908296  	30,309969  	33,310563  	32,410842  	35,352665  	67,115140  	27,506345  	25,838058  	29,690005  	73,611998  	0,327061  	0,165724  	-4692,039259  	25545,260792  	-0,018530  	-0,049997  	0,390486  	0,197862  	-5,042229  	17160,551014  	143701,619198  	20,842158  	-0,047949  
15,556000  	25,578358  	32,374944  	24,645736  	1256,670793  	80,581214  	74,506534  	0,010617  	0,011967  	0,003961  	0,004414  	0,004444  	0,000001  	-0,000000  	27,819840  	26,869163  	27,995778  	27,753670  	31,069896  	29,469881  	30,914223  	30,311376  	33,314090  	32,417240  	35,352605  	67,117437  	27,506321  	25,839408  	29,691773  	73,614114  	0,342066  	0,173327  	-4924,677162  	25540,822543  	-0,018526  	-0,049987  	0,378138  	0,191605  	-4,880213  	17156,557481  	143490,005292  	20,811466  	-0,047940  
16,555000  	25,529801  	32,391696  	24,645244  	1256,670793  	80,581089  	74,507969  	0,010630  	0,011963  	0,003958  	0,004358  	0,004436  	-0,000000  	-0,000000  	27,816451  	26,869473  	27,992183  	27,750461  	31,068550  	29,469988  	30,916679  	30,314895  	33,313846  	32,419377  	35,350953  	67,119024  	27,504215  	25,838810  	29,688660  	73,616648  	0,296560  	0,150269  	-4310,580288  	25548,121394  	-0,018532  	-0,050003  	0,371776  	0,188382  	-4,796873  	17148,677946  	143785,123687  	20,854269  	-0,047954  
17,552000  	25,513574  	32,402412  	24,646228  	57,696365  	80,578496  	74,513957  	0,010627  	0,011986  	0,003961  	0,004385  	0,004481  	0,000000  	-0,000000  	27,815250  	26,870150  	27,983317  	27,748936  	31,067552  	29,464903  	30,912784  	30,313263  	33,309005  	32,414560  	35,354025  	67,114593  	27,504880  	25,829216  	29,689049  	73,616651  	0,318879  	0,161579  	-4653,196919  	1791,040773  	-0,053872  	-0,050000  	0,407248  	0,206355  	-5,247129  	17197,931054  	143706,258336  	20,842831  	-0,047951  
18,552000  	25,538775  	32,395576  	24,646781  	657,183579  	80,575496  	74,515704  	0,010628  	0,011991  	0,003963  	0,004409  	0,004483  	0,000001  	-0,000000  	27,817793  	26,874242  	27,983778  	27,751091  	31,068893  	29,466780  	30,906365  	30,316294  	33,306096  	32,423742  	35,359226  	67,119190  	27,505996  	25,820966  	29,688472  	73,618237  	0,337906  	0,171220  	-4907,908654  	18463,357832  	-0,027568  	-0,049985  	0,408523  	0,207002  	-5,259440  	17208,513740  	143737,941462  	20,847426  	-0,047939  
19,554000  	25,548087  	32,377839  	24,647334  	657,183579  	80,577371  	74,511057  	0,010625  	0,011989  	0,003963  	0,004414  	0,004460  	-0,000001  	-0,000000  	27,818655  	26,870979  	27,986050  	27,747428  	31,069847  	29,462606  	30,910601  	30,318864  	33,307707  	32,428405  	35,353285  	67,121033  	27,501060  	25,816990  	29,677391  	73,618825  	0,341771  	0,173178  	-4944,450323  	18471,716651  	-0,027581  	-0,050010  	0,390939  	0,198092  	-5,038474  	17203,672686  	143667,584728  	20,837221  	-0,047960  
20,553000  	25,546673  	32,371002  	24,648870  	57,696365  	80,577808  	74,510308  	0,010618  	0,011972  	0,003960  	0,004421  	0,004438  	-0,000000  	-0,000000  	27,818646  	26,866826  	27,983789  	27,753172  	31,063574  	29,468716  	30,910152  	30,316277  	33,313420  	32,423184  	35,345652  	67,121558  	27,496242  	25,810285  	29,678757  	73,626975  	0,347611  	0,176137  	-5024,955686  	1791,012909  	-0,053876  	-0,050003  	0,373190  	0,189098  	-4,810668  	17167,943119  	143523,630219  	20,816343  	-0,047954  
21,553000  	25,566618  	32,377130  	24,648993  	1256,670793  	80,581277  	74,514830  	0,010624  	0,011975  	0,003960  	0,004384  	0,004455  	0,000000  	-0,000000  	27,822121  	26,865800  	27,993173  	27,756329  	31,062198  	29,475833  	30,912791  	30,319555  	33,318950  	32,422607  	35,350480  	67,126847  	27,497111  	25,806343  	29,682720  	73,620616  	0,317424  	0,160841  	-4579,281257  	25544,666164  	-0,018529  	-0,049996  	0,386268  	0,195725  	-4,978386  	17174,223118  	143656,936599  	20,835677  	-0,047948  
22,552000  	25,538529  	32,380271  	24,648624  	657,183579  	80,583902  	74,517513  	0,010627  	0,012006  	0,003960  	0,004399  	0,004472  	0,000002  	-0,000000  	27,819005  	26,868538  	27,991779  	27,749303  	31,066532  	29,471950  	30,917794  	30,322791  	33,312217  	32,421366  	35,345473  	67,118426  	27,491919  	25,805199  	29,681286  	73,633360  	0,329597  	0,167009  	-4776,702454  	18461,691697  	-0,027566  	-0,049980  	0,400205  	0,202787  	-5,157967  	17240,420976  	143722,498851  	20,845186  	-0,047934  
23,554000  	25,505799  	32,384613  	24,648347  	657,183579  	80,582089  	74,513708  	0,010629  	0,011961  	0,003960  	0,004436  	0,004479  	-0,000001  	-0,000000  	27,826797  	26,869127  	27,989713  	27,762089  	31,063179  	29,465150  	30,912490  	30,317755  	33,310271  	32,420270  	35,351821  	67,122231  	27,487325  	25,816334  	29,678740  	73,622126  	0,360116  	0,182474  	-5247,296224  	18470,556415  	-0,027579  	-0,050007  	0,405477  	0,205458  	-5,227631  	17143,645881  	143753,821861  	20,849729  	-0,047957  
24,554000  	25,494858  	32,387323  	24,648900  	57,696365  	80,583277  	74,517949  	0,010622  	0,011974  	0,003956  	0,004438  	0,004518  	-0,000000  	-0,000000  	27,825982  	26,867261  	27,995762  	27,754206  	31,066696  	29,465365  	30,913732  	30,315253  	33,311914  	32,427650  	35,352037  	67,116190  	27,496857  	25,800529  	29,686765  	73,621747  	0,361189  	0,183017  	-5273,375165  	1791,054832  	-0,053877  	-0,050005  	0,436656  	0,221257  	-5,626776  	17172,499072  	143609,500174  	20,828797  	-0,047956  
25,554000  	25,495227  	32,371895  	24,648993  	1256,670793  	80,581245  	74,518230  	0,010624  	0,011968  	0,003963  	0,004380  	0,004502  	-0,000000  	-0,000000  	27,815671  	26,865542  	27,979247  	27,742758  	31,064935  	29,459874  	30,908121  	30,304787  	33,300269  	32,410095  	35,342952  	67,112711  	27,477864  	25,796082  	29,674682  	73,620088  	0,314784  	0,159503  	-4585,320817  	25547,419928  	-0,018531  	-0,050002  	0,423499  	0,214590  	-5,455146  	17159,151686  	143647,065191  	20,834245  	-0,047953  
26,553000  	25,516801  	32,358777  	24,649669  	1256,670793  	80,579183  	74,513926  	0,010624  	0,011977  	0,003962  	0,004373  	0,004485  	0,000000  	-0,000000  	27,831156  	26,873968  	28,006090  	27,769387  	31,080031  	29,474013  	30,914092  	30,323860  	33,315554  	32,425393  	35,356024  	67,132193  	27,478442  	25,810600  	29,693116  	73,643634  	0,308529  	0,156334  	-4471,538721  	25544,655476  	-0,018529  	-0,049996  	0,410270  	0,207887  	-5,286691  	17178,316402  	143656,117512  	20,835558  	-0,047948  
27,553000  	25,532290  	32,351756  	24,649945  	1256,670793  	80,579496  	74,517263  	0,010629  	0,011986  	0,003960  	0,004420  	0,004513  	0,000000  	-0,000000  	27,835147  	26,858161  	27,993288  	27,753591  	31,074376  	29,467891  	30,904080  	30,316135  	33,324099  	32,412644  	35,344836  	67,109578  	27,471082  	25,812679  	29,691513  	73,625066  	0,347038  	0,175847  	-5013,100231  	25545,604342  	-0,018530  	-0,049998  	0,432814  	0,219310  	-5,574414  	17197,957937  	143759,054131  	20,850488  	-0,047950  
28,551000  	25,570460  	32,354774  	24,648593  	1256,670793  	80,575746  	74,515517  	0,010634  	0,011952  	0,003960  	0,004360  	0,004479  	0,000001  	-0,000000  	27,823753  	26,871071  	27,982533  	27,747251  	31,056167  	29,456294  	30,915619  	30,311793  	33,297360  	32,428100  	35,346031  	67,115480  	27,475821  	25,807025  	29,670227  	73,617644  	0,297991  	0,150994  	-4282,403144  	25542,278921  	-0,018527  	-0,049991  	0,405259  	0,205348  	-5,217797  	17123,942091  	143858,996845  	20,864983  	-0,047943  
29,553000  	25,557829  	32,362072  	24,648040  	57,696365  	80,572059  	74,516452  	0,010630  	0,011994  	0,003959  	0,004445  	0,004432  	-0,000000  	-0,000000  	27,831322  	26,879872  	27,993221  	27,770189  	31,070098  	29,466590  	30,916946  	30,317867  	33,314063  	32,427822  	35,356218  	67,124634  	27,482844  	25,808325  	29,677419  	73,629942  	0,367214  	0,186070  	-5292,703681  	1791,055789  	-0,053876  	-0,050003  	0,368456  	0,186700  	-4,740337  	17215,234479  	143766,510645  	20,851569  	-0,047954  
30,551000  	25,535640  	32,372850  	24,649576  	1256,670793  	80,569871  	74,518573  	0,010638  	0,011968  	0,003959  	0,004365  	0,004477  	-0,000001  	-0,000000  	27,828807  	26,873523  	27,994676  	27,763178  	31,063990  	29,468360  	30,915631  	30,322128  	33,306833  	32,425405  	35,349306  	67,122892  	27,482471  	25,824731  	29,689485  	73,628917  	0,302640  	0,153350  	-4383,117476  	25549,767516  	-0,018533  	-0,050007  	0,403717  	0,204567  	-5,190290  	17158,909739  	143939,415637  	20,876647  	-0,047957  
31,552000  	25,527619  	32,381903  	24,649853  	1256,670793  	80,570121  	74,512460  	0,010622  	0,011980  	0,003963  	0,004409  	0,004466  	-0,000000  	-0,000000  	27,817099  	26,870563  	27,990954  	27,753907  	31,053619  	29,463781  	30,900736  	30,312686  	33,302636  	32,423046  	35,330169  	67,120065  	27,484040  	25,806776  	29,687716  	73,622388  	0,337619  	0,171074  	-4901,944108  	25548,523847  	-0,018532  	-0,050004  	0,395283  	0,200293  	-5,087189  	17184,024785  	143606,379171  	20,828344  	-0,047955  
32,552000  	25,531675  	32,378023  	24,651328  	1256,670793  	80,569746  	74,515267  	0,010631  	0,011949  	0,003959  	0,004433  	0,004487  	0,000001  	-0,000000  	27,812468  	26,865303  	27,995990  	27,750587  	31,054089  	29,456365  	30,909956  	30,313965  	33,306693  	32,430405  	35,341387  	67,124650  	27,484959  	25,804451  	29,688964  	73,621419  	0,357575  	0,181186  	-5185,665736  	25542,422258  	-0,018528  	-0,049991  	0,411586  	0,208554  	-5,294228  	17118,318602  	143797,417051  	20,856052  	-0,047944  
33,552000  	25,553096  	32,369955  	24,652342  	1256,670793  	80,570778  	74,510620  	0,010624  	0,012002  	0,003961  	0,004366  	0,004472  	-0,000001  	-0,000000  	27,818445  	26,864386  	27,996779  	27,749491  	31,060280  	29,468478  	30,910125  	30,320738  	33,313640  	32,429084  	35,346113  	67,121848  	27,492997  	25,796792  	29,691198  	73,626254  	0,303557  	0,153814  	-4383,310364  	25549,318671  	-0,018533  	-0,050006  	0,399776  	0,202569  	-5,147138  	17231,642277  	143649,282374  	20,834567  	-0,047957  
34,553000  	25,558075  	32,367984  	24,653448  	1256,670793  	80,571277  	74,509934  	0,010616  	0,011985  	0,003962  	0,004369  	0,004492  	-0,000001  	-0,000000  	27,813564  	26,857180  	27,992528  	27,749545  	31,054060  	29,462227  	30,907736  	30,314459  	33,310454  	32,424521  	35,344915  	67,119384  	27,497589  	25,778103  	29,685254  	73,615146  	0,305352  	0,154724  	-4404,740226  	25553,140301  	-0,018535  	-0,050015  	0,415927  	0,210753  	-5,356128  	17194,865689  	143478,636932  	20,809817  	-0,047964  
35,553000  	25,553280  	32,373620  	24,655567  	357,439972  	80,572777  	74,508624  	0,010629  	0,011987  	0,003957  	0,004393  	0,004424  	-0,000001  	-0,000000  	27,818515  	26,858562  	27,985578  	27,750683  	31,057753  	29,463569  	30,910113  	30,312940  	33,305333  	32,418104  	35,343820  	67,116456  	27,496808  	25,791537  	29,676290  	73,614011  	0,324917  	0,164638  	-4694,144032  	12514,841783  	-0,036484  	-0,050008  	0,361987  	0,183422  	-4,663679  	17199,290765  	143754,619764  	20,849845  	-0,047958  
36,551000  	25,543630  	32,379840  	24,657104  	956,927186  	80,576652  	74,503509  	0,010626  	0,011967  	0,003960  	0,004410  	0,004474  	-0,000001  	-0,000000  	27,822146  	26,865143  	27,982656  	27,752546  	31,063647  	29,461902  	30,906539  	30,319499  	33,305794  	32,419885  	35,343068  	67,115790  	27,498038  	25,812093  	29,683617  	73,609980  	0,338790  	0,171667  	-4905,964484  	22499,327387  	-0,022168  	-0,050007  	0,402034  	0,203714  	-5,187296  	17157,363969  	143691,627751  	20,840709  	-0,047957  
37,553000  	25,533273  	32,382950  	24,658916  	1256,670793  	80,579808  	74,506004  	0,010622  	0,011983  	0,003958  	0,004446  	0,004511  	-0,000000  	-0,000000  	27,824738  	26,872242  	27,991301  	27,757631  	31,067671  	29,467329  	30,911547  	30,321543  	33,311458  	32,419781  	35,353141  	67,125962  	27,504901  	25,840096  	29,686910  	73,613108  	0,367764  	0,186349  	-5336,026857  	25547,322670  	-0,018531  	-0,050002  	0,430860  	0,218320  	-5,559828  	17191,333411  	143602,043660  	20,827716  	-0,047953  
38,552000  	25,531614  	32,381349  	24,660391  	657,183579  	80,577933  	74,504756  	0,010625  	0,012012  	0,003963  	0,004330  	0,004515  	0,000001  	-0,000000  	27,820984  	26,870031  	27,996648  	27,756206  	31,066598  	29,472860  	30,912446  	30,317863  	33,320219  	32,418106  	35,345995  	67,126678  	27,502948  	25,863198  	29,685495  	73,624152  	0,273705  	0,138689  	-3971,327291  	18463,882590  	-0,027570  	-0,049988  	0,434135  	0,219979  	-5,601509  	17254,367569  	143665,282811  	20,836888  	-0,047941  
39,552000  	25,532444  	32,377192  	24,663156  	-242,047242  	80,575465  	74,514519  	0,010631  	0,011967  	0,003960  	0,004407  	0,004491  	0,000000  	-0,000000  	27,819004  	26,866097  	27,992359  	27,747665  	31,063588  	29,462651  	30,908398  	30,309617  	33,313627  	32,415787  	35,338042  	67,114840  	27,494099  	25,864853  	29,683801  	73,624712  	0,336664  	0,170590  	-4881,266908  	-27065,169919  	-0,102954  	-0,049994  	0,415244  	0,210407  	-5,346994  	17156,096933  	143793,632305  	20,855503  	-0,047946  
40,552000  	25,501711  	32,374544  	24,664508  	956,927186  	80,576652  	74,517949  	0,010628  	0,011975  	0,003963  	0,004412  	0,004468  	0,000000  	-0,000000  	27,814674  	26,864747  	27,986130  	27,741986  	31,059138  	29,453697  	30,907163  	30,305605  	33,301936  	32,407494  	35,337466  	67,110083  	27,486007  	25,855532  	29,681127  	73,614481  	0,340533  	0,172551  	-4957,637963  	22494,322144  	-0,022164  	-0,049995  	0,397126  	0,201227  	-5,111798  	17173,277970  	143723,621564  	20,845349  	-0,047947  
41,553000  	25,463081  	32,374698  	24,666720  	-242,047242  	80,574527  	74,513521  	0,010625  	0,011960  	0,003958  	0,004395  	0,004446  	0,000000  	-0,000000  	27,808418  	26,862557  	27,984015  	27,740975  	31,055452  	29,454912  	30,905229  	30,308838  	33,304061  	32,404903  	35,336265  	67,117962  	27,479117  	25,850485  	29,677715  	73,612401  	0,326485  	0,165433  	-4779,953155  	-27065,721744  	-0,102955  	-0,049995  	0,379260  	0,192174  	-4,883681  	17142,197032  	143678,635339  	20,838824  	-0,047947  
42,552000  	25,452632  	32,366014  	24,667150  	-242,047242  	80,574590  	74,511213  	0,010624  	0,012002  	0,003959  	0,004399  	0,004475  	0,000000  	-0,000000  	27,815934  	26,864534  	27,987600  	27,745003  	31,056641  	29,457436  	30,905658  	30,310322  	33,309423  	32,414630  	35,341277  	67,125080  	27,481166  	25,856888  	29,682423  	73,620013  	0,329793  	0,167109  	-4829,619323  	-27066,418508  	-0,102957  	-0,049997  	0,402345  	0,203871  	-5,182970  	17232,336282  	143645,278734  	20,833986  	-0,047948  
43,553000  	25,462774  	32,347260  	24,669178  	657,183579  	80,576808  	74,508749  	0,010628  	0,011985  	0,003959  	0,004424  	0,004478  	-0,000001  	-0,000000  	27,823747  	26,870779  	27,991277  	27,752711  	31,062316  	29,466449  	30,912815  	30,313522  	33,311269  	32,419198  	35,344856  	67,125740  	27,491151  	25,864316  	29,694564  	73,622338  	0,350514  	0,177608  	-5111,601292  	18469,943427  	-0,027579  	-0,050008  	0,404471  	0,204949  	-5,214376  	17194,782918  	143740,582311  	20,847809  	-0,047958  
44,552000  	25,491047  	32,329153  	24,670837  	1256,670793  	80,576246  	74,510932  	0,010634  	0,011953  	0,003960  	0,004414  	0,004483  	-0,000000  	-0,000000  	27,820437  	26,871666  	27,990943  	27,753628  	31,066973  	29,473435  	30,917736  	30,319064  	33,310057  	32,414248  	35,342953  	67,125594  	27,494241  	25,864018  	29,693386  	73,618612  	0,342119  	0,173354  	-4955,558290  	25547,381406  	-0,018531  	-0,050003  	0,408570  	0,207025  	-5,264838  	17126,570961  	143858,890929  	20,864968  	-0,047954  
45,555000  	25,513635  	32,318930  	24,672619  	57,696365  	80,575621  	74,503509  	0,010624  	0,012003  	0,003958  	0,004432  	0,004503  	-0,000001  	-0,000000  	27,822125  	26,867213  	27,992267  	27,749183  	31,064194  	29,466052  	30,912263  	30,317981  	33,307256  	32,414898  	35,339635  	67,123327  	27,490614  	25,876085  	29,690345  	73,618218  	0,356534  	0,180658  	-5139,566146  	1789,881701  	-0,053880  	-0,050010  	0,424875  	0,215287  	-5,481078  	17233,301238  	143658,052252  	20,835839  	-0,047960  
46,552000  	25,551313  	32,323426  	24,673295  	657,183579  	80,579683  	74,505318  	0,010623  	0,011947  	0,003961  	0,004386  	0,004392  	-0,000001  	-0,000001  	27,823410  	26,868831  	27,993251  	27,746689  	31,068587  	29,466674  	30,908204  	30,320394  	33,312958  	32,421594  	35,347178  	67,125992  	27,483466  	25,882866  	29,690432  	73,624425  	0,319667  	0,161978  	-4585,643344  	18469,262508  	-0,027578  	-0,050006  	0,337082  	0,170802  	-4,350115  	17113,383458  	143635,407326  	20,832555  	-0,047957  
47,552000  	25,558044  	32,333126  	24,675784  	657,183579  	80,574902  	74,509248  	0,010629  	0,011944  	0,003957  	0,004466  	0,004488  	0,000000  	-0,000000  	27,819740  	26,860607  	27,987616  	27,743040  	31,052391  	29,463946  	30,902526  	30,310750  	33,306143  	32,417714  	35,339288  	67,116367  	27,473732  	25,874334  	29,683180  	73,614441  	0,384266  	0,194711  	-5514,739670  	18465,667612  	-0,027573  	-0,049996  	0,412849  	0,209194  	-5,320277  	17105,680077  	143763,502619  	20,851133  	-0,047948  
48,554000  	25,545013  	32,350617  	24,677136  	1256,670793  	80,569528  	74,504382  	0,010632  	0,011945  	0,003962  	0,004416  	0,004461  	0,000001  	-0,000000  	27,822344  	26,870324  	27,993942  	27,750361  	31,063762  	29,469046  	30,915692  	30,314492  	33,305992  	32,415475  	35,342339  	67,113732  	27,472350  	25,874572  	29,689737  	73,619040  	0,343619  	0,174114  	-4953,613988  	25538,207207  	-0,018525  	-0,049984  	0,390986  	0,198116  	-5,038110  	17109,314228  	143829,545025  	20,860712  	-0,047937  
49,554000  	25,550053  	32,368046  	24,680300  	57,696365  	80,569528  	74,507376  	0,010625  	0,011993  	0,003958  	0,004365  	0,004508  	-0,000001  	-0,000000  	27,811126  	26,859842  	27,989340  	27,743467  	31,062037  	29,461511  	30,909434  	30,302024  	33,301332  	32,423399  	35,344745  	67,114748  	27,468644  	25,862204  	29,683311  	73,630688  	0,302134  	0,153093  	-4363,492725  	1789,454397  	-0,053880  	-0,050011  	0,428819  	0,217286  	-5,522878  	17212,502322  	143674,250400  	20,838188  	-0,047961  
50,551000  	25,548824  	32,371864  	24,681037  	1256,670793  	80,570090  	74,513053  	0,010624  	0,011985  	0,003959  	0,004429  	0,004416  	-0,000001  	-0,000000  	27,810684  	26,861444  	27,980778  	27,743369  	31,048728  	29,455649  	30,899029  	30,306682  	33,301161  	32,405380  	35,333919  	67,123680  	27,470864  	25,844182  	29,684240  	73,619260  	0,354234  	0,179493  	-5119,717487  	25549,009301  	-0,018533  	-0,050008  	0,355444  	0,180106  	-4,574002  	17195,434476  	143657,466181  	20,835754  	-0,047958  
51,551000  	25,542923  	32,371957  	24,682604  	1256,670793  	80,573715  	74,508530  	0,010626  	0,011976  	0,003962  	0,004412  	0,004453  	-0,000001  	-0,000000  	27,808926  	26,868637  	27,983558  	27,743398  	31,048638  	29,456181  	30,903377  	30,312320  	33,309566  	32,412629  	35,336297  	67,115181  	27,472587  	25,837971  	29,673908  	73,621051  	0,340634  	0,172602  	-4927,486361  	25552,421130  	-0,018535  	-0,050015  	0,384845  	0,195004  	-4,959010  	17176,690691  	143700,722439  	20,842028  	-0,047964  
52,552000  	25,524976  	32,372881  	24,685001  	57,696365  	80,576215  	74,505349  	0,010629  	0,012006  	0,003959  	0,004401  	0,004425  	0,000001  	-0,000000  	27,817480  	26,863273  	27,981131  	27,740971  	31,068676  	29,453697  	30,911466  	30,302628  	33,306053  	32,411532  	35,348748  	67,129538  	27,479166  	25,867791  	29,690393  	73,630241  	0,331228  	0,167836  	-4804,666948  	1788,482770  	-0,053859  	-0,049989  	0,362910  	0,183889  	-4,680742  	17241,205534  	143759,032947  	20,850485  	-0,047942  
53,554000  	25,500820  	32,374266  	24,685677  	-242,047242  	80,573246  	74,506472  	0,010617  	0,011948  	0,003962  	0,004367  	0,004434  	-0,000001  	-0,000000  	27,818274  	26,865219  	27,982271  	27,745792  	31,049859  	29,451733  	30,902853  	30,313633  	33,301236  	32,414270  	35,340338  	67,131147  	27,476677  	25,889036  	29,684924  	73,630953  	0,303847  	0,153962  	-4423,936382  	-27074,746518  	-0,102982  	-0,050013  	0,370220  	0,187593  	-4,771798  	17115,742083  	143506,796572  	20,813901  	-0,047963  
54,557000  	25,496579  	32,369770  	24,687090  	-242,047242  	80,574433  	74,507719  	0,010620  	0,011925  	0,003961  	0,004407  	0,004484  	-0,000000  	-0,000000  	27,825365  	26,875190  	27,982188  	27,746150  	31,054400  	29,458373  	30,897372  	30,301653  	33,302911  	32,414407  	35,344519  	67,117401  	27,476691  	25,939051  	29,696402  	73,620442  	0,336001  	0,170254  	-4891,909304  	-27070,890774  	-0,102966  	-0,050005  	0,409857  	0,207678  	-5,282643  	17066,257641  	143557,481100  	20,821252  	-0,047956  
55,556000  	25,489849  	32,359331  	24,687643  	657,183579  	80,575777  	74,508811  	0,010630  	0,011998  	0,003961  	0,004374  	0,004465  	0,000000  	-0,000000  	27,813541  	26,864534  	27,980586  	27,739699  	31,054684  	29,456691  	30,901309  	30,312017  	33,299075  	32,409872  	35,333896  	67,119223  	27,465180  	25,963741  	29,679054  	73,627131  	0,309940  	0,157049  	-4510,046200  	18465,141579  	-0,027573  	-0,049996  	0,394603  	0,199948  	-5,086238  	17223,261163  	143766,906066  	20,851627  	-0,047948  
56,554000  	25,504477  	32,350093  	24,687950  	57,696365  	80,577277  	74,506753  	0,010625  	0,011985  	0,003961  	0,004420  	0,004450  	-0,000001  	-0,000001  	27,806427  	26,860342  	27,973421  	27,734335  	31,051319  	29,461587  	30,899262  	30,304941  	33,299397  	32,403689  	35,337256  	67,120296  	27,458789  	25,972071  	29,681220  	73,624282  	0,347222  	0,175940  	-5034,996717  	1789,235015  	-0,053886  	-0,050017  	0,382523  	0,193827  	-4,933431  	17195,745752  	143665,904188  	20,836978  	-0,047966  
57,556000  	25,533058  	32,345259  	24,689302  	1256,670793  	80,579152  	74,510246  	0,010617  	0,011993  	0,003960  	0,004423  	0,004466  	-0,000000  	-0,000000  	27,816757  	26,866427  	27,988919  	27,747629  	31,058213  	29,462034  	30,908516  	30,317375  	33,300867  	32,416786  	35,342611  	67,130544  	27,461505  	25,980460  	29,693272  	73,621339  	0,349495  	0,177092  	-5043,209286  	25547,719938  	-0,018532  	-0,050005  	0,395058  	0,200179  	-5,093740  	17212,314141  	143493,733549  	20,812006  	-0,047956  
58,553000  	25,582108  	32,344458  	24,690040  	657,183579  	80,580777  	74,514487  	0,010628  	0,011998  	0,003960  	0,004464  	0,004497  	-0,000001  	-0,000000  	27,811674  	26,861745  	27,977324  	27,742363  	31,055936  	29,449094  	30,903705  	30,311682  	33,301670  	32,404580  	35,337875  	67,115115  	27,458132  	25,969745  	29,686122  	73,628585  	0,382892  	0,194014  	-5484,678984  	18469,088420  	-0,027579  	-0,050008  	0,419865  	0,212749  	-5,411261  	17223,331200  	143733,351751  	20,846760  	-0,047958  
59,555000  	25,619817  	32,352403  	24,690777  	657,183579  	80,580902  	74,514706  	0,010630  	0,011938  	0,003963  	0,004381  	0,004545  	-0,000000  	-0,000000  	27,804784  	26,860596  	27,971224  	27,737264  	31,049642  	29,437823  	30,896275  	30,312085  	33,295573  	32,408904  	35,332173  	67,118313  	27,439160  	25,976741  	29,683311  	73,614577  	0,315578  	0,159905  	-4500,539359  	18466,595883  	-0,027575  	-0,050000  	0,457939  	0,232041  	-5,901869  	17094,892938  	143782,249822  	20,853852  	-0,047952  
60,553000  	25,640163  	32,370325  	24,691268  	57,696365  	80,579152  	74,518947  	0,010631  	0,011965  	0,003961  	0,004379  	0,004467  	0,000001  	-0,000001  	27,808709  	26,855793  	27,974751  	27,741565  	31,048425  	29,449570  	30,897821  	30,305084  	33,290953  	32,407634  	35,329623  	67,120650  	27,437088  	25,971735  	29,682621  	73,612724  	0,313958  	0,159085  	-4475,829629  	1788,028387  	-0,053855  	-0,049986  	0,395764  	0,200537  	-5,095531  	17152,354543  	143805,685591  	20,857251  	-0,047939  
61,552000  	25,640870  	32,396654  	24,692344  	956,927186  	80,574558  	74,517263  	0,010624  	0,011957  	0,003960  	0,004407  	0,004459  	-0,000001  	-0,000000  	27,811991  	26,859400  	27,983920  	27,742205  	31,052036  	29,454225  	30,903690  	30,310790  	33,295050  	32,403965  	35,337609  	67,123436  	27,446220  	25,984290  	29,682787  	73,619804  	0,336315  	0,170413  	-4812,807834  	22502,657377  	-0,022172  	-0,050018  	0,389571  	0,197398  	-5,013381  	17134,844544  	143644,897435  	20,833931  	-0,047967  
62,551000  	25,642345  	32,419318  	24,691852  	-242,047242  	80,573434  	74,518386  	0,010625  	0,011979  	0,003958  	0,004383  	0,004452  	-0,000001  	-0,000000  	27,812581  	26,864559  	27,988268  	27,748689  	31,061215  	29,460768  	30,901783  	30,313219  	33,305601  	32,410787  	35,344031  	67,126866  	27,444368  	25,983837  	29,683364  	73,622228  	0,317338  	0,160798  	-4555,480871  	-27075,328903  	-0,102981  	-0,050014  	0,383888  	0,194519  	-4,938416  	17181,376814  	143670,705731  	20,837674  	-0,047963  
63,552000  	25,616805  	32,430774  	24,692221  	-242,047242  	80,568215  	74,516234  	0,010627  	0,011930  	0,003960  	0,004412  	0,004460  	-0,000000  	-0,000000  	27,805767  	26,863707  	27,984911  	27,747374  	31,055198  	29,452476  	30,893502  	30,305160  	33,298142  	32,412914  	35,337275  	67,119275  	27,431845  	25,971352  	29,674450  	73,616361  	0,340160  	0,172362  	-4909,764008  	-27068,817040  	-0,102956  	-0,050000  	0,390784  	0,198013  	-5,024586  	17076,369168  	143705,827609  	20,842768  	-0,047952  
64,553000  	25,600763  	32,440751  	24,692344  	956,927186  	80,569778  	74,516920  	0,010633  	0,011979  	0,003962  	0,004415  	0,004458  	0,000001  	-0,000000  	27,807181  	26,859522  	27,979720  	27,739882  	31,049821  	29,444258  	30,893535  	30,304332  	33,292739  	32,413627  	35,334279  	67,123200  	27,427355  	25,988812  	29,676840  	73,620087  	0,343198  	0,173901  	-4972,530302  	22492,611960  	-0,022163  	-0,049993  	0,388702  	0,196958  	-4,998538  	17181,976728  	143840,186093  	20,862255  	-0,047945  
65,554000  	25,587978  	32,441152  	24,690040  	-242,047242  	80,575152  	74,516140  	0,010624  	0,011932  	0,003961  	0,004429  	0,004452  	0,000000  	-0,000000  	27,811147  	26,859817  	27,975177  	27,734923  	31,051740  	29,448246  	30,896215  	30,301965  	33,294132  	32,410431  	35,339016  	67,125040  	27,426715  	26,020156  	29,681336  	73,616430  	0,354171  	0,179461  	-5141,415508  	-27067,197793  	-0,102951  	-0,049997  	0,384017  	0,194584  	-4,943306  	17080,956956  	143649,381229  	20,834581  	-0,047949  
66,553000  	25,577959  	32,432098  	24,688811  	357,439972  	80,575277  	74,512585  	0,010616  	0,012013  	0,003958  	0,004409  	0,004481  	-0,000001  	-0,000000  	27,813693  	26,859823  	27,978374  	27,740329  	31,051845  	29,453103  	30,896221  	30,298215  	33,295995  	32,406908  	35,341473  	67,122396  	27,426097  	26,051613  	29,678184  	73,614647  	0,338060  	0,171297  	-4908,218900  	12514,377861  	-0,036486  	-0,050014  	0,406963  	0,206211  	-5,241870  	17256,124866  	143481,630835  	20,810251  	-0,047963  
67,555000  	25,580079  	32,424153  	24,686967  	357,439972  	80,573090  	74,507813  	0,010615  	0,011943  	0,003962  	0,004398  	0,004453  	0,000000  	-0,000000  	27,814792  	26,860223  	27,978539  	27,741884  	31,051303  	29,450820  	30,894840  	30,301418  	33,297578  	32,407851  	35,337087  	67,121339  	27,426474  	26,075642  	29,676742  	73,618442  	0,329287  	0,166852  	-4773,832572  	12510,927076  	-0,036476  	-0,049998  	0,385046  	0,195106  	-4,961675  	17105,194769  	143456,556893  	20,806614  	-0,047949  
68,552000  	25,582538  	32,415962  	24,685615  	-242,047242  	80,569340  	74,506378  	0,010632  	0,011964  	0,003961  	0,004413  	0,004492  	-0,000000  	-0,000000  	27,816072  	26,863844  	27,976992  	27,737706  	31,053541  	29,453990  	30,894740  	30,308505  	33,299738  	32,410617  	35,333606  	67,119575  	27,429392  	26,083652  	29,680131  	73,615677  	0,341039  	0,172807  	-4936,508735  	-27069,926479  	-0,102963  	-0,050003  	0,416285  	0,210935  	-5,362169  	17150,238572  	143821,756639  	20,859582  	-0,047954  
69,555000  	25,545413  	32,413868  	24,683403  	57,696365  	80,571684  	74,512117  	0,010621  	0,011978  	0,003958  	0,004438  	0,004436  	0,000001  	-0,000000  	27,822314  	26,867799  	27,986727  	27,744516  	31,060467  	29,465267  	30,900413  	30,314224  	33,307199  	32,415776  	35,340363  	67,125581  	27,439734  	26,095638  	29,686979  	73,618751  	0,361730  	0,183291  	-5262,861284  	1788,702563  	-0,053863  	-0,049993  	0,371944  	0,188467  	-4,788338  	17181,046437  	143576,185936  	20,823965  	-0,047945  
70,553000  	25,542954  	32,413129  	24,681928  	1256,670793  	80,577433  	74,511181  	0,010629  	0,011949  	0,003960  	0,004401  	0,004495  	0,000000  	-0,000000  	27,820288  	26,866949  	27,984573  	27,745748  	31,064044  	29,461406  	30,903164  	30,306788  	33,309524  	32,416783  	35,345101  	67,123275  	27,445317  	26,106759  	29,687847  	73,616662  	0,331145  	0,167794  	-4819,084841  	25543,963232  	-0,018529  	-0,049997  	0,418550  	0,212082  	-5,394275  	17116,520274  	143746,753706  	20,848704  	-0,047949  
71,554000  	25,578082  	32,407586  	24,680085  	1256,670793  	80,580996  	74,508187  	0,010631  	0,011978  	0,003963  	0,004375  	0,004492  	-0,000001  	-0,000000  	27,816299  	26,856823  	27,977918  	27,744511  	31,058958  	29,453464  	30,901187  	30,301294  	33,304375  	32,415716  	35,339388  	67,116877  	27,442517  	26,111577  	29,684346  	73,613116  	0,310093  	0,157126  	-4485,988226  	25550,403916  	-0,018534  	-0,050011  	0,415564  	0,210569  	-5,361575  	17179,661257  	143798,003121  	20,856137  	-0,047961  
72,552000  	25,605311  	32,396130  	24,677504  	57,696365  	80,580371  	74,512055  	0,010628  	0,011966  	0,003958  	0,004386  	0,004484  	-0,000000  	-0,000000  	27,816424  	26,872808  	27,983302  	27,748075  	31,064713  	29,457613  	30,906706  	30,315535  	33,301878  	32,415142  	35,341348  	67,121808  	27,446369  	26,132300  	29,685875  	73,615411  	0,319178  	0,161730  	-4591,265527  	1789,356567  	-0,053873  	-0,050003  	0,409226  	0,207358  	-5,275900  	17153,119293  	143737,849667  	20,847413  	-0,047954  
73,551000  	25,572919  	32,394252  	24,674493  	-242,047242  	80,579746  	74,512803  	0,010624  	0,012011  	0,003962  	0,004419  	0,004411  	-0,000000  	-0,000001  	27,821723  	26,873045  	27,985480  	27,752682  	31,070993  	29,473552  	30,917623  	30,320232  	33,310974  	32,420810  	35,354885  	67,122387  	27,454881  	26,158435  	29,688480  	73,619068  	0,345743  	0,175190  	-4995,740054  	-27069,594068  	-0,102966  	-0,050003  	0,352020  	0,178371  	-4,537357  	17250,608201  	143650,327416  	20,834719  	-0,047954  
74,551000  	25,537207  	32,407124  	24,672158  	357,439972  	80,581433  	74,514924  	0,010624  	0,011940  	0,003958  	0,004425  	0,004466  	-0,000000  	-0,000000  	27,823288  	26,870891  	27,988488  	27,757716  	31,071902  	29,473571  	30,913422  	30,317579  	33,311442  	32,425308  	35,353109  	67,129388  	27,459903  	26,173822  	29,679162  	73,620586  	0,350566  	0,177634  	-5101,521477  	12512,824677  	-0,036480  	-0,050003  	0,395160  	0,200230  	-5,093041  	17098,275238  	143654,571133  	20,835334  	-0,047954  
75,553000  	25,529647  	32,410450  	24,668564  	357,439972  	80,585839  	74,513988  	0,010628  	0,011970  	0,003960  	0,004408  	0,004427  	-0,000001  	-0,000000  	27,826893  	26,869582  	27,990948  	27,742674  	31,059686  	29,470253  	30,919136  	30,311193  	33,312186  	32,427181  	35,350269  	67,121391  	27,459030  	26,186744  	29,693337  	73,614180  	0,337043  	0,170782  	-4912,505282  	12515,145745  	-0,036486  	-0,050013  	0,364674  	0,184783  	-4,704254  	17161,849178  	143740,998915  	20,847869  	-0,047962  
76,552000  	25,473776  	32,397578  	24,664938  	956,927186  	80,588714  	74,510869  	0,010634  	0,011994  	0,003960  	0,004421  	0,004484  	0,000000  	-0,000000  	27,817788  	26,861573  	27,986098  	27,745147  	31,069472  	29,468438  	30,913323  	30,310668  	33,308056  	32,416927  	35,355164  	67,105891  	27,452124  	26,194446  	29,681835  	73,612405  	0,347935  	0,176301  	-5102,961484  	22493,985088  	-0,022163  	-0,049994  	0,409845  	0,207671  	-5,292173  	17214,195240  	143865,711945  	20,865957  	-0,047946  
77,554000  	25,432933  	32,386430  	24,662818  	-242,047242  	80,588651  	74,508250  	0,010621  	0,011950  	0,003959  	0,004412  	0,004473  	-0,000001  	-0,000000  	27,820390  	26,867908  	27,985568  	27,756497  	31,060797  	29,455160  	30,905128  	30,309120  	33,313177  	32,419111  	35,350297  	67,132051  	27,469579  	26,210992  	29,678558  	73,615701  	0,340269  	0,172417  	-5011,948735  	-27071,133212  	-0,102977  	-0,050006  	0,401237  	0,203310  	-5,183208  	17119,996664  	143580,810952  	20,824636  	-0,047957  
78,550000  	25,479400  	32,368693  	24,660668  	357,439972  	80,583089  	74,511805  	0,010627  	0,011976  	0,003958  	0,004402  	0,004494  	-0,000001  	-0,000000  	27,825804  	26,881505  	27,990316  	27,756830  	31,067514  	29,470047  	30,919995  	30,324874  	33,317022  	32,428237  	35,360080  	67,122509  	27,482528  	26,196530  	29,686630  	73,621204  	0,332170  	0,168313  	-4847,473266  	12514,600490  	-0,036484  	-0,050008  	0,417579  	0,211590  	-5,386222  	17174,908634  	143718,699982  	20,844635  	-0,047959  
79,561000  	25,520980  	32,338114  	24,658548  	1256,670793  	80,572996  	74,513552  	0,010628  	0,012010  	0,003959  	0,004420  	0,004457  	-0,000000  	-0,000000  	27,824272  	26,862933  	27,980875  	27,750838  	31,053743  	29,452898  	30,916403  	30,315684  	33,306713  	32,409673  	35,352023  	67,115505  	27,475791  	26,180569  	29,684500  	73,621366  	0,346818  	0,175735  	-5008,200698  	25547,044659  	-0,018531  	-0,050002  	0,388286  	0,196747  	-4,998618  	17248,647867  	143737,298902  	20,847333  	-0,047953  
80,552000  	25,526328  	32,327953  	24,657442  	1256,670793  	80,573621  	74,508936  	0,010631  	0,011974  	0,003960  	0,004398  	0,004488  	0,000001  	-0,000000  	27,822444  	26,865082  	27,987822  	27,750718  	31,054944  	29,459673  	30,907314  	30,310056  	33,309231  	32,413073  	35,347128  	67,107696  	27,476383  	26,166784  	29,673627  	73,603038  	0,329480  	0,166950  	-4747,008331  	25541,429003  	-0,018527  	-0,049989  	0,412574  	0,209054  	-5,315879  	17171,053052  	143797,635945  	20,856084  	-0,047942  
81,551000  	25,488036  	32,339346  	24,653263  	-242,047242  	80,573840  	74,517731  	0,010625  	0,011987  	0,003960  	0,004400  	0,004531  	0,000000  	-0,000000  	27,827156  	26,868905  	27,992180  	27,753090  	31,063272  	29,471287  	30,912343  	30,310504  	33,304752  	32,412841  	35,349905  	67,117092  	27,490420  	26,142932  	29,675748  	73,620634  	0,331107  	0,167775  	-4805,319062  	-27064,783793  	-0,102956  	-0,049994  	0,446862  	0,226428  	-5,749533  	17198,721978  	143662,903223  	20,836542  	-0,047946  
82,551000  	25,471440  	32,349508  	24,652096  	-242,047242  	80,574590  	74,516920  	0,010623  	0,011955  	0,003962  	0,004433  	0,004441  	0,000001  	-0,000000  	27,831308  	26,878237  	27,990850  	27,755256  	31,064129  	29,468118  	30,918152  	30,316961  	33,307713  	32,418590  	35,356106  	67,119624  	27,489322  	26,142440  	29,679925  	73,627854  	0,357247  	0,181020  	-5204,931355  	-27063,050888  	-0,102950  	-0,049990  	0,375685  	0,190362  	-4,834985  	17129,847144  	143618,863184  	20,830155  	-0,047943  
83,552000  	25,495596  	32,347291  	24,650068  	657,183579  	80,577996  	74,510339  	0,010631  	0,011977  	0,003957  	0,004382  	0,004488  	-0,000000  	-0,000000  	27,827589  	26,875813  	27,996363  	27,762427  	31,067755  	29,478380  	30,916205  	30,324913  	33,313693  	32,429330  	35,355788  	67,125144  	27,489222  	26,135898  	29,691289  	73,617742  	0,316181  	0,160211  	-4588,951179  	18469,763734  	-0,027578  	-0,050005  	0,412839  	0,209189  	-5,321906  	17178,386439  	143802,239777  	20,856752  	-0,047956  
84,551000  	25,514281  	32,334912  	24,649269  	1256,670793  	80,572184  	74,508031  	0,010629  	0,011970  	0,003961  	0,004406  	0,004442  	0,000000  	-0,000000  	27,829483  	26,881872  	27,997633  	27,754716  	31,078524  	29,469724  	30,919856  	30,319093  	33,314919  	32,426636  	35,353767  	67,127965  	27,493335  	26,116570  	29,682534  	73,616765  	0,335304  	0,169901  	-4844,423470  	25545,156693  	-0,018530  	-0,049997  	0,376502  	0,190776  	-4,850677  	17162,661326  	143765,098427  	20,851365  	-0,047949  
85,554000  	25,501988  	32,332048  	24,646627  	57,696365  	80,573777  	74,512429  	0,010621  	0,012014  	0,003956  	0,004392  	0,004499  	-0,000001  	-0,000000  	27,834636  	26,874744  	27,999069  	27,759971  	31,074415  	29,473960  	30,919086  	30,325841  	33,317914  	32,430008  	35,359760  	67,133033  	27,486854  	26,098421  	29,682119  	73,620460  	0,324167  	0,164258  	-4689,995966  	1791,412039  	-0,053884  	-0,050012  	0,421505  	0,213580  	-5,427968  	17257,367141  	143579,384611  	20,824429  	-0,047962  
86,552000  	25,546734  	32,340486  	24,643862  	657,183579  	80,573215  	74,507626  	0,010626  	0,011998  	0,003962  	0,004426  	0,004446  	-0,000000  	-0,000001  	27,825333  	26,873169  	27,992315  	27,752663  	31,061516  	29,472058  	30,918067  	30,326648  	33,312017  	32,422128  	35,352431  	67,122086  	27,481680  	26,084005  	29,678058  	73,618812  	0,351574  	0,178145  	-5059,469019  	18468,817316  	-0,027576  	-0,050001  	0,379207  	0,192147  	-4,886682  	17222,220509  	143692,856381  	20,840887  	-0,047952  
87,551000  	25,581032  	32,340393  	24,642203  	-242,047242  	80,570559  	74,510589  	0,010629  	0,011981  	0,003961  	0,004402  	0,004452  	0,000001  	-0,000000  	27,826234  	26,877773  	27,991438  	27,755670  	31,064220  	29,470220  	30,914837  	30,325645  	33,314075  	32,421979  	35,346547  	67,123286  	27,476138  	26,076401  	29,672381  	73,621184  	0,332609  	0,168535  	-4762,297759  	-27062,175176  	-0,102951  	-0,049989  	0,384612  	0,194886  	-4,951745  	17186,232017  	143747,036150  	20,848745  	-0,047942  
88,556000  	25,572796  	32,350617  	24,640544  	956,927186  	80,565059  	74,510215  	0,010628  	0,011974  	0,003962  	0,004420  	0,004468  	0,000000  	-0,000000  	27,818937  	26,881521  	27,993889  	27,756722  	31,067984  	29,464844  	30,911671  	30,322656  	33,309336  	32,419728  	35,351162  	67,122794  	27,470478  	26,054290  	29,676286  	73,621051  	0,347301  	0,175980  	-4986,248238  	22496,474951  	-0,022165  	-0,049998  	0,396705  	0,201013  	-5,103123  	17172,076019  	143723,628626  	20,845350  	-0,047950  
89,552000  	25,568923  	32,377869  	24,639008  	1256,670793  	80,563747  	74,505380  	0,010629  	0,011998  	0,003957  	0,004407  	0,004472  	-0,000001  	-0,000000  	27,813867  	26,873518  	27,987009  	27,751773  	31,060409  	29,460885  	30,910662  	30,303948  	33,299497  	32,417522  	35,348795  	67,115744  	27,461632  	26,026850  	29,679694  	73,613550  	0,336020  	0,170264  	-4846,441047  	25552,126923  	-0,018534  	-0,050012  	0,399697  	0,202530  	-5,144600  	17223,320588  	143751,223378  	20,849352  	-0,047961  
90,555000  	25,562469  	32,387662  	24,636980  	1256,670793  	80,565059  	74,505692  	0,010620  	0,011968  	0,003961  	0,004452  	0,004489  	0,000000  	-0,000000  	27,822836  	26,870043  	27,989250  	27,755138  	31,061396  	29,464291  	30,915605  	30,308425  	33,303302  	32,419370  	35,352448  	67,125023  	27,464741  	26,030074  	29,679251  	73,621425  	0,372535  	0,188766  	-5385,926035  	25546,859050  	-0,018531  	-0,050000  	0,413812  	0,209681  	-5,327148  	17157,556395  	143565,149447  	20,822364  	-0,047951  
91,552000  	25,523101  	32,390710  	24,635044  	1256,670793  	80,568121  	74,504476  	0,010630  	0,011923  	0,003961  	0,004413  	0,004447  	-0,000000  	-0,000001  	27,822955  	26,873082  	27,990488  	27,751213  	31,060768  	29,465788  	30,910411  	30,315728  	33,309833  	32,421032  	35,350363  	67,132205  	27,472058  	26,032681  	29,679130  	73,629022  	0,341464  	0,173023  	-4967,407703  	25547,634578  	-0,018531  	-0,050001  	0,379970  	0,192533  	-4,894942  	17061,287124  	143779,841989  	20,853503  	-0,047953  
92,553000  	25,485362  	32,391326  	24,633447  	1256,670793  	80,571371  	74,504975  	0,010626  	0,011967  	0,003958  	0,004408  	0,004435  	-0,000000  	-0,000000  	27,821547  	26,872557  	27,990993  	27,749400  	31,064354  	29,462067  	30,903612  	30,316452  	33,312533  	32,423405  	35,353568  	67,130295  	27,474955  	26,029167  	29,678714  	73,621528  	0,337016  	0,170768  	-4930,080566  	25548,500174  	-0,018532  	-0,050003  	0,371039  	0,188008  	-4,782062  	17156,950113  	143681,050233  	20,839174  	-0,047954  
93,556000  	25,471164  	32,380579  	24,630958  	956,927186  	80,573652  	74,505100  	0,010627  	0,012030  	0,003961  	0,004441  	0,004491  	0,000001  	-0,000000  	27,825117  	26,870825  	27,995624  	27,752531  	31,071448  	29,461644  	30,906539  	30,321403  	33,311099  	32,422757  	35,356883  	67,126531  	27,472367  	26,026981  	29,682801  	73,617598  	0,363841  	0,184361  	-5325,157147  	22491,341203  	-0,022160  	-0,049984  	0,414989  	0,210278  	-5,350404  	17292,295172  	143707,903571  	20,843069  	-0,047938  
94,553000  	25,439141  	32,361056  	24,627763  	-242,047242  	80,569903  	74,507096  	0,010626  	0,011986  	0,003959  	0,004394  	0,004481  	0,000001  	-0,000000  	27,822474  	26,868363  	27,993459  	27,742397  	31,063767  	29,464058  	30,906674  	30,317315  	33,302116  	32,414097  	35,343543  	67,120941  	27,464579  	26,018556  	29,688330  	73,618474  	0,325515  	0,164941  	-4772,847176  	-27064,035368  	-0,102963  	-0,049993  	0,407208  	0,206335  	-5,245113  	17198,209787  	143688,951596  	20,840320  	-0,047946  
95,550000  	25,443382  	32,345166  	24,626196  	657,183579  	80,572121  	74,509528  	0,010627  	0,011968  	0,003963  	0,004433  	0,004471  	0,000000  	-0,000000  	27,819698  	26,869260  	27,990636  	27,738027  	31,055558  	29,461452  	30,904154  	30,311992  	33,297494  	32,410543  	35,339486  	67,121963  	27,460851  	26,017312  	29,683590  	73,618260  	0,357305  	0,181049  	-5223,732875  	18468,570661  	-0,027575  	-0,049998  	0,399150  	0,202252  	-5,141139  	17157,523852  	143703,991725  	20,842502  	-0,047950  
96,553000  	25,445902  	32,328969  	24,623799  	1256,670793  	80,574621  	74,507470  	0,010633  	0,011960  	0,003957  	0,004404  	0,004440  	-0,000000  	-0,000000  	27,817680  	26,873061  	27,989069  	27,745147  	31,057812  	29,455026  	30,901040  	30,311457  	33,300769  	32,413527  	35,340154  	67,122975  	27,457915  	26,011791  	29,681395  	73,619128  	0,333618  	0,169047  	-4864,208276  	25549,959782  	-0,018533  	-0,050006  	0,375135  	0,190084  	-4,835457  	17141,191043  	143831,755147  	20,861032  	-0,047956  
97,553000  	25,434562  	32,317606  	24,621772  	-242,047242  	80,572684  	74,504912  	0,010630  	0,011914  	0,003958  	0,004433  	0,004433  	-0,000001  	-0,000000  	27,818475  	26,863781  	27,984655  	27,740851  	31,061263  	29,453193  	30,896191  	30,311615  	33,302757  	32,406749  	35,340939  	67,121702  	27,451296  	26,007329  	29,689110  	73,613936  	0,357081  	0,180936  	-5206,285907  	-27070,935368  	-0,102992  	-0,050008  	0,369475  	0,187216  	-4,762987  	17041,874802  	143783,407841  	20,854020  	-0,047958  
98,553000  	25,434009  	32,311016  	24,619867  	357,439972  	80,570996  	74,493684  	0,010622  	0,012001  	0,003963  	0,004417  	0,004472  	0,000001  	-0,000000  	27,813539  	26,861603  	27,980645  	27,735460  	31,049229  	29,459179  	30,897765  	30,305687  	33,303766  	32,409683  	35,345408  	67,121677  	27,445636  	26,022069  	29,684179  	73,622342  	0,344487  	0,174554  	-5018,259878  	12512,474662  	-0,036473  	-0,049990  	0,400010  	0,202688  	-5,164709  	17229,299923  	143615,572715  	20,829678  	-0,047943  
99,553000  	25,473192  	32,303164  	24,617378  	1256,670793  	80,571934  	74,493560  	0,010625  	0,011953  	0,003960  	0,004457  	0,004464  	-0,000001  	-0,000000  	27,816013  	26,862772  	27,993734  	27,744788  	31,057207  	29,460547  	30,903122  	30,311163  	33,304632  	32,414920  	35,344437  	67,125535  	27,447852  	26,055451  	29,684406  	73,623914  	0,377283  	0,191172  	-5458,402677  	25554,136039  	-0,018536  	-0,050014  	0,393455  	0,199367  	-5,080970  	17126,636754  	143662,867918  	20,836537  	-0,047964  
100,550000  	25,511054  	32,295034  	24,616395  	57,696365  	80,571621  	74,495680  	0,010638  	0,011954  	0,003960  	0,004432  	0,004493  	-0,000000  	-0,000000  	27,815043  	26,865890  	27,995570  	27,743643  	31,062523  	29,456712  	30,908247  	30,312775  	33,301991  	32,423015  	35,342684  	67,126146  	27,453119  	26,077832  	29,691683  	73,621124  	0,356247  	0,180513  	-5119,354104  	1792,814617  	-0,053877  	-0,050002  	0,416702  	0,211146  	-5,379020  	17128,055891  	143943,850004  	20,877290  	-0,047953  
101,552000  	25,534103  	32,298606  	24,614490  	1256,670793  	80,573777  	74,496990  	0,010633  	0,011984  	0,003962  	0,004461  	0,004421  	-0,000002  	-0,000000  	27,809218  	26,861745  	27,992052  	27,744514  	31,066034  	29,458255  	30,909155  	30,306429  	33,304451  	32,418138  	35,344419  	67,122445  	27,455916  	26,102753  	29,694474  	73,629723  	0,379999  	0,192548  	-5444,981841  	25556,225889  	-0,018537  	-0,050019  	0,359692  	0,182258  	-4,643748  	17192,085426  	143851,010749  	20,863825  	-0,047967  
102,552000  	25,546949  	32,316774  	24,613139  	1256,670793  	80,576402  	74,497801  	0,010619  	0,011912  	0,003962  	0,004412  	0,004510  	-0,000001  	-0,000000  	27,815177  	26,871799  	27,985946  	27,737155  	31,054955  	29,458233  	30,906729  	30,302300  	33,301909  	32,407641  	35,332796  	67,119255  	27,457959  	26,117499  	29,688667  	73,625892  	0,340067  	0,172314  	-4876,629502  	25555,220187  	-0,018536  	-0,050016  	0,430285  	0,218029  	-5,556791  	17037,284891  	143530,331196  	20,817315  	-0,047966  
103,552000  	25,536900  	32,333680  	24,611387  	357,439972  	80,579808  	74,499922  	0,010626  	0,011970  	0,003958  	0,004427  	0,004444  	0,000001  	-0,000001  	27,812337  	26,872098  	27,982517  	27,740286  	31,052361  	29,450051  	30,907724  	30,300504  	33,290780  	32,404474  	35,337325  	67,118428  	27,466286  	26,104012  	29,688334  	73,610361  	0,352570  	0,178650  	-5076,059916  	12513,593285  	-0,036476  	-0,049993  	0,378027  	0,191549  	-4,882951  	17163,701272  	143680,824278  	20,839142  	-0,047945  
104,552000  	25,534318  	32,349200  	24,610957  	956,927186  	80,584495  	74,500671  	0,010625  	0,011955  	0,003962  	0,004418  	0,004456  	0,000001  	-0,000000  	27,797776  	26,866807  	27,984508  	27,742278  	31,058971  	29,449183  	30,898930  	30,300948  	33,299572  	32,407336  	35,344554  	67,127665  	27,457221  	26,095156  	29,684799  	73,607560  	0,345627  	0,175132  	-4989,360821  	22493,766735  	-0,022162  	-0,049988  	0,387735  	0,196468  	-5,011598  	17131,228787  	143660,085847  	20,836134  	-0,047942  
105,552000  	25,525406  	32,360532  	24,609974  	57,696365  	80,579714  	74,510402  	0,010624  	0,011950  	0,003959  	0,004385  	0,004453  	-0,000000  	-0,000000  	27,797358  	26,855797  	27,980944  	27,729051  	31,040510  	29,443712  	30,886127  	30,291425  	33,287558  	32,402184  	35,323335  	67,121867  	27,451493  	26,076748  	29,685283  	73,609823  	0,318204  	0,161236  	-4607,139060  	1793,125048  	-0,053876  	-0,050000  	0,385024  	0,195094  	-4,964691  	17119,130043  	143643,358117  	20,833708  	-0,047952  
106,554000  	25,530016  	32,359301  	24,608622  	1256,670793  	80,578589  	74,514082  	0,010620  	0,012004  	0,003961  	0,004412  	0,004508  	0,000000  	-0,000000  	27,811089  	26,851857  	27,976076  	27,732354  	31,044683  	29,447720  	30,903562  	30,296042  	33,295897  	32,410749  	35,337116  	67,122909  	27,452342  	26,064104  	29,680620  	73,615159  	0,340043  	0,172302  	-4919,123435  	25546,137708  	-0,018530  	-0,049996  	0,428517  	0,217133  	-5,521138  	17235,579922  	143555,694643  	20,820993  	-0,047948  
107,552000  	25,547718  	32,358100  	24,607885  	1256,670793  	80,578152  	74,503291  	0,010626  	0,011946  	0,003961  	0,004373  	0,004472  	-0,000001  	-0,000001  	27,804912  	26,857647  	27,978675  	27,735717  	31,052081  	29,442627  	30,903045  	30,297763  	33,292294  	32,405256  	35,332450  	67,125232  	27,461072  	26,051720  	29,688467  	73,625688  	0,308671  	0,156406  	-4452,926061  	25551,400025  	-0,018533  	-0,050008  	0,399885  	0,202625  	-5,161032  	17110,659083  	143687,016857  	20,840040  	-0,047958  
108,556000  	25,570890  	32,357545  	24,606656  	1256,670793  	80,577964  	74,500109  	0,010633  	0,011978  	0,003958  	0,004398  	0,004448  	0,000000  	-0,000000  	27,796084  	26,847688  	27,967821  	27,726922  	31,046690  	29,448293  	30,893711  	30,288438  	33,284534  	32,396317  	35,324013  	67,117014  	27,461280  	26,030470  	29,668815  	73,625263  	0,329041  	0,166728  	-4730,244024  	25547,913296  	-0,018531  	-0,050000  	0,380916  	0,193013  	-4,918625  	17179,692385  	143848,320472  	20,863435  	-0,047951  
109,551000  	25,579127  	32,362595  	24,605826  	956,927186  	80,585308  	74,503571  	0,010617  	0,011998  	0,003958  	0,004427  	0,004431  	-0,000001  	-0,000000  	27,801985  	26,852323  	27,975196  	27,729550  	31,037585  	29,446302  	30,900420  	30,291197  	33,288714  	32,400747  	35,330304  	67,125922  	27,464387  	26,033415  	29,678667  	73,615584  	0,352282  	0,178504  	-5061,973002  	22501,216146  	-0,022169  	-0,050007  	0,367719  	0,186326  	-4,751250  	17222,859333  	143504,395800  	20,813553  	-0,047957  
110,551000  	25,577713  	32,373804  	24,604229  	357,439972  	80,586120  	74,511680  	0,010624  	0,012014  	0,003963  	0,004435  	0,004444  	-0,000000  	-0,000000  	27,807792  	26,857399  	27,974723  	27,733641  	31,052379  	29,448204  	30,896485  	30,295499  	33,297251  	32,401302  	35,334632  	67,130524  	27,470330  	26,065101  	29,688419  	73,625945  	0,359461  	0,182141  	-5174,734908  	12516,295624  	-0,036483  	-0,050003  	0,377693  	0,191380  	-4,874275  	17258,160896  	143649,649551  	20,834620  	-0,047954  
111,554000  	25,564160  	32,386461  	24,602846  	1256,670793  	80,586558  	74,510714  	0,010624  	0,011965  	0,003958  	0,004390  	0,004459  	-0,000001  	-0,000000  	27,799722  	26,846908  	27,972154  	27,728431  	31,042772  	29,443656  	30,888227  	30,288777  	33,288077  	32,394979  	35,324352  	67,122443  	27,460047  	26,064621  	29,674649  	73,617693  	0,322647  	0,163488  	-4662,687653  	25553,080689  	-0,018535  	-0,050011  	0,389826  	0,197528  	-5,032017  	17151,705108  	143655,178387  	20,835422  	-0,047961  
112,551000  	25,556046  	32,394898  	24,602662  	1256,670793  	80,587620  	74,515080  	0,010628  	0,012003  	0,003965  	0,004426  	0,004416  	0,000000  	-0,000000  	27,793594  	26,846854  	27,973559  	27,728732  	31,038338  	29,445421  	30,885145  	30,288417  	33,284476  	32,397038  	35,325173  	67,117443  	27,455737  	26,081154  	29,668254  	73,614469  	0,351997  	0,178359  	-5099,173806  	25547,771515  	-0,018531  	-0,049999  	0,355800  	0,180287  	-4,590312  	17233,504275  	143727,363944  	20,845892  	-0,047951  
113,552000  	25,555708  	32,395915  	24,603031  	-242,047242  	80,585495  	74,522753  	0,010626  	0,011974  	0,003959  	0,004428  	0,004492  	-0,000001  	-0,000000  	27,799728  	26,849687  	27,974485  	27,733946  	31,041858  	29,448651  	30,889197  	30,294335  	33,297326  	32,405115  	35,334895  	67,122944  	27,454210  	26,095607  	29,677808  	73,617620  	0,353322  	0,179031  	-5119,381041  	-27074,049738  	-0,103011  	-0,050015  	0,415617  	0,210596  	-5,353387  	17170,726212  	143685,978876  	20,839889  	-0,047964  
114,552000  	25,525959  	32,393513  	24,602416  	357,439972  	80,583870  	74,523563  	0,010627  	0,012016  	0,003960  	0,004484  	0,004468  	-0,000000  	-0,000001  	27,802846  	26,846618  	27,976298  	27,737453  	31,044840  	29,456836  	30,894728  	30,298200  	33,298837  	32,401570  	35,338045  	67,125601  	27,458561  	26,099447  	29,694422  	73,619273  	0,399027  	0,202190  	-5804,751358  	12516,655726  	-0,036484  	-0,050004  	0,396789  	0,201056  	-5,108821  	17263,013976  	143723,339121  	20,845308  	-0,047955  
115,554000  	25,509179  	32,392589  	24,600849  	1256,670793  	80,584589  	74,527868  	0,010629  	0,011946  	0,003958  	0,004391  	0,004502  	-0,000001  	-0,000000  	27,799907  	26,848540  	27,972961  	27,731327  	31,043329  	29,450897  	30,896972  	30,291813  	33,293209  	32,397945  	35,334359  	67,121343  	27,449021  	26,087960  	29,687961  	73,615072  	0,323637  	0,163989  	-4718,907167  	25553,506529  	-0,018535  	-0,050012  	0,423898  	0,214792  	-5,454626  	17110,492125  	143755,234079  	20,849934  	-0,047962  
116,552000  	25,525652  	32,384398  	24,600296  	57,696365  	80,585151  	74,527992  	0,010627  	0,011994  	0,003961  	0,004398  	0,004452  	-0,000001  	-0,000000  	27,801205  	26,850355  	27,970961  	27,731056  	31,047334  	29,441922  	30,896946  	30,295087  	33,297939  	32,404016  	35,334302  	67,124262  	27,447749  	26,076732  	29,679839  	73,615303  	0,329030  	0,166722  	-4780,347558  	1793,879564  	-0,053883  	-0,050007  	0,384579  	0,194869  	-4,949034  	17213,580470  	143715,261230  	20,844136  	-0,047957  
117,552000  	25,549992  	32,374266  	24,599436  	57,696365  	80,584527  	74,522628  	0,010622  	0,011993  	0,003964  	0,004410  	0,004526  	0,000001  	-0,000000  	27,802954  	26,852437  	27,978233  	27,734842  	31,050824  	29,444798  	30,896423  	30,295109  	33,296597  	32,407666  	35,334965  	67,122430  	27,446539  	26,057104  	29,680606  	73,615576  	0,338991  	0,171769  	-4900,308620  	1793,201228  	-0,053861  	-0,049984  	0,443016  	0,224479  	-5,705503  	17213,074646  	143596,260624  	20,826877  	-0,047938  
118,554000  	25,587732  	32,367184  	24,598944  	1256,670793  	80,588839  	74,517138  	0,010622  	0,011938  	0,003960  	0,004438  	0,004466  	-0,000000  	-0,000000  	27,799951  	26,853962  	27,975813  	27,728998  	31,048851  	29,450068  	30,896842  	30,288838  	33,285180  	32,403386  	35,335839  	67,118449  	27,440239  	26,033210  	29,674320  	73,614177  	0,361239  	0,183042  	-5187,601842  	25548,391569  	-0,018531  	-0,050000  	0,395462  	0,200383  	-5,101295  	17094,075130  	143602,636792  	20,827802  	-0,047952  
119,551000  	25,604051  	32,371064  	24,598299  	357,439972  	80,591026  	74,522409  	0,010632  	0,012002  	0,003957  	0,004376  	0,004479  	-0,000001  	-0,000000  	27,800382  	26,855426  	27,974421  	27,727587  	31,047060  	29,454082  	30,900612  	30,295758  	33,283924  	32,403769  	35,337973  	67,114728  	27,444589  	26,014725  	29,677191  	73,618236  	0,311476  	0,157827  	-4464,760581  	12518,412378  	-0,036488  	-0,050011  	0,405316  	0,205377  	-5,225761  	17231,601953  	143829,375559  	20,860687  	-0,047961  
120,551000  	25,575347  	32,386892  	24,596886  	-242,047242  	80,589839  	74,528959  	0,010630  	0,011976  	0,003959  	0,004403  	0,004452  	-0,000001  	-0,000000  	27,804192  	26,859828  	27,982349  	27,736069  	31,042965  	29,456416  	30,900098  	30,305908  	33,290786  	32,406789  	35,339338  	67,116371  	27,451506  	25,996340  	29,693977  	73,616637  	0,333439  	0,168956  	-4811,048658  	-27072,266823  	-0,103007  	-0,050012  	0,384241  	0,194698  	-4,947730  	17175,395357  	143770,344819  	20,852126  	-0,047961  
121,551000  	25,537545  	32,409557  	24,596640  	1256,670793  	80,588214  	74,528148  	0,010619  	0,011978  	0,003963  	0,004379  	0,004519  	-0,000000  	-0,000000  	27,807382  	26,855726  	27,976685  	27,736312  	31,042960  	29,452848  	30,892103  	30,301579  	33,290864  	32,399335  	35,334337  	67,125362  	27,448291  	25,975090  	29,692201  	73,608705  	0,313546  	0,158876  	-4564,183305  	25549,723516  	-0,018532  	-0,050003  	0,437603  	0,221737  	-5,634098  	17180,653096  	143533,579299  	20,817786  	-0,047954  
122,553000  	25,531890  	32,410357  	24,596087  	1256,670793  	80,583089  	74,525778  	0,010620  	0,011980  	0,003963  	0,004394  	0,004453  	-0,000000  	-0,000000  	27,808893  	26,848323  	27,972264  	27,734025  	31,049853  	29,449211  	30,891187  	30,293789  	33,287636  	32,394566  	35,323702  	67,119736  	27,441699  	25,946735  	29,675557  	73,609385  	0,325535  	0,164951  	-4743,167553  	25548,888322  	-0,018531  	-0,050001  	0,384899  	0,195031  	-4,953281  	17183,645594  	143571,518553  	20,823288  	-0,047953  
123,558000  	25,541571  	32,397885  	24,595073  	357,439972  	80,579777  	74,522347  	0,010626  	0,011993  	0,003961  	0,004390  	0,004460  	-0,000000  	-0,000000  	27,802808  	26,853046  	27,973471  	27,738509  	31,048012  	29,446940  	30,895186  	30,299905  	33,289634  	32,401714  	35,328275  	67,123521  	27,446123  	25,928360  	29,671557  	73,609032  	0,323009  	0,163671  	-4691,194726  	12516,591240  	-0,036483  	-0,050003  	0,390562  	0,197901  	-5,026253  	17212,400449  	143682,321230  	20,839359  	-0,047954  
124,553000  	25,574332  	32,385814  	24,593476  	-242,047242  	80,575340  	74,521349  	0,010630  	0,011958  	0,003961  	0,004395  	0,004454  	-0,000000  	-0,000000  	27,808263  	26,851819  	27,975473  	27,741781  	31,054466  	29,449024  	30,897982  	30,304327  	33,296020  	32,403378  	35,334420  	67,123096  	27,447564  	25,917247  	29,676632  	73,612849  	0,326750  	0,165566  	-4714,484881  	-27066,747133  	-0,102987  	-0,050000  	0,385886  	0,195531  	-4,963255  	17136,535340  	143770,916767  	20,852209  	-0,047952  
125,552000  	25,603375  	32,379224  	24,591294  	57,696365  	80,576871  	74,516452  	0,010631  	0,012017  	0,003962  	0,004383  	0,004495  	-0,000000  	-0,000000  	27,801429  	26,857339  	27,977736  	27,746502  	31,046851  	29,452371  	30,903949  	30,302178  	33,296129  	32,403432  	35,339434  	67,124751  	27,451280  	25,904855  	29,680478  	73,608497  	0,316794  	0,160522  	-4546,924746  	1794,205522  	-0,053878  	-0,050001  	0,418171  	0,211891  	-5,384216  	17263,599742  	143801,392446  	20,856629  	-0,047952  
126,553000  	25,599441  	32,386676  	24,590373  	1256,670793  	80,580746  	74,516702  	0,010625  	0,011998  	0,003962  	0,004409  	0,004512  	0,000001  	-0,000000  	27,793197  	26,850500  	27,980720  	27,732553  	31,040359  	29,448195  	30,896255  	30,304237  	33,292178  	32,398708  	35,334823  	67,120911  	27,434926  	25,890432  	29,674080  	73,601439  	0,338105  	0,171320  	-4860,949367  	25543,058653  	-0,018527  	-0,049988  	0,431614  	0,218702  	-5,560625  	17222,950594  	143680,096985  	20,839036  	-0,047941  
127,555000  	25,598611  	32,401458  	24,587884  	357,439972  	80,578964  	74,517575  	0,010624  	0,012001  	0,003960  	0,004417  	0,004446  	0,000000  	-0,000000  	27,800235  	26,856162  	27,975823  	27,727627  	31,049512  	29,456131  	30,900327  	30,295247  	33,291699  	32,399878  	35,334002  	67,116156  	27,435287  	25,901357  	29,670388  	73,601521  	0,344860  	0,174743  	-4969,479907  	12515,438415  	-0,036479  	-0,049996  	0,379875  	0,192485  	-4,891910  	17229,573705  	143651,626657  	20,834907  	-0,047948  
128,553000  	25,599410  	32,408294  	24,586778  	-242,047242  	80,572652  	74,522004  	0,010621  	0,012018  	0,003957  	0,004412  	0,004484  	-0,000001  	-0,000000  	27,796434  	26,858179  	27,970959  	27,729646  	31,039048  	29,445078  	30,890849  	30,289310  	33,282960  	32,397416  	35,335992  	67,111998  	27,421606  	25,890312  	29,670203  	73,591548  	0,340170  	0,172367  	-4906,242447  	-27069,937639  	-0,103002  	-0,050007  	0,409542  	0,207518  	-5,264615  	17265,680341  	143583,797795  	20,825069  	-0,047958  
129,554000  	25,612933  	32,418364  	24,583644  	1256,670793  	80,565528  	74,521037  	0,010635  	0,011999  	0,003963  	0,004405  	0,004487  	-0,000000  	-0,000000  	27,809903  	26,858996  	27,982616  	27,741287  	31,053065  	29,460777  	30,907646  	30,309103  	33,300646  	32,412937  	35,342146  	67,127222  	27,424215  	25,898954  	29,681579  	73,607905  	0,334617  	0,169553  	-4823,706035  	25550,178578  	-0,018532  	-0,050003  	0,411596  	0,208559  	-5,285629  	17225,473347  	143888,780537  	20,869303  	-0,047954  
130,555000  	25,620555  	32,421874  	24,583214  	1256,670793  	80,565090  	74,526402  	0,010629  	0,012009  	0,003962  	0,004386  	0,004532  	-0,000002  	-0,000000  	27,819586  	26,859625  	27,991438  	27,749670  	31,053496  	29,463609  	30,896822  	30,311076  	33,308984  	32,414466  	35,345230  	67,133255  	27,422462  	25,924853  	29,687546  	73,616726  	0,319354  	0,161819  	-4600,895069  	25557,309504  	-0,018537  	-0,050019  	0,447961  	0,226985  	-5,747099  	17246,640135  	143754,365565  	20,849808  	-0,047968  
131,555000  	25,609399  	32,427140  	24,581187  	357,439972  	80,570965  	74,521037  	0,010624  	0,012025  	0,003959  	0,004420  	0,004446  	-0,000000  	-0,000000  	27,809006  	26,852950  	27,982240  	27,743690  	31,050516  	29,448452  	30,902329  	30,300062  	33,296628  	32,412407  	35,335349  	67,121553  	27,408135  	25,951066  	29,674168  	73,607942  	0,346527  	0,175588  	-5004,422662  	12517,142704  	-0,036483  	-0,050002  	0,379171  	0,192129  	-4,873618  	17281,034044  	143637,299699  	20,832829  	-0,047953  
132,558000  	25,571720  	32,432067  	24,580388  	956,927186  	80,575090  	74,517856  	0,010626  	0,011960  	0,003962  	0,004433  	0,004471  	-0,000002  	-0,000000  	27,809142  	26,863696  	27,995968  	27,745496  	31,063545  	29,461377  	30,907749  	30,305168  	33,307212  	32,417722  	35,354369  	67,129020  	27,420006  	25,982864  	29,672786  	73,624210  	0,357300  	0,181046  	-5192,262540  	22507,148833  	-0,022174  	-0,050019  	0,399604  	0,202482  	-5,142441  	17141,095538  	143692,870503  	20,840889  	-0,047968  
133,558000  	25,541049  	32,433022  	24,580480  	57,696365  	80,576340  	74,524187  	0,010627  	0,012002  	0,003960  	0,004444  	0,004468  	0,000000  	-0,000000  	27,818853  	26,876399  	27,978321  	27,744915  	31,064910  	29,454277  	30,906256  	30,306837  	33,302579  	32,416026  	35,351205  	67,120302  	27,412916  	25,969174  	29,677202  	73,614014  	0,366614  	0,185766  	-5352,179741  	1794,703550  	-0,053876  	-0,049997  	0,397068  	0,201197  	-5,105531  	17231,198001  	143713,524201  	20,843884  	-0,047949  
134,553000  	25,490095  	32,423722  	24,580234  	1256,670793  	80,573527  	74,520445  	0,010632  	0,011965  	0,003960  	0,004366  	0,004470  	-0,000000  	-0,000000  	27,821990  	26,858080  	27,978718  	27,742385  	31,057674  	29,457924  	30,898705  	30,311365  	33,298873  	32,401506  	35,334826  	67,113847  	27,412100  	25,958586  	29,679254  	73,615082  	0,303561  	0,153817  	-4458,474412  	25550,199351  	-0,018532  	-0,050003  	0,398352  	0,201848  	-5,122828  	17151,609603  	143826,275739  	20,860238  	-0,047954  
135,554000  	25,489173  	32,409033  	24,579036  	1256,670793  	80,571746  	74,518947  	0,010618  	0,012034  	0,003961  	0,004405  	0,004495  	-0,000001  	-0,000000  	27,824991  	26,862962  	27,982982  	27,751261  	31,064320  	29,473351  	30,904422  	30,316335  	33,309899  	32,415839  	35,338963  	67,119649  	27,414777  	25,956537  	29,683716  	73,612717  	0,334423  	0,169455  	-4902,002771  	25556,661104  	-0,018537  	-0,050017  	0,418383  	0,211998  	-5,380174  	17301,175743  	143511,061472  	20,814520  	-0,047966  
136,554000  	25,488619  	32,383659  	24,578606  	57,696365  	80,566434  	74,510589  	0,010622  	0,012031  	0,003960  	0,004409  	0,004492  	-0,000001  	-0,000000  	27,820635  	26,868733  	27,985105  	27,748857  	31,061263  	29,466723  	30,910391  	30,314304  	33,312158  	32,424697  	35,351744  	67,121143  	27,424376  	25,945022  	29,682383  	73,625881  	0,337873  	0,171203  	-4934,806092  	1795,314942  	-0,053891  	-0,050013  	0,415590  	0,210582  	-5,346935  	17294,293707  	143603,505306  	20,827928  	-0,047962  
137,553000  	25,495258  	32,362318  	24,577162  	-242,047242  	80,566528  	74,510932  	0,010626  	0,011996  	0,003962  	0,004470  	0,004504  	-0,000001  	-0,000000  	27,825958  	26,874438  	27,989702  	27,756970  	31,064030  	29,468096  	30,912680  	30,310509  	33,313802  	32,429852  	35,354264  	67,119135  	27,424521  	25,940402  	29,679551  	73,626720  	0,387484  	0,196341  	-5636,434416  	-27073,114925  	-0,103018  	-0,050014  	0,425574  	0,215642  	-5,475166  	17218,168258  	143680,421796  	20,839083  	-0,047964  
138,556000  	25,568278  	32,357576  	24,575503  	357,439972  	80,565465  	74,502261  	0,010627  	0,011962  	0,003957  	0,004390  	0,004427  	-0,000001  	-0,000000  	27,825394  	26,860169  	27,985949  	27,752609  	31,059682  	29,462352  	30,910411  	30,308747  	33,302818  	32,421661  	35,339025  	67,117524  	27,413422  	25,949474  	29,673381  	73,622212  	0,322381  	0,163353  	-4636,306142  	12519,718477  	-0,036490  	-0,050012  	0,364214  	0,184550  	-4,691630  	17145,190236  	143718,827082  	20,844654  	-0,047962  
139,578000  	25,609583  	32,351109  	24,573752  	1256,670793  	80,564497  	74,507563  	0,010633  	0,011997  	0,003960  	0,004378  	0,004493  	-0,000000  	-0,000000  	27,824172  	26,868728  	27,982866  	27,753850  	31,063589  	29,464458  	30,914340  	30,315301  	33,306433  	32,425023  	35,342873  	67,115572  	27,405395  	25,962094  	29,682291  	73,625130  	0,312498  	0,158345  	-4462,539098  	25550,929669  	-0,018533  	-0,050004  	0,416372  	0,210979  	-5,357958  	17221,242819  	143841,061668  	20,862382  	-0,047955  
140,555000  	25,612288  	32,359916  	24,572891  	1256,670793  	80,568809  	74,505942  	0,010617  	0,012019  	0,003964  	0,004407  	0,004469  	0,000000  	-0,000000  	27,822167  	26,871510  	27,990543  	27,758511  	31,062291  	29,462309  	30,916084  	30,314663  	33,312680  	32,421967  	35,350570  	67,123620  	27,397980  	25,961306  	29,678125  	73,624364  	0,336549  	0,170532  	-4810,350590  	25547,992117  	-0,018531  	-0,049998  	0,397891  	0,201614  	-5,125152  	17267,598227  	143491,996520  	20,811755  	-0,047949  
141,552000  	25,590129  	32,392158  	24,571939  	1256,670793  	80,577558  	74,506908  	0,010632  	0,011972  	0,003958  	0,004410  	0,004456  	-0,000000  	-0,000000  	27,824374  	26,874272  	27,995301  	27,761723  	31,062026  	29,468482  	30,918203  	30,325166  	33,317771  	32,423214  	35,351900  	67,123177  	27,397331  	25,953660  	29,680151  	73,625452  	0,338956  	0,171752  	-4883,815370  	25549,370077  	-0,018532  	-0,050001  	0,387465  	0,196331  	-4,997270  	17166,620902  	143822,356832  	20,859669  	-0,047952  
142,554000  	25,588039  	32,408602  	24,570772  	1256,670793  	80,581308  	74,509279  	0,010635  	0,012004  	0,003959  	0,004385  	0,004471  	0,000000  	-0,000000  	27,830458  	26,876530  	27,992574  	27,760782  	31,064958  	29,471065  	30,916782  	30,327201  	33,317823  	32,426821  	35,356336  	67,128351  	27,398837  	25,952218  	29,683325  	73,631355  	0,318269  	0,161269  	-4598,244215  	25548,676390  	-0,018531  	-0,049999  	0,399638  	0,202499  	-5,155437  	17235,178800  	143876,155302  	20,867472  	-0,047951  
143,553000  	25,577436  	32,411281  	24,569481  	1256,670793  	80,585089  	74,516639  	0,010628  	0,011956  	0,003961  	0,004373  	0,004459  	-0,000000  	-0,000000  	27,834012  	26,871825  	27,989105  	27,758159  	31,064930  	29,467024  	30,914040  	30,317809  	33,314436  	32,431127  	35,356285  	67,127244  	27,396254  	25,971644  	29,677267  	73,630214  	0,309169  	0,156658  	-4475,463578  	25551,116788  	-0,018533  	-0,050004  	0,389772  	0,197500  	-5,025202  	17131,757956  	143737,644896  	20,847383  	-0,047955  
144,554000  	25,558198  	32,410419  	24,569665  	1256,670793  	80,585526  	74,519696  	0,010617  	0,011976  	0,003962  	0,004408  	0,004464  	-0,000001  	-0,000000  	27,830022  	26,875347  	27,991015  	27,757639  	31,071348  	29,472962  	30,919200  	30,320045  	33,312710  	32,432148  	35,353450  	67,121777  	27,396822  	26,002963  	29,679376  	73,627758  	0,337120  	0,170821  	-4893,210842  	25553,767563  	-0,018535  	-0,050010  	0,393677  	0,199479  	-5,073368  	17176,155861  	143498,047877  	20,812632  	-0,047960  
145,553000  	25,544522  	32,407586  	24,567361  	-242,047242  	80,589651  	74,515267  	0,010635  	0,011988  	0,003962  	0,004405  	0,004443  	0,000000  	-0,000000  	27,822051  	26,873844  	27,993558  	27,755995  	31,073626  	29,476067  	30,917850  	30,324326  	33,311954  	32,422844  	35,350990  	67,118890  	27,398964  	26,023100  	29,680908  	73,626888  	0,334498  	0,169493  	-4862,843647  	-27065,981742  	-0,102995  	-0,050000  	0,376729  	0,190891  	-4,861797  	17201,069285  	143887,799045  	20,869161  	-0,047951  
146,552000  	25,564805  	32,401858  	24,566255  	357,439972  	80,598151  	74,522628  	0,010629  	0,011974  	0,003959  	0,004414  	0,004449  	-0,000000  	-0,000001  	27,817041  	26,865459  	27,993497  	27,754628  	31,067016  	29,466764  	30,912451  	30,323091  	33,310118  	32,419174  	35,346501  	67,115511  	27,401328  	26,035366  	29,678122  	73,631531  	0,342007  	0,173298  	-4953,155981  	12518,136899  	-0,036484  	-0,050003  	0,381643  	0,193381  	-4,926147  	17172,225998  	143751,378722  	20,849375  	-0,047954  
147,554000  	25,554479  	32,395206  	24,565426  	1256,670793  	80,600369  	74,517638  	0,010629  	0,011948  	0,003962  	0,004370  	0,004466  	-0,000000  	-0,000000  	27,821654  	26,865323  	27,997362  	27,756561  	31,065998  	29,466299  	30,917160  	30,323091  	33,308223  	32,424259  	35,347552  	67,119470  	27,404071  	26,047238  	29,684056  	73,640024  	0,306394  	0,155252  	-4439,777010  	25551,452224  	-0,018533  	-0,050005  	0,395029  	0,200164  	-5,104965  	17116,293184  	143752,261359  	20,849503  	-0,047956  
148,553000  	25,522025  	32,395022  	24,564135  	57,696365  	80,598244  	74,522004  	0,010627  	0,011971  	0,003962  	0,004434  	0,004496  	0,000000  	-0,000000  	27,829590  	26,864424  	28,002349  	27,757795  	31,063999  	29,476868  	30,915898  	30,317786  	33,313698  	32,421456  	35,350118  	67,121484  	27,402900  	26,059486  	29,682300  	73,633659  	0,357937  	0,181369  	-5211,120877  	1795,531371  	-0,053874  	-0,049994  	0,418844  	0,212231  	-5,406962  	17165,947414  	143703,942297  	20,842495  	-0,047946  
149,552000  	25,483887  	32,396746  	24,562323  	1256,670793  	80,596151  	74,530487  	0,010626  	0,011976  	0,003961  	0,004432  	0,004483  	0,000001  	-0,000000  	27,822389  	26,875554  	28,000008  	27,757698  	31,064866  	29,479978  	30,916425  	30,314725  	33,321685  	32,420819  	35,346400  	67,126314  	27,407762  	26,085009  	29,675862  	73,629749  	0,356881  	0,180834  	-5225,891362  	25543,851933  	-0,018527  	-0,049988  	0,408887  	0,207186  	-5,269238  	17175,401724  	143681,184394  	20,839194  	-0,047941  
150,555000  	25,498515  	32,384428  	24,561893  	1256,670793  	80,593213  	74,521318  	0,010633  	0,011979  	0,003960  	0,004429  	0,004432  	0,000001  	-0,000000  	27,820599  	26,863485  	27,989314  	27,753020  	31,058827  	29,472182  	30,916292  	30,311655  	33,313737  	32,419020  	35,342028  	67,123801  	27,404407  	26,112507  	29,668821  	73,625198  	0,354382  	0,179568  	-5169,074423  	25542,341035  	-0,018526  	-0,049985  	0,368799  	0,186873  	-4,757512  	17182,421004  	143843,031713  	20,862668  	-0,047938  
151,554000  	25,514742  	32,366599  	24,560694  	1256,670793  	80,597276  	74,522441  	0,010621  	0,012002  	0,003960  	0,004347  	0,004461  	-0,000000  	-0,000000  	27,823853  	26,874349  	27,986794  	27,760485  	31,072121  	29,475311  	30,923050  	30,324665  	33,313335  	32,422852  	35,350947  	67,125244  	27,413770  	26,164415  	29,679928  	73,636243  	0,287645  	0,145752  	-4174,876369  	25550,608415  	-0,018532  	-0,050003  	0,391189  	0,198219  	-5,048792  	17231,023969  	143576,058836  	20,823947  	-0,047954  
152,554000  	25,513513  	32,354343  	24,559466  	1256,670793  	80,592838  	74,518760  	0,010627  	0,011993  	0,003961  	0,004408  	0,004486  	-0,000001  	-0,000001  	27,826595  	26,878345  	27,993692  	27,760833  	31,072834  	29,472095  	30,920132  	30,323286  	33,313022  	32,428768  	35,359279  	67,125566  	27,411965  	26,200210  	29,678201  	73,631016  	0,337351  	0,170938  	-4888,429532  	25553,168467  	-0,018534  	-0,050008  	0,411521  	0,208521  	-5,310538  	17211,804072  	143711,773050  	20,843630  	-0,047958  
153,552000  	25,484102  	32,357237  	24,557100  	1256,670793  	80,588901  	74,524936  	0,010621  	0,011975  	0,003958  	0,004384  	0,004485  	0,000000  	-0,000000  	27,825006  	26,868660  	27,985838  	27,764212  	31,072791  	29,471225  	30,915080  	30,309692  	33,313747  	32,421936  	35,347944  	67,119075  	27,408471  	26,217890  	29,670029  	73,631539  	0,317635  	0,160948  	-4624,487242  	25547,838044  	-0,018530  	-0,049996  	0,410538  	0,208022  	-5,289029  	17173,516380  	143587,970901  	20,825674  	-0,047948  
154,557000  	25,486192  	32,361179  	24,556854  	1256,670793  	80,585714  	74,519259  	0,010624  	0,011986  	0,003964  	0,004385  	0,004461  	0,000000  	-0,000000  	27,829652  	26,886038  	27,996044  	27,761685  	31,073353  	29,476948  	30,928245  	30,325256  	33,316561  	32,433015  	35,353481  	67,122909  	27,411397  	26,219880  	29,691046  	73,625094  	0,318274  	0,161272  	-4635,026232  	25547,950788  	-0,018530  	-0,049997  	0,391646  	0,198450  	-5,047710  	17196,586198  	143655,538503  	20,835474  	-0,047948  
155,552000  	25,501220  	32,355451  	24,554642  	357,439972  	80,583745  	74,522441  	0,010627  	0,011991  	0,003962  	0,004420  	0,004481  	0,000000  	-0,000000  	27,826956  	26,880687  	28,003155  	27,766856  	31,076728  	29,475074  	30,925979  	30,311751  	33,313869  	32,432575  	35,355655  	67,129081  	27,415576  	26,221529  	29,680206  	73,635808  	0,346985  	0,175820  	-5037,893706  	12517,167566  	-0,036480  	-0,049996  	0,407454  	0,206460  	-5,246990  	17207,785071  	143720,818310  	20,844942  	-0,047948  
156,554000  	25,526850  	32,347814  	24,553167  	956,927186  	80,582683  	74,521193  	0,010627  	0,012033  	0,003964  	0,004422  	0,004490  	-0,000001  	-0,000000  	27,825169  	26,881330  	27,989222  	27,757116  	31,064817  	29,472629  	30,919133  	30,325389  	33,313188  	32,430354  	35,357401  	67,123913  	27,414243  	26,194980  	29,678655  	73,640955  	0,348382  	0,176528  	-5033,615008  	22503,920367  	-0,022171  	-0,050008  	0,414204  	0,209880  	-5,334079  	17297,672470  	143723,021371  	20,845262  	-0,047959  
157,580000  	25,541510  	32,346613  	24,550832  	57,696365  	80,582808  	74,522815  	0,010623  	0,011961  	0,003960  	0,004377  	0,004512  	-0,000001  	-0,000000  	27,815585  	26,868054  	27,973252  	27,749655  	31,060590  	29,469032  	30,901319  	30,314045  	33,316751  	32,422926  	35,347087  	67,117160  	27,407993  	26,171673  	29,666907  	73,622348  	0,312343  	0,158267  	-4502,414857  	1796,773684  	-0,053890  	-0,050009  	0,431657  	0,218724  	-5,557468  	17144,073886  	143628,000239  	20,831480  	-0,047959  
158,554000  	25,558782  	32,351787  	24,549972  	1256,670793  	80,583933  	74,531361  	0,010633  	0,011988  	0,003961  	0,004406  	0,004470  	-0,000001  	-0,000000  	27,817932  	26,868192  	27,999101  	27,751436  	31,067430  	29,472918  	30,912467  	30,317364  	33,314128  	32,430416  	35,352096  	67,122931  	27,422319  	26,185352  	29,679660  	73,632411  	0,335433  	0,169966  	-4826,648779  	25556,337080  	-0,018536  	-0,050014  	0,398702  	0,202025  	-5,126901  	17200,882519  	143850,516472  	20,863753  	-0,047964  
159,552000  	25,571781  	32,360286  	24,547576  	357,439972  	80,585495  	74,519072  	0,010628  	0,011965  	0,003961  	0,004415  	0,004488  	-0,000001  	-0,000000  	27,825251  	26,872460  	27,990188  	27,753159  	31,057332  	29,465920  	30,912957  	30,312812  	33,314396  	32,423519  	35,338694  	67,115390  	27,405180  	26,200809  	29,679183  	73,634318  	0,343079  	0,173841  	-4933,402051  	12520,468166  	-0,036489  	-0,050009  	0,412495  	0,209014  	-5,316399  	17152,445096  	143740,772960  	20,847837  	-0,047959  
160,555000  	25,581124  	32,369155  	24,547453  	956,927186  	80,584558  	74,518012  	0,010624  	0,012030  	0,003962  	0,004433  	0,004471  	0,000000  	-0,000000  	27,829097  	26,878078  	27,991535  	27,744788  	31,060252  	29,469320  	30,918187  	30,311787  	33,314216  	32,421067  	35,339511  	67,126922  	27,406261  	26,215475  	29,675247  	73,632076  	0,357281  	0,181037  	-5137,255685  	22500,350644  	-0,022167  	-0,049999  	0,399480  	0,202419  	-5,148754  	17292,482645  	143640,286541  	20,833262  	-0,047951  
161,553000  	25,546027  	32,380210  	24,546378  	57,696365  	80,582058  	74,519852  	0,010624  	0,011977  	0,003961  	0,004465  	0,004476  	0,000001  	-0,000000  	27,835734  	26,880162  	27,989543  	27,745391  	31,067734  	29,480687  	30,918914  	30,324452  	33,308253  	32,424691  	35,344072  	67,124703  	27,407073  	26,234590  	29,674789  	73,630315  	0,383493  	0,194319  	-5551,649372  	1796,394036  	-0,053871  	-0,049989  	0,402917  	0,204161  	-5,189339  	17176,965180  	143641,684638  	20,833465  	-0,047942  
162,553000  	25,546827  	32,391850  	24,544903  	1256,670793  	80,578933  	74,520039  	0,010621  	0,012020  	0,003961  	0,004380  	0,004499  	-0,000000  	-0,000000  	27,816438  	26,868953  	27,987942  	27,743826  	31,060926  	29,473144  	30,917033  	30,323882  	33,311273  	32,418405  	35,340342  	67,119147  	27,403868  	26,258180  	29,673722  	73,622365  	0,314296  	0,159256  	-4557,131280  	25552,402103  	-0,018533  	-0,050005  	0,421401  	0,213527  	-5,424443  	17270,652272  	143583,183480  	20,824980  	-0,047956  
163,552000  	25,571075  	32,390372  	24,544258  	357,439972  	80,587120  	74,520164  	0,010633  	0,011944  	0,003961  	0,004415  	0,004465  	-0,000001  	-0,000000  	27,815099  	26,873370  	27,990159  	27,743411  	31,054247  	29,463521  	30,918414  	30,317088  	33,310284  	32,420018  	35,341300  	67,120507  	27,408303  	26,258888  	29,674859  	73,620117  	0,342933  	0,173767  	-4953,665537  	12520,330692  	-0,036488  	-0,050008  	0,394667  	0,199981  	-5,087073  	17106,055731  	143837,637038  	20,861885  	-0,047958  
164,555000  	25,548455  	32,384151  	24,543090  	-242,047242  	80,593245  	74,519852  	0,010625  	0,012032  	0,003955  	0,004426  	0,004493  	-0,000001  	-0,000000  	27,819515  	26,870274  	27,989620  	27,742431  	31,053270  	29,469252  	30,910485  	30,313687  	33,303377  	32,417942  	35,338490  	67,123234  	27,408620  	26,264458  	29,683222  	73,622251  	0,352133  	0,178428  	-5098,795967  	-27072,142088  	-0,103028  	-0,050014  	0,416957  	0,211275  	-5,380073  	17295,904562  	143679,532098  	20,838954  	-0,047963  
165,561000  	25,483979  	32,390310  	24,542507  	1256,670793  	80,594307  	74,524717  	0,010628  	0,011976  	0,003962  	0,004405  	0,004464  	0,000000  	-0,000000  	27,819380  	26,864751  	27,985550  	27,742556  	31,055064  	29,460206  	30,906571  	30,311278  	33,304252  	32,412872  	35,332795  	67,117740  	27,413892  	26,261995  	29,673032  	73,617952  	0,334885  	0,169689  	-4899,175185  	25547,557167  	-0,018530  	-0,049995  	0,393446  	0,199362  	-5,073532  	17175,523404  	143726,453063  	20,845760  	-0,047947  
166,553000  	25,486560  	32,391172  	24,542199  	1256,670793  	80,598057  	74,526838  	0,010638  	0,011997  	0,003958  	0,004387  	0,004471  	-0,000001  	-0,000000  	27,813478  	26,864664  	27,975716  	27,739346  	31,052819  	29,455415  	30,904870  	30,306240  	33,303549  	32,408650  	35,331685  	67,113857  	27,420801  	26,265815  	29,671990  	73,610134  	0,320053  	0,162173  	-4681,025373  	25555,017518  	-0,018535  	-0,050011  	0,399015  	0,202184  	-5,146729  	17221,755717  	143957,534403  	20,879275  	-0,047961  
167,552000  	25,495319  	32,376114  	24,542199  	357,439972  	80,594838  	74,528678  	0,010635  	0,012029  	0,003962  	0,004407  	0,004457  	-0,000000  	-0,000000  	27,819436  	26,876652  	27,986808  	27,747707  	31,065392  	29,467732  	30,909793  	30,314167  	33,310465  	32,421124  	35,352999  	67,124300  	27,439679  	26,285597  	29,685068  	73,617668  	0,336212  	0,170361  	-4900,403774  	12520,058703  	-0,036487  	-0,050006  	0,387850  	0,196526  	-4,998549  	17289,834674  	143895,580370  	20,870289  	-0,047957  
168,554000  	25,494274  	32,356344  	24,542875  	956,927186  	80,593338  	74,533107  	0,010624  	0,011990  	0,003960  	0,004452  	0,004487  	0,000001  	-0,000000  	27,818651  	26,866508  	27,987325  	27,749273  	31,063191  	29,465018  	30,907927  	30,306476  	33,305780  	32,417754  	35,345945  	67,121523  	27,445091  	26,302185  	29,678142  	73,612996  	0,373148  	0,189077  	-5423,955663  	22495,458773  	-0,022162  	-0,049986  	0,412289  	0,208910  	-5,308326  	17206,943917  	143644,247814  	20,833837  	-0,047940  
169,554000  	25,482719  	32,347753  	24,543459  	57,696365  	80,593963  	74,532421  	0,010622  	0,011964  	0,003960  	0,004410  	0,004462  	0,000000  	-0,000000  	27,816658  	26,859235  	27,985264  	27,747746  	31,057935  	29,463818  	30,913545  	30,305558  	33,308407  	32,414300  	35,339829  	67,118348  	27,450961  	26,324048  	29,672499  	73,617504  	0,338427  	0,171484  	-4921,391991  	1796,825026  	-0,053879  	-0,049998  	0,392323  	0,198793  	-5,052354  	17150,514476  	143596,959673  	20,826978  	-0,047949  
170,553000  	25,479215  	32,344181  	24,545241  	1256,670793  	80,594901  	74,527556  	0,010616  	0,012005  	0,003959  	0,004367  	0,004455  	-0,000001  	-0,000000  	27,823433  	26,867785  	27,986431  	27,747919  	31,064272  	29,463747  	30,915346  	30,315205  	33,317697  	32,422059  	35,343241  	67,125993  	27,465444  	26,348609  	29,679126  	73,629116  	0,304094  	0,154087  	-4422,079664  	25557,079895  	-0,018537  	-0,050016  	0,386680  	0,195933  	-4,984441  	17238,977786  	143476,702192  	20,809536  	-0,047965  
171,554000  	25,490924  	32,340024  	24,546900  	357,439972  	80,599994  	74,525528  	0,010624  	0,012000  	0,003960  	0,004474  	0,004506  	0,000000  	-0,000000  	27,821809  	26,869908  	27,979931  	27,746184  	31,061754  	29,460904  	30,908827  	30,313841  	33,310021  	32,419297  	35,337054  	67,124128  	27,475752  	26,370870  	29,680107  	73,624272  	0,390752  	0,197997  	-5669,107357  	12517,725229  	-0,036481  	-0,049997  	0,427069  	0,216399  	-5,511532  	17227,565972  	143643,591133  	20,833741  	-0,047949  
172,553000  	25,518952  	32,334912  	24,547699  	-242,047242  	80,603119  	74,524780  	0,010623  	0,011993  	0,003962  	0,004406  	0,004431  	-0,000001  	-0,000000  	27,814621  	26,868977  	27,981204  	27,746979  	31,057464  	29,465910  	30,909349  	30,312523  	33,303379  	32,416093  	35,341137  	67,121718  	27,483603  	26,392274  	29,678700  	73,623278  	0,335510  	0,170006  	-4844,084884  	-27069,623761  	-0,103016  	-0,050008  	0,367771  	0,186352  	-4,749284  	17211,579105  	143625,274657  	20,831085  	-0,047959  
173,555000  	25,535794  	32,336390  	24,549327  	57,696365  	80,603306  	74,531236  	0,010624  	0,011991  	0,003962  	0,004408  	0,004454  	-0,000000  	-0,000000  	27,814370  	26,868035  	27,984010  	27,747247  	31,057318  	29,463675  	30,903374  	30,310339  	33,305430  	32,417624  	35,344864  	67,122819  	27,485949  	26,391748  	29,678727  	73,629345  	0,337194  	0,170859  	-4857,422623  	1796,760849  	-0,053887  	-0,050006  	0,385519  	0,195345  	-4,973350  	17208,247741  	143642,440175  	20,833575  	-0,047957  
174,555000  	25,535117  	32,347229  	24,550925  	1256,670793  	80,604931  	74,531673  	0,010619  	0,011961  	0,003961  	0,004382  	0,004475  	0,000001  	-0,000000  	27,818536  	26,867194  	27,983317  	27,746406  	31,052884  	29,461146  	30,900188  	30,305607  	33,305326  	32,417667  	35,343946  	67,117977  	27,486792  	26,385220  	29,678686  	73,628374  	0,316296  	0,160269  	-4564,086815  	25545,312216  	-0,018528  	-0,049990  	0,402221  	0,203808  	-5,189825  	17142,700026  	143545,131248  	20,819461  	-0,047943  
175,554000  	25,497870  	32,358777  	24,553045  	1256,670793  	80,601682  	74,534386  	0,010629  	0,011987  	0,003960  	0,004388  	0,004465  	-0,000001  	-0,000000  	27,826212  	26,865796  	27,987915  	27,741922  	31,058569  	29,459678  	30,907410  	30,307744  	33,307768  	32,423702  	35,344771  	67,125199  	27,487420  	26,402609  	29,677779  	73,624743  	0,321303  	0,162807  	-4669,563277  	25553,170884  	-0,018534  	-0,050008  	0,394534  	0,199914  	-5,085655  	17198,658308  	143753,800677  	20,849726  	-0,047958  
176,553000  	25,470887  	32,366845  	24,555564  	1256,670793  	80,600432  	74,535072  	0,010621  	0,011993  	0,003960  	0,004449  	0,004479  	-0,000000  	-0,000000  	27,819868  	26,858231  	27,976938  	27,738618  	31,054945  	29,454776  	30,907746  	30,311223  	33,299977  	32,410627  	35,337929  	67,115052  	27,487430  	26,406379  	29,674207  	73,624646  	0,370311  	0,187640  	-5409,308073  	25552,052662  	-0,018533  	-0,050005  	0,405316  	0,205377  	-5,222967  	17213,029369  	143581,001602  	20,824664  	-0,047956  
177,553000  	25,459977  	32,358007  	24,557008  	-242,047242  	80,599401  	74,530924  	0,010631  	0,011992  	0,003960  	0,004380  	0,004409  	-0,000000  	-0,000000  	27,818065  	26,856398  	27,980756  	27,738801  	31,047477  	29,451754  	30,907095  	30,305650  	33,304398  	32,403691  	35,340191  	67,114116  	27,498252  	26,409379  	29,668931  	73,622798  	0,314231  	0,159223  	-4591,490624  	-27068,535158  	-0,103008  	-0,050006  	0,349977  	0,177336  	-4,512175  	17211,217600  	143805,720896  	20,857256  	-0,047956  
178,556000  	25,459178  	32,343041  	24,559158  	-242,047242  	80,594276  	74,537349  	0,010628  	0,011990  	0,003962  	0,004402  	0,004450  	-0,000001  	-0,000000  	27,816363  	26,870794  	27,973376  	27,748720  	31,052191  	29,452994  	30,903416  	30,305116  	33,307015  	32,406970  	35,334221  	67,123851  	27,491685  	26,431775  	29,674173  	73,624898  	0,331942  	0,168197  	-4840,322398  	-27072,809550  	-0,103024  	-0,050014  	0,382447  	0,193789  	-4,921426  	17206,956651  	143726,248291  	20,845730  	-0,047964  
179,557000  	25,497347  	32,333249  	24,561739  	657,183579  	80,590745  	74,529552  	0,010634  	0,012007  	0,003963  	0,004407  	0,004444  	-0,000000  	-0,000000  	27,816255  	26,872593  	27,991712  	27,751241  	31,056824  	29,466834  	30,905373  	30,308760  	33,300844  	32,420886  	35,341443  	67,126201  	27,488467  	26,431816  	29,667985  	73,631785  	0,336317  	0,170414  	-4869,942726  	18473,045382  	-0,027579  	-0,050003  	0,378071  	0,191572  	-4,868537  	17243,680181  	143854,767251  	20,864370  	-0,047954  
180,555000  	25,519290  	32,326043  	24,563275  	1256,670793  	80,588245  	74,522753  	0,010634  	0,011993  	0,003961  	0,004414  	0,004458  	-0,000001  	-0,000000  	27,808444  	26,848914  	27,976218  	27,740346  	31,049668  	29,448744  	30,897584  	30,305290  	33,301577  	32,403131  	35,331648  	67,123459  	27,474052  	26,409352  	29,658100  	73,631319  	0,342227  	0,173409  	-4934,392444  	25553,409766  	-0,018534  	-0,050009  	0,389060  	0,197140  	-5,013586  	17211,409317  	143858,431958  	20,864902  	-0,047959  
181,555000  	25,570798  	32,328322  	24,563767  	57,696365  	80,586870  	74,525809  	0,010627  	0,012018  	0,003961  	0,004399  	0,004500  	-0,000001  	-0,000000  	27,815310  	26,871711  	27,976604  	27,742203  	31,061419  	29,463207  	30,909192  	30,313414  	33,308982  	32,418128  	35,342245  	67,135721  	27,501886  	26,412814  	29,679245  	73,635873  	0,330223  	0,167326  	-4726,855424  	1795,999591  	-0,053887  	-0,050008  	0,422653  	0,214161  	-5,442507  	17266,404766  	143708,793268  	20,843198  	-0,047958  
182,554000  	25,626241  	32,337806  	24,564996  	1256,670793  	80,588307  	74,529926  	0,010628  	0,011974  	0,003960  	0,004444  	0,004439  	-0,000001  	-0,000001  	27,805339  	26,867700  	27,983012  	27,743312  	31,057020  	29,463396  	30,902113  	30,318045  	33,307008  	32,416153  	35,347958  	67,141753  	27,497700  	26,418134  	29,668013  	73,644907  	0,366188  	0,185550  	-5206,008848  	25553,020941  	-0,018534  	-0,050008  	0,373582  	0,189297  	-4,808489  	17171,511477  	143744,783661  	20,848418  	-0,047958  
183,555000  	25,642560  	32,352865  	24,564996  	1256,670793  	80,586995  	74,526277  	0,010626  	0,011970  	0,003961  	0,004380  	0,004496  	0,000001  	-0,000000  	27,792036  	26,864516  	27,982847  	27,740387  	31,049746  	29,452640  	30,893437  	30,302504  	33,299750  	32,409347  	35,324649  	67,124275  	27,487335  	26,419506  	29,669381  	73,622745  	0,314361  	0,159289  	-4468,348109  	25546,272378  	-0,018529  	-0,049993  	0,419060  	0,212341  	-5,395936  	17163,592325  	143682,766079  	20,839423  	-0,047946  
184,558000  	25,618035  	32,383104  	24,565364  	57,696365  	80,583683  	74,533076  	0,010625  	0,011984  	0,003961  	0,004401  	0,004473  	-0,000000  	-0,000000  	27,806702  	26,850680  	27,972080  	27,722770  	31,037249  	29,450083  	30,892425  	30,295065  	33,290355  	32,405441  	35,333849  	67,116095  	27,482244  	26,427456  	29,670032  	73,612209  	0,331788  	0,168119  	-4754,550133  	1795,702065  	-0,053881  	-0,050001  	0,401032  	0,203206  	-5,155193  	17193,672935  	143666,165448  	20,837016  	-0,047953  
185,559000  	25,590959  	32,415377  	24,566286  	1256,670793  	80,583808  	74,522253  	0,010623  	0,012019  	0,003960  	0,004376  	0,004482  	-0,000001  	-0,000000  	27,803094  	26,859226  	27,976031  	27,729188  	31,032464  	29,439213  	30,894296  	30,297456  	33,294973  	32,403338  	35,324193  	67,118892  	27,483139  	26,425929  	29,665671  	73,612641  	0,310876  	0,157523  	-4493,962659  	25554,994121  	-0,018536  	-0,050013  	0,408185  	0,206830  	-5,256626  	17269,345619  	143627,901383  	20,831466  	-0,047962  
186,554000  	25,584566  	32,431759  	24,565794  	1256,670793  	80,585120  	74,525123  	0,010625  	0,011966  	0,003957  	0,004432  	0,004430  	0,000000  	-0,000000  	27,795013  	26,852704  	27,973817  	27,717698  	31,040806  	29,438661  	30,891616  	30,288031  	33,295041  	32,404817  	35,321181  	67,121404  	27,484118  	26,417529  	29,662533  	73,617710  	0,356340  	0,180560  	-5168,384741  	25549,140858  	-0,018531  	-0,050000  	0,366631  	0,185774  	-4,720274  	17153,351335  	143677,378464  	20,838642  	-0,047951  
187,553000  	25,587148  	32,428526  	24,566255  	1256,670793  	80,583277  	74,523033  	0,010623  	0,012021  	0,003958  	0,004415  	0,004504  	0,000000  	-0,000000  	27,800812  	26,848893  	27,975236  	27,727096  	31,046074  	29,451341  	30,899600  	30,288097  	33,301368  	32,403151  	35,326243  	67,132412  	27,483059  	26,410775  	29,670432  	73,623071  	0,342933  	0,173767  	-4969,705206  	25548,207274  	-0,018531  	-0,049998  	0,425640  	0,215675  	-5,480221  	17272,722967  	143631,664946  	20,832012  	-0,047949  
188,553000  	25,585919  	32,421320  	24,565456  	1256,670793  	80,578589  	74,528523  	0,010630  	0,011999  	0,003962  	0,004390  	0,004447  	-0,000001  	-0,000000  	27,805546  	26,853815  	27,977415  	27,726073  	31,047220  	29,454047  	30,900393  	30,305622  	33,290684  	32,402609  	35,332533  	67,125645  	27,479492  	26,399354  	29,665917  	73,626619  	0,322210  	0,163266  	-4665,311630  	25552,831998  	-0,018534  	-0,050008  	0,380082  	0,192591  	-4,885448  	17226,118538  	143774,256665  	20,852693  	-0,047958  
189,556000  	25,596245  	32,415223  	24,563029  	57,696365  	80,574402  	74,529770  	0,010631  	0,012006  	0,003961  	0,004366  	0,004464  	-0,000001  	-0,000000  	27,803308  	26,849107  	27,971479  	27,734979  	31,051566  	29,453475  	30,900767  	30,301984  	33,296128  	32,404201  	35,333659  	67,124616  	27,484408  	26,387994  	29,682352  	73,627095  	0,303221  	0,153644  	-4379,819802  	1796,164918  	-0,053891  	-0,050012  	0,393952  	0,199619  	-5,059179  	17240,385604  	143797,784227  	20,856105  	-0,047961  
190,566000  	25,594585  	32,415284  	24,563459  	1256,670793  	80,575965  	74,525404  	0,010625  	0,011998  	0,003959  	0,004427  	0,004468  	-0,000001  	-0,000000  	27,808128  	26,852162  	27,979855  	27,737670  	31,056010  	29,455256  	30,903756  	30,304063  	33,302541  	32,407650  	35,330238  	67,130721  	27,482177  	26,357619  	29,683156  	73,630994  	0,352324  	0,178525  	-5090,357298  	25553,740562  	-0,018535  	-0,050010  	0,396976  	0,201150  	-5,103001  	17223,415386  	143678,804805  	20,838849  	-0,047960  
191,554000  	25,569784  	32,416670  	24,563367  	1256,670793  	80,575433  	74,521255  	0,010623  	0,011972  	0,003961  	0,004390  	0,004480  	0,000001  	-0,000000  	27,814922  	26,856292  	27,979295  	27,736521  	31,053094  	29,452906  	30,898768  	30,303596  	33,303000  	32,410904  	35,332228  	67,128570  	27,477665  	26,326399  	29,683174  	73,627851  	0,322323  	0,163323  	-4674,787944  	25542,334394  	-0,018526  	-0,049985  	0,406723  	0,206090  	-5,231428  	17168,067630  	143630,506927  	20,831844  	-0,047938  
192,556000  	25,568923  	32,418887  	24,562261  	1256,670793  	80,573434  	74,520756  	0,010622  	0,012028  	0,003960  	0,004378  	0,004481  	-0,000001  	-0,000000  	27,818050  	26,867011  	27,985652  	27,744867  	31,061854  	29,456103  	30,899684  	30,306634  	33,306322  	32,415255  	35,342090  	67,132076  	27,488190  	26,302877  	29,687283  	73,636939  	0,312822  	0,158509  	-4539,039453  	25554,394967  	-0,018535  	-0,050011  	0,407500  	0,206483  	-5,240122  	17287,324655  	143601,584689  	20,827649  	-0,047961  
193,553000  	25,581555  	32,410788  	24,563152  	1256,670793  	80,577871  	74,530456  	0,010636  	0,011971  	0,003963  	0,004423  	0,004441  	-0,000000  	-0,000000  	27,815701  	26,860019  	27,985137  	27,750177  	31,065881  	29,455274  	30,904417  	30,301713  	33,303584  	32,415566  	35,341642  	67,128439  	27,484342  	26,283405  	29,679116  	73,638406  	0,349661  	0,177176  	-5058,201226  	25549,656848  	-0,018532  	-0,050001  	0,375628  	0,190333  	-4,826076  	17165,450079  	143914,800666  	20,873077  	-0,047952  
194,561000  	25,582538  	32,407832  	24,564197  	1256,670793  	80,578621  	74,523719  	0,010627  	0,012012  	0,003960  	0,004414  	0,004516  	-0,000000  	-0,000000  	27,817951  	26,859268  	27,981039  	27,751913  	31,062713  	29,455224  	30,908275  	30,298652  	33,298116  	32,410368  	35,337646  	67,126241  	27,479046  	26,267819  	29,674971  	73,632702  	0,342018  	0,173303  	-4944,794022  	25551,301235  	-0,018533  	-0,050004  	0,434708  	0,220270  	-5,592042  	17253,238485  	143706,300703  	20,842837  	-0,047955  
195,554000  	25,543077  	32,408756  	24,564105  	1256,670793  	80,577777  	74,525216  	0,010630  	0,011967  	0,003960  	0,004429  	0,004480  	0,000001  	-0,000000  	27,811701  	26,858760  	27,977911  	27,748968  	31,053099  	29,459770  	30,903768  	30,301049  	33,292862  	32,410387  	35,334664  	67,122556  	27,479420  	26,245597  	29,674517  	73,630980  	0,354517  	0,179636  	-5155,831835  	25545,478038  	-0,018529  	-0,049992  	0,406106  	0,205777  	-5,222098  	17157,061183  	143784,142195  	20,854127  	-0,047944  
196,556000  	25,473131  	32,410850  	24,563244  	1256,670793  	80,580152  	74,527337  	0,010629  	0,012013  	0,003961  	0,004330  	0,004481  	-0,000000  	-0,000000  	27,806190  	26,853576  	27,976141  	27,742670  	31,047481  	29,459670  	30,900585  	30,302808  	33,293627  	32,413241  	35,335342  	67,117738  	27,478998  	26,224495  	29,673214  	73,635296  	0,273760  	0,138716  	-4023,151262  	25549,384441  	-0,018531  	-0,050000  	0,407352  	0,206408  	-5,238339  	17254,609516  	143755,036369  	20,849905  	-0,047952  
197,557000  	25,441139  	32,402381  	24,564228  	1256,670793  	80,582870  	74,517606  	0,010634  	0,012023  	0,003960  	0,004362  	0,004459  	-0,000000  	-0,000000  	27,811094  	26,857047  	27,976109  	27,744534  	31,056935  	29,455084  	30,902520  	30,304713  	33,301898  	32,412559  	35,336327  	67,117566  	27,482605  	26,212586  	29,673451  	73,635768  	0,300022  	0,152023  	-4424,048667  	25551,461141  	-0,018533  	-0,050005  	0,389940  	0,197585  	-5,024734  	17276,067065  	143861,185784  	20,865301  	-0,047955  
198,554000  	25,459147  	32,371895  	24,563490  	1256,670793  	80,584558  	74,518480  	0,010630  	0,011951  	0,003961  	0,004408  	0,004534  	-0,000001  	-0,000000  	27,811075  	26,860546  	27,975762  	27,748438  	31,066625  	29,453319  	30,904759  	30,308792  	33,306203  	32,415897  	35,334562  	67,119975  	27,487841  	26,199268  	29,675168  	73,627936  	0,337383  	0,170954  	-4940,310196  	25555,110984  	-0,018536  	-0,050013  	0,449237  	0,227631  	-5,789602  	17122,602896  	143781,925012  	20,853805  	-0,047962  
199,558000  	25,473714  	32,340763  	24,563859  	1256,670793  	80,579527  	74,517513  	0,010625  	0,012003  	0,003961  	0,004391  	0,004441  	-0,000000  	-0,000000  	27,811620  	26,865181  	27,979049  	27,744713  	31,065224  	29,459432  	30,911165  	30,314991  	33,306508  	32,420902  	35,338965  	67,124775  	27,492056  	26,184522  	29,680696  	73,628006  	0,323647  	0,163995  	-4707,846276  	25551,918386  	-0,018533  	-0,050006  	0,375264  	0,190149  	-4,833033  	17234,730279  	143664,322503  	20,836748  	-0,047956  
200,553000  	25,503893  	32,324627  	24,565579  	1256,670793  	80,579402  	74,512211  	0,010619  	0,011991  	0,003961  	0,004403  	0,004495  	-0,000001  	-0,000000  	27,814902  	26,866771  	27,983378  	27,748381  	31,061321  	29,465428  	30,911134  	30,315638  	33,307300  	32,416564  	35,343248  	67,126752  	27,495633  	26,169008  	29,681842  	73,631986  	0,332753  	0,168608  	-4807,637359  	25555,439875  	-0,018536  	-0,050014  	0,418323  	0,211967  	-5,392185  	17208,210246  	143539,390579  	20,818628  	-0,047963  
201,552000  	25,526266  	32,326444  	24,564811  	1256,670793  	80,580996  	74,516671  	0,010625  	0,011971  	0,003962  	0,004429  	0,004440  	-0,000001  	-0,000000  	27,812707  	26,852352  	27,982253  	27,755096  	31,060190  	29,459120  	30,905927  	30,309513  	33,302839  	32,412613  	35,339414  	67,127419  	27,494984  	26,156119  	29,676601  	73,623684  	0,354475  	0,179615  	-5106,042833  	25556,301105  	-0,018536  	-0,050015  	0,374622  	0,189824  	-4,826599  	17164,581335  	143672,350966  	20,837913  	-0,047965  
202,558000  	25,509732  	32,333033  	24,565856  	1256,670793  	80,581058  	74,509934  	0,010628  	0,011974  	0,003962  	0,004396  	0,004490  	0,000000  	-0,000000  	27,819280  	26,854621  	27,979888  	27,744283  	31,059098  	29,463312  	30,908187  	30,311174  	33,301530  	32,418118  	35,336545  	67,122026  	27,495793  	26,161851  	29,669637  	73,626083  	0,327419  	0,165906  	-4732,361854  	25549,148220  	-0,018531  	-0,050000  	0,414165  	0,209860  	-5,342041  	17171,563828  	143723,395609  	20,845316  	-0,047951  
203,555000  	25,517016  	32,345135  	24,566685  	1256,670793  	80,581714  	74,514519  	0,010619  	0,011978  	0,003959  	0,004428  	0,004498  	0,000001  	-0,000001  	27,820297  	26,869822  	27,986461  	27,747775  	31,057294  	29,461103  	30,910650  	30,315428  	33,305635  	32,421970  	35,350370  	67,123917  	27,495941  	26,158580  	29,666028  	73,639706  	0,353477  	0,179110  	-5112,596916  	25542,902257  	-0,018527  	-0,049986  	0,420973  	0,213310  	-5,426349  	17180,108363  	143541,890206  	20,818991  	-0,047940  
204,555000  	25,560410  	32,349323  	24,568037  	1256,670793  	80,585776  	74,514955  	0,010633  	0,011963  	0,003963  	0,004429  	0,004478  	-0,000002  	-0,000000  	27,824906  	26,868394  	27,985990  	27,754297  	31,066512  	29,457510  	30,913852  	30,315949  	33,304470  	32,421647  	35,351178  	67,123240  	27,492043  	26,162050  	29,672022  	73,631619  	0,354165  	0,179458  	-5093,117153  	25561,182579  	-0,018540  	-0,050026  	0,404967  	0,205200  	-5,223154  	17147,106000  	143843,095263  	20,862677  	-0,047974  
205,552000  	25,560103  	32,349139  	24,570280  	956,927186  	80,585464  	74,507064  	0,010624  	0,011979  	0,003960  	0,004367  	0,004474  	-0,000001  	-0,000000  	27,818903  	26,863656  	27,984537  	27,745666  	31,058981  	29,461301  	30,913866  	30,318906  	33,301019  	32,418799  	35,339323  	67,123334  	27,494294  	26,148101  	29,673717  	73,628760  	0,303985  	0,154031  	-4371,572913  	22503,543157  	-0,022171  	-0,050009  	0,401844  	0,203617  	-5,189337  	17181,598244  	143656,061024  	20,835550  	-0,047959  
206,553000  	25,492184  	32,364597  	24,572369  	357,439972  	80,586089  	74,509934  	0,010616  	0,011949  	0,003962  	0,004356  	0,004507  	0,000001  	-0,000000  	27,828459  	26,874677  	27,981099  	27,753068  	31,068873  	29,469483  	30,922404  	30,329356  	33,309499  	32,413671  	35,345891  	67,127140  	27,496253  	26,134487  	29,678556  	73,633529  	0,295019  	0,149488  	-4294,751961  	12514,279216  	-0,036474  	-0,049987  	0,427769  	0,216754  	-5,522084  	17117,778821  	143472,769163  	20,808966  	-0,047940  
207,557000  	25,458256  	32,377438  	24,573567  	1256,670793  	80,586964  	74,518074  	0,010616  	0,011963  	0,003962  	0,004399  	0,004503  	0,000001  	-0,000000  	27,809707  	26,862658  	27,967438  	27,735722  	31,055105  	29,455592  	30,905697  	30,298989  	33,293993  	32,401689  	35,339921  	67,117973  	27,494583  	26,096114  	29,659859  	73,616000  	0,330015  	0,167221  	-4836,917722  	25545,227400  	-0,018529  	-0,049992  	0,424664  	0,215181  	-5,475463  	17147,415862  	143481,482553  	20,810230  	-0,047944  
208,559000  	25,453524  	32,367338  	24,574612  	1256,670793  	80,590276  	74,522129  	0,010632  	0,012002  	0,003962  	0,004410  	0,004457  	0,000002  	-0,000000  	27,820753  	26,857799  	27,968236  	27,729453  	31,052378  	29,455816  	30,903720  	30,303531  	33,299401  	32,411059  	35,341472  	67,114119  	27,488635  	26,094582  	29,676190  	73,633631  	0,339027  	0,171787  	-4965,146965  	25538,501183  	-0,018524  	-0,049977  	0,387876  	0,196540  	-5,000523  	17231,014065  	143825,308369  	20,860097  	-0,047932  
209,558000  	25,496487  	32,340763  	24,576486  	1256,670793  	80,596963  	74,522940  	0,010635  	0,011978  	0,003962  	0,004383  	0,004470  	-0,000001  	-0,000000  	27,815222  	26,855256  	27,978935  	27,736243  	31,059835  	29,462926  	30,901874  	30,309616  	33,291738  	32,418736  	35,339595  	67,129074  	27,486974  	26,076098  	29,677058  	73,628435  	0,317068  	0,160661  	-4596,835150  	25552,002858  	-0,018533  	-0,050007  	0,398282  	0,201812  	-5,139645  	17180,795293  	143893,758608  	20,870025  	-0,047957  
210,552000  	25,522118  	32,326413  	24,576732  	657,183579  	80,600963  	74,513770  	0,010632  	0,012023  	0,003959  	0,004428  	0,004423  	-0,000000  	-0,000000  	27,813556  	26,854252  	27,981635  	27,743362  	31,055482  	29,451782  	30,909022  	30,305701  	33,303433  	32,408451  	35,339233  	67,124634  	27,474238  	26,044985  	29,663025  	73,631947  	0,353784  	0,179265  	-5099,179945  	18471,616228  	-0,027578  	-0,050001  	0,361221  	0,183033  	-4,671492  	17276,594112  	143825,202453  	20,860082  	-0,047952  
211,555000  	25,521196  	32,328168  	24,576732  	-242,047242  	80,599807  	74,520788  	0,010627  	0,011951  	0,003959  	0,004415  	0,004503  	-0,000001  	-0,000000  	27,807105  	26,866040  	27,987087  	27,754290  	31,051551  	29,459526  	30,901901  	30,306853  	33,308600  	32,422611  	35,343540  	67,123948  	27,464512  	26,030453  	29,680308  	73,640445  	0,343168  	0,173886  	-4948,111965  	-27074,251596  	-0,103022  	-0,050017  	0,424690  	0,215194  	-5,484936  	17121,171025  	143708,249564  	20,843119  	-0,047966  
212,553000  	25,514742  	32,341840  	24,577838  	956,927186  	80,593245  	74,529957  	0,010629  	0,011961  	0,003962  	0,004400  	0,004470  	-0,000001  	-0,000000  	27,820115  	26,874771  	27,990814  	27,756048  	31,059524  	29,467923  	30,912763  	30,312445  	33,303795  	32,426524  	35,351791  	67,132611  	27,476303  	26,027107  	29,680078  	73,653610  	0,330441  	0,167437  	-4778,690903  	22502,644065  	-0,022170  	-0,050008  	0,398423  	0,201884  	-5,132383  	17143,302770  	143764,582967  	20,851290  	-0,047958  
213,557000  	25,505707  	32,351448  	24,577561  	1256,670793  	80,592557  	74,534137  	0,010634  	0,012032  	0,003962  	0,004385  	0,004479  	-0,000000  	-0,000000  	27,807958  	26,862381  	27,978326  	27,744193  	31,056044  	29,451319  	30,912505  	30,301830  	33,300213  	32,403424  	35,342301  	67,125322  	27,468344  	26,024281  	29,670758  	73,625411  	0,318923  	0,161600  	-4624,716343  	25551,290711  	-0,018533  	-0,050005  	0,405604  	0,205522  	-5,220692  	17296,942386  	143853,312665  	20,864159  	-0,047956  
214,553000  	25,519782  	32,352680  	24,577254  	1256,670793  	80,593370  	74,529708  	0,010623  	0,011951  	0,003961  	0,004405  	0,004435  	-0,000000  	-0,000000  	27,801334  	26,852178  	27,977102  	27,742048  	31,049246  	29,454665  	30,898120  	30,296496  	33,296139  	32,405870  	35,335947  	67,121242  	27,447031  	26,026056  	29,663561  	73,617075  	0,334721  	0,169606  	-4844,705665  	25551,261384  	-0,018533  	-0,050005  	0,370505  	0,187737  	-4,773039  	17122,680008  	143619,230361  	20,830208  	-0,047956  
215,555000  	25,535640  	32,348153  	24,576332  	357,439972  	80,591714  	74,520600  	0,010628  	0,011980  	0,003962  	0,004419  	0,004484  	0,000000  	-0,000000  	27,806514  	26,848217  	27,984620  	27,734605  	31,051468  	29,451329  	30,904597  	30,305338  	33,305213  	32,409555  	35,341488  	67,123890  	27,449889  	26,042937  	29,667286  	73,628858  	0,346099  	0,175371  	-4994,439292  	12516,069201  	-0,036479  	-0,049996  	0,409756  	0,207626  	-5,285171  	17185,255034  	143723,430915  	20,845321  	-0,047948  
216,554000  	25,530907  	32,347845  	24,575288  	956,927186  	80,585401  	74,524967  	0,010628  	0,011968  	0,003961  	0,004483  	0,004447  	-0,000000  	-0,000000  	27,814481  	26,863044  	27,985242  	27,737049  	31,060730  	29,457906  	30,909293  	30,313009  	33,308523  	32,422873  	35,347109  	67,136441  	27,458534  	26,062101  	29,680047  	73,635921  	0,397719  	0,201527  	-5743,073345  	22501,732773  	-0,022169  	-0,050005  	0,380605  	0,192855  	-4,900540  	17158,523474  	143728,140664  	20,846004  	-0,047956  
217,554000  	25,534257  	32,357484  	24,573752  	956,927186  	80,584308  	74,524624  	0,010615  	0,011969  	0,003959  	0,004407  	0,004456  	0,000000  	-0,000000  	27,811678  	26,858903  	27,978647  	27,743916  	31,055915  	29,455475  	30,904608  	30,311991  	33,303288  	32,421885  	35,352186  	67,134960  	27,449031  	26,059692  	29,674835  	73,637117  	0,336166  	0,170338  	-4858,730352  	22499,553399  	-0,022167  	-0,049999  	0,387080  	0,196136  	-4,983298  	17161,723253  	143459,353086  	20,807020  	-0,047951  
218,554000  	25,547595  	32,360994  	24,572584  	357,439972  	80,583495  	74,516515  	0,010631  	0,011995  	0,003963  	0,004379  	0,004479  	0,000001  	-0,000000  	27,813561  	26,861082  	27,983348  	27,747146  	31,054511  	29,455076  	30,903916  	30,307135  	33,297274  	32,419677  	35,346442  	67,122520  	27,441918  	26,046081  	29,672514  	73,634354  	0,313504  	0,158855  	-4524,646867  	12514,877103  	-0,036475  	-0,049990  	0,405856  	0,205650  	-5,231304  	17217,561269  	143805,770324  	20,857264  	-0,047943  
219,553000  	25,561517  	32,363119  	24,570096  	1256,670793  	80,581870  	74,515080  	0,010624  	0,011953  	0,003957  	0,004411  	0,004460  	0,000001  	-0,000000  	27,815647  	26,866043  	27,984963  	27,738684  	31,056396  	29,453382  	30,899087  	30,305579  	33,294623  	32,419058  	35,339049  	67,126612  	27,438143  	26,042135  	29,672743  	73,634926  	0,339894  	0,172227  	-4897,036051  	25545,005047  	-0,018528  	-0,049991  	0,390192  	0,197713  	-5,029250  	17126,335382  	143656,929538  	20,835676  	-0,047944  
220,553000  	25,572458  	32,370263  	24,567146  	1256,670793  	80,582620  	74,520008  	0,010623  	0,012007  	0,003962  	0,004397  	0,004474  	0,000000  	-0,000000  	27,809233  	26,860158  	27,977072  	27,732098  	31,050125  	29,445876  	30,890307  	30,302424  	33,292924  	32,408452  	35,333412  	67,124365  	27,431231  	26,023028  	29,666616  	73,625878  	0,328343  	0,166374  	-4727,961730  	25547,010910  	-0,018530  	-0,049995  	0,401437  	0,203411  	-5,170627  	17242,715224  	143625,154618  	20,831068  	-0,047947  
221,555000  	25,542309  	32,378362  	24,566839  	956,927186  	80,586026  	74,522877  	0,010623  	0,012000  	0,003962  	0,004357  	0,004486  	-0,000000  	-0,000000  	27,799160  	26,851329  	27,973913  	27,731736  	31,045498  	29,445879  	30,885328  	30,295784  	33,293608  	32,401330  	35,332820  	67,118231  	27,423178  	26,005158  	29,659252  	73,623159  	0,296237  	0,150105  	-4289,661827  	22502,369686  	-0,022169  	-0,050006  	0,410903  	0,208208  	-5,293023  	17227,793063  	143629,433641  	20,831688  	-0,047956  
222,553000  	25,513359  	32,386245  	24,566163  	357,439972  	80,584464  	74,519509  	0,010627  	0,011966  	0,003959  	0,004424  	0,004448  	0,000002  	-0,000000  	27,805125  	26,856194  	27,980203  	27,737254  	31,055732  	29,452056  	30,896560  	30,298754  	33,299975  	32,407153  	35,340478  	67,125631  	27,427911  	25,999721  	29,664195  	73,631090  	0,349921  	0,177308  	-5094,349706  	12513,274102  	-0,036470  	-0,049981  	0,380957  	0,193034  	-4,908733  	17153,553665  	143703,956420  	20,842497  	-0,047935  
223,552000  	25,489019  	32,385414  	24,565334  	1256,670793  	80,585183  	74,521162  	0,010624  	0,011981  	0,003958  	0,004446  	0,004461  	-0,000000  	-0,000000  	27,810730  	26,863508  	27,978156  	27,738050  	31,055223  	29,452580  	30,905837  	30,300053  	33,301179  	32,410832  	35,341005  	67,127742  	27,426794  	25,986333  	29,665376  	73,628796  	0,368357  	0,186649  	-5381,100014  	25549,571154  	-0,018532  	-0,050001  	0,391003  	0,198124  	-5,037404  	17186,795144  	143640,194747  	20,833249  	-0,047952  
224,554000  	25,468551  	32,371803  	24,563982  	1256,670793  	80,587558  	74,519914  	0,010635  	0,011938  	0,003959  	0,004397  	0,004458  	-0,000001  	-0,000000  	27,807341  	26,861736  	27,976112  	27,739355  	31,049223  	29,455609  	30,899797  	30,299134  	33,296619  	32,412443  	35,337453  	67,122272  	27,416238  	25,970472  	29,663147  	73,629828  	0,328418  	0,166412  	-4802,422250  	25555,618913  	-0,018536  	-0,050014  	0,388814  	0,197015  	-5,012187  	17094,225816  	143878,824395  	20,867859  	-0,047963  
225,554000  	25,481613  	32,356252  	24,563429  	57,696365  	80,584745  	74,522815  	0,010633  	0,012008  	0,003962  	0,004412  	0,004442  	-0,000001  	-0,000000  	27,812619  	26,858537  	27,980014  	27,746793  	31,056636  	29,461320  	30,897215  	30,304102  	33,295449  	32,416247  	35,341792  	67,123730  	27,416826  	25,958976  	29,669300  	73,637192  	0,340121  	0,172342  	-4952,942311  	1796,086028  	-0,053890  	-0,050010  	0,376633  	0,190843  	-4,850597  	17243,804691  	143849,542041  	20,863612  	-0,047960  
226,555000  	25,502756  	32,345166  	24,562937  	1256,670793  	80,583620  	74,520819  	0,010626  	0,011930  	0,003963  	0,004393  	0,004482  	-0,000000  	-0,000000  	27,808979  	26,853346  	27,970529  	27,736643  	31,046665  	29,453644  	30,893512  	30,295739  	33,292455  	32,412958  	35,338715  	67,118707  	27,406804  	25,947392  	29,661651  	73,625944  	0,325086  	0,164723  	-4711,795708  	25551,834144  	-0,018533  	-0,050005  	0,408158  	0,206817  	-5,257362  	17077,377986  	143699,776252  	20,841890  	-0,047956  
227,554000  	25,533366  	32,337499  	24,562661  	1256,670793  	80,581683  	74,517606  	0,010621  	0,012014  	0,003961  	0,004440  	0,004470  	0,000001  	-0,000000  	27,805570  	26,853793  	27,977248  	27,732062  	31,043392  	29,445839  	30,891306  	30,295484  	33,290993  	32,411421  	35,336746  	67,111823  	27,398993  	25,941625  	29,662418  	73,618225  	0,363517  	0,184197  	-5239,341455  	25543,936397  	-0,018527  	-0,049988  	0,398245  	0,201794  	-5,130748  	17256,732562  	143584,157910  	20,825121  	-0,047941  
228,559000  	25,542217  	32,340886  	24,562599  	1256,670793  	80,582245  	74,518355  	0,010628  	0,011980  	0,003957  	0,004372  	0,004441  	-0,000000  	-0,000000  	27,804659  	26,851997  	27,981915  	27,736896  	31,044358  	29,449394  	30,896893  	30,298544  	33,288057  	32,406339  	35,340393  	67,119914  	27,399961  	25,935682  	29,666526  	73,619220  	0,307761  	0,155945  	-4432,168525  	25551,904974  	-0,018533  	-0,050006  	0,375731  	0,190386  	-4,840547  	17183,953333  	143737,736690  	20,847396  	-0,047956  
229,558000  	25,516862  	32,353388  	24,562200  	956,927186  	80,582120  	74,511369  	0,010632  	0,011952  	0,003962  	0,004403  	0,004463  	-0,000000  	-0,000000  	27,804318  	26,863039  	27,984755  	27,740776  	31,044630  	29,459481  	30,903159  	30,312302  	33,298353  	32,413262  	35,346622  	67,127274  	27,399148  	25,940684  	29,673880  	73,625831  	0,333160  	0,168814  	-4824,659656  	22500,296138  	-0,022167  	-0,050000  	0,392635  	0,198951  	-5,064037  	17124,483288  	143812,633707  	20,858259  	-0,047952  
230,553000  	25,515879  	32,363427  	24,563244  	357,439972  	80,582058  	74,511556  	0,010629  	0,011975  	0,003962  	0,004373  	0,004491  	0,000000  	-0,000000  	27,809294  	26,860541  	27,984544  	27,737437  	31,055502  	29,450999  	30,894689  	30,306474  	33,292248  	32,406786  	35,348409  	67,126088  	27,403415  	25,933527  	29,673766  	73,620171  	0,308718  	0,156430  	-4477,912601  	12517,603646  	-0,036482  	-0,050000  	0,414884  	0,210225  	-5,350775  	17172,923540  	143751,279867  	20,849360  	-0,047951  
231,552000  	25,492092  	32,361856  	24,561862  	357,439972  	80,584964  	74,511493  	0,010622  	0,011970  	0,003963  	0,004411  	0,004441  	0,000001  	-0,000000  	27,826667  	26,873288  	27,995441  	27,754051  	31,065322  	29,456962  	30,906561  	30,315281  	33,312757  	32,420358  	35,348359  	67,137111  	27,418113  	25,944511  	29,681267  	73,634004  	0,339999  	0,172280  	-4947,648788  	12514,782539  	-0,036474  	-0,049987  	0,375785  	0,190413  	-4,848879  	17162,579970  	143613,023660  	20,829308  	-0,047940  
232,559000  	25,489388  	32,356190  	24,561739  	-242,047242  	80,590026  	74,513801  	0,010624  	0,011983  	0,003960  	0,004370  	0,004434  	0,000000  	-0,000000  	27,801664  	26,860236  	27,977180  	27,735528  	31,051425  	29,455022  	30,898329  	30,300145  	33,296803  	32,409430  	35,342490  	67,126108  	27,411463  	25,925002  	29,677296  	73,622831  	0,306068  	0,155087  	-4451,973783  	-27064,705258  	-0,102992  	-0,049998  	0,369995  	0,187479  	-4,776337  	17190,848103  	143645,165757  	20,833970  	-0,047949  
233,554000  	25,518829  	32,348184  	24,561678  	57,696365  	80,589182  	74,515704  	0,010637  	0,011968  	0,003963  	0,004436  	0,004419  	-0,000001  	-0,000000  	27,807981  	26,857367  	27,972425  	27,734076  	31,053445  	29,449707  	30,890279  	30,293059  	33,296200  	32,403824  	35,341371  	67,129794  	27,413631  	25,930547  	29,679615  	73,625270  	0,359535  	0,182179  	-5201,154500  	1796,422574  	-0,053897  	-0,050017  	0,357972  	0,181387  	-4,619049  	17158,837580  	143920,491907  	20,873903  	-0,047966  
234,553000  	25,517846  	32,340732  	24,560326  	1256,670793  	80,583870  	74,518511  	0,010628  	0,011995  	0,003960  	0,004408  	0,004489  	0,000001  	-0,000001  	27,799297  	26,846686  	27,988903  	27,733330  	31,044776  	29,446108  	30,886685  	30,293858  	33,300512  	32,399344  	35,337744  	67,112479  	27,412849  	25,919144  	29,672441  	73,627517  	0,337185  	0,170854  	-4873,213477  	25546,191773  	-0,018529  	-0,049993  	0,413293  	0,209419  	-5,325743  	17217,610083  	143744,896639  	20,848435  	-0,047945  
235,554000  	25,501066  	32,347014  	24,558943  	1256,670793  	80,579246  	74,517606  	0,010622  	0,011960  	0,003960  	0,004407  	0,004463  	-0,000000  	-0,000000  	27,809369  	26,860220  	27,984075  	27,736783  	31,060373  	29,451111  	30,896268  	30,295008  	33,288613  	32,408050  	35,346921  	67,126403  	27,421864  	25,925637  	29,672711  	73,625990  	0,336162  	0,170336  	-4874,848796  	25550,942102  	-0,018532  	-0,050003  	0,393322  	0,199299  	-5,065292  	17140,407900  	143602,700341  	20,827811  	-0,047954  
236,552000  	25,499222  	32,354589  	24,559005  	57,696365  	80,576933  	74,512117  	0,010628  	0,011995  	0,003962  	0,004395  	0,004488  	-0,000001  	-0,000000  	27,804267  	26,854451  	27,977564  	27,732480  	31,044634  	29,444033  	30,894044  	30,295782  	33,290704  	32,400687  	35,338286  	67,117077  	27,420456  	25,910289  	29,662267  	73,623761  	0,326961  	0,165673  	-4747,945189  	1796,249248  	-0,053887  	-0,050007  	0,413062  	0,209302  	-5,322285  	17217,015828  	143733,210529  	20,846740  	-0,047958  
237,556000  	25,484839  	32,348400  	24,557714  	-242,047242  	80,578121  	74,509715  	0,010626  	0,011996  	0,003962  	0,004441  	0,004441  	-0,000000  	-0,000000  	27,800836  	26,852260  	27,979397  	27,733559  	31,037637  	29,457006  	30,896861  	30,294113  	33,294148  	32,410483  	35,335102  	67,125870  	27,421151  	25,908920  	29,678852  	73,635311  	0,364049  	0,184466  	-5292,844352  	-27068,781761  	-0,103009  	-0,050006  	0,375600  	0,190319  	-4,842456  	17219,086523  	143695,624329  	20,841288  	-0,047957  
238,561000  	25,468551  	32,343719  	24,557960  	357,439972  	80,580246  	74,508281  	0,010626  	0,011938  	0,003961  	0,004449  	0,004492  	0,000001  	-0,000000  	27,808453  	26,861007  	27,976748  	27,732860  	31,036482  	29,450683  	30,893887  	30,296795  	33,294643  	32,407534  	35,347221  	67,132879  	27,419700  	25,903688  	29,668715  	73,630321  	0,370460  	0,187715  	-5395,159270  	12515,969464  	-0,036477  	-0,049991  	0,415810  	0,210694  	-5,364000  	17094,423194  	143681,579815  	20,839251  	-0,047944  
239,557000  	25,471225  	32,338361  	24,557499  	1256,670793  	80,580777  	74,508062  	0,010620  	0,011962  	0,003960  	0,004363  	0,004485  	-0,000000  	-0,000001  	27,799139  	26,846794  	27,971704  	27,728284  	31,046203  	29,450094  	30,890022  	30,292340  	33,289844  	32,403335  	35,343773  	67,130572  	27,409681  	25,889091  	29,674700  	73,629735  	0,301012  	0,152525  	-4378,637874  	25551,810285  	-0,018533  	-0,050005  	0,410734  	0,208122  	-5,299172  	17146,488400  	143567,938579  	20,822769  	-0,047956  
240,557000  	25,504416  	32,329246  	24,556701  	1256,670793  	80,575527  	74,510807  	0,010630  	0,011959  	0,003962  	0,004376  	0,004503  	-0,000001  	-0,000000  	27,795710  	26,849588  	27,969389  	27,729134  	31,044445  	29,443950  	30,887190  	30,291462  	33,285123  	32,399197  	35,327457  	67,127296  	27,401380  	25,879635  	29,664947  	73,626748  	0,311011  	0,157592  	-4496,217016  	25552,814711  	-0,018534  	-0,050007  	0,424740  	0,215219  	-5,472662  	17140,061252  	143770,288330  	20,852117  	-0,047958  
241,563000  	25,505614  	32,321886  	24,557192  	1256,670793  	80,580496  	74,500047  	0,010621  	0,011953  	0,003961  	0,004420  	0,004470  	0,000000  	-0,000000  	27,799933  	26,858761  	27,978609  	27,729172  	31,046465  	29,448194  	30,898540  	30,300855  	33,294572  	32,406483  	35,337916  	67,130600  	27,419945  	25,883246  	29,671632  	73,628599  	0,347166  	0,175912  	-5012,604239  	25549,097969  	-0,018531  	-0,049999  	0,398856  	0,202103  	-5,152475  	17126,600674  	143585,810206  	20,825361  	-0,047951  
242,558000  	25,460438  	32,330324  	24,557254  	1256,670793  	80,586495  	74,496679  	0,010624  	0,011992  	0,003962  	0,004368  	0,004488  	0,000000  	-0,000000  	27,801024  	26,854548  	27,971965  	27,726336  	31,036262  	29,437762  	30,892030  	30,293839  	33,288730  	32,398272  	35,332098  	67,122853  	27,413917  	25,867032  	29,674325  	73,622362  	0,305003  	0,154547  	-4438,479510  	25548,489778  	-0,018531  	-0,049998  	0,413040  	0,209291  	-5,343932  	17210,604244  	143651,979712  	20,834958  	-0,047949  
243,557000  	25,428539  	32,341040  	24,557530  	1256,670793  	80,590464  	74,508343  	0,010626  	0,011940  	0,003958  	0,004418  	0,004468  	0,000000  	-0,000000  	27,791874  	26,841531  	27,958343  	27,715574  	31,033019  	29,435554  	30,880769  	30,289484  	33,277237  	32,393760  	35,329668  	67,121824  	27,404593  	25,855565  	29,662688  	73,612196  	0,345048  	0,174838  	-5052,370144  	25549,416304  	-0,018531  	-0,050000  	0,397177  	0,201253  	-5,132209  	17098,336078  	143690,180226  	20,840499  	-0,047951  
244,558000  	25,440893  	32,336051  	24,557530  	1256,670793  	80,593838  	74,512647  	0,010630  	0,012031  	0,003960  	0,004387  	0,004439  	-0,000000  	-0,000000  	27,790899  	26,845639  	27,960099  	27,719318  	31,034770  	29,438697  	30,886771  	30,290060  	33,281767  	32,396021  	35,325179  	67,127598  	27,413547  	25,852732  	29,667727  	73,622763  	0,320167  	0,162231  	-4676,296058  	25550,385472  	-0,018532  	-0,050002  	0,374108  	0,189563  	-4,833375  	17295,067653  	143776,855147  	20,853070  	-0,047953  
245,558000  	25,466769  	32,312032  	24,557591  	1256,670793  	80,596119  	74,513895  	0,010628  	0,011950  	0,003960  	0,004423  	0,004486  	-0,000001  	-0,000000  	27,790513  	26,841578  	27,955433  	27,716279  	31,035071  	29,437154  	30,882834  	30,287911  	33,279706  	32,396844  	35,320345  	67,120683  	27,416907  	25,838950  	29,669923  	73,625734  	0,349631  	0,177160  	-5069,668790  	25554,658670  	-0,018535  	-0,050011  	0,410882  	0,208197  	-5,309396  	17119,135702  	143734,213204  	20,846885  	-0,047961  
246,559000  	25,515326  	32,300208  	24,557776  	1256,670793  	80,597119  	74,518573  	0,010625  	0,011987  	0,003964  	0,004413  	0,004506  	-0,000001  	-0,000000  	27,793813  	26,840017  	27,953674  	27,718238  	31,036749  	29,437214  	30,884400  	30,287221  	33,283577  	32,397658  	35,326643  	67,119242  	27,418869  	25,826810  	29,668244  	73,624581  	0,341102  	0,172839  	-4902,363826  	25555,934314  	-0,018536  	-0,050014  	0,426629  	0,216176  	-5,509542  	17200,242280  	143679,390876  	20,838934  	-0,047963  
247,558000  	25,544644  	32,301593  	24,557407  	357,439972  	80,599182  	74,524468  	0,010626  	0,011999  	0,003965  	0,004355  	0,004492  	-0,000001  	-0,000000  	27,795192  	26,844308  	27,961667  	27,725635  	31,043067  	29,442119  	30,891317  	30,291524  	33,288014  	32,399195  	35,332506  	67,126281  	27,427704  	25,821212  	29,671052  	73,621419  	0,293956  	0,148950  	-4207,373486  	12521,854709  	-0,036494  	-0,050018  	0,416127  	0,210855  	-5,370543  	17225,910548  	143683,225050  	20,839490  	-0,047967  
248,564000  	25,571321  	32,317298  	24,556854  	-242,047242  	80,600432  	74,521786  	0,010629  	0,011968  	0,003960  	0,004423  	0,004449  	0,000001  	-0,000001  	27,789384  	26,840263  	27,963466  	27,722023  	31,034953  	29,434997  	30,888278  	30,294310  	33,279148  	32,398018  	35,324766  	67,122024  	27,428632  	25,813623  	29,674183  	73,620711  	0,349409  	0,177048  	-4992,947093  	-27059,531622  	-0,102974  	-0,049987  	0,381568  	0,193343  	-4,927702  	17157,524560  	143764,378195  	20,851260  	-0,047940  
249,554000  	25,603283  	32,344550  	24,558083  	1256,670793  	80,594370  	74,527712  	0,010633  	0,011984  	0,003960  	0,004434  	0,004528  	0,000001  	-0,000000  	27,792156  	26,846704  	27,962878  	27,721941  	31,031642  	29,433815  	30,888887  	30,297258  	33,283525  	32,399430  	35,322987  	67,122995  	27,431038  	25,805227  	29,678412  	73,629808  	0,358045  	0,181424  	-5112,770202  	25545,813577  	-0,018529  	-0,049992  	0,444475  	0,225219  	-5,728796  	17192,874229  	143847,275431  	20,863283  	-0,047944  
250,560000  	25,602730  	32,363519  	24,558882  	1256,670793  	80,589182  	74,532328  	0,010627  	0,011996  	0,003959  	0,004405  	0,004491  	0,000000  	-0,000000  	27,798648  	26,853312  	27,963399  	27,727468  	31,041684  	29,440498  	30,887138  	30,292233  	33,285251  	32,399051  	35,328081  	67,124907  	27,434366  	25,786968  	29,676827  	73,629910  	0,335031  	0,169763  	-4797,994781  	25548,983310  	-0,018531  	-0,049999  	0,415311  	0,210441  	-5,344256  	17218,715821  	143704,719018  	20,842607  	-0,047950  
251,558000  	25,585857  	32,383843  	24,559158  	1256,670793  	80,588370  	74,530986  	0,010621  	0,011953  	0,003962  	0,004412  	0,004497  	0,000000  	-0,000000  	27,792974  	26,840173  	27,961406  	27,721278  	31,036339  	29,432821  	30,879664  	30,282918  	33,271487  	32,391788  	35,324550  	67,117629  	27,428930  	25,768663  	29,669887  	73,624652  	0,340303  	0,172434  	-4900,310329  	25549,017378  	-0,018531  	-0,049999  	0,420039  	0,212837  	-5,405567  	17127,132674  	143579,250451  	20,824410  	-0,047951  
252,558000  	25,572703  	32,397885  	24,559158  	57,696365  	80,588620  	74,526121  	0,010625  	0,012024  	0,003962  	0,004419  	0,004458  	0,000000  	-0,000000  	27,787298  	26,838397  	27,965992  	27,714601  	31,035407  	29,434284  	30,887144  	30,289771  	33,280444  	32,392617  	35,326460  	67,128173  	27,432180  	25,766312  	29,670779  	73,625592  	0,345710  	0,175174  	-4998,082634  	1795,875664  	-0,053876  	-0,049996  	0,389378  	0,197301  	-5,015213  	17279,270381  	143671,277680  	20,837757  	-0,047948  
253,565000  	25,551375  	32,404321  	24,559650  	57,696365  	80,589839  	74,534105  	0,010618  	0,011959  	0,003959  	0,004405  	0,004464  	-0,000001  	-0,000000  	27,788324  	26,841137  	27,965902  	27,716996  	31,040134  	29,432773  	30,888653  	30,289103  	33,276326  	32,394259  	35,327422  	67,126438  	27,427166  	25,749333  	29,669036  	73,616359  	0,334572  	0,169530  	-4856,741374  	1796,215675  	-0,053887  	-0,050007  	0,393451  	0,199365  	-5,062028  	17138,591886  	143525,769730  	20,816653  	-0,047958  
254,554000  	25,538713  	32,399271  	24,560940  	1256,670793  	80,589651  	74,529053  	0,010635  	0,011976  	0,003960  	0,004440  	0,004472  	-0,000000  	-0,000000  	27,795434  	26,845711  	27,957836  	27,720965  	31,047613  	29,436674  	30,889961  	30,291299  	33,277253  	32,391229  	35,329793  	67,125753  	27,424473  	25,743981  	29,672302  	73,629690  	0,362994  	0,183932  	-5275,178799  	25551,143027  	-0,018533  	-0,050004  	0,400064  	0,202715  	-5,151234  	17175,292070  	143888,547521  	20,869269  	-0,047955  
255,556000  	25,568493  	32,392804  	24,561401  	1256,670793  	80,590901  	74,524468  	0,010628  	0,011988  	0,003961  	0,004340  	0,004479  	-0,000001  	-0,000000  	27,795209  	26,838265  	27,953964  	27,713614  	31,042735  	29,440969  	30,883571  	30,277999  	33,277100  	32,394053  	35,323382  	67,116135  	27,411543  	25,730874  	29,672425  	73,632871  	0,281959  	0,142871  	-4075,893558  	25557,500613  	-0,018537  	-0,050018  	0,405924  	0,205685  	-5,231713  	17201,631704  	143737,694323  	20,847390  	-0,047967  
256,556000  	25,573964  	32,385660  	24,561893  	57,696365  	80,585026  	74,522534  	0,010628  	0,011982  	0,003962  	0,004412  	0,004496  	0,000000  	-0,000000  	27,802901  	26,839554  	27,966920  	27,719542  	31,046883  	29,432479  	30,890618  	30,283950  	33,283729  	32,392442  	35,326895  	67,113452  	27,411547  	25,708897  	29,664345  	73,624855  	0,340707  	0,172639  	-4916,019520  	1795,849967  	-0,053880  	-0,050000  	0,419112  	0,212367  	-5,398178  	17189,048360  	143728,197153  	20,846013  	-0,047951  
257,553000  	25,519628  	32,388370  	24,562691  	956,927186  	80,577902  	74,524312  	0,010633  	0,011969  	0,003961  	0,004415  	0,004504  	-0,000001  	-0,000001  	27,792136  	26,833974  	27,960730  	27,723427  	31,038866  	29,436946  	30,885747  	30,285649  	33,279904  	32,393396  	35,327243  	67,121264  	27,410849  	25,694395  	29,667644  	73,626109  	0,342474  	0,173534  	-4982,916765  	22506,801224  	-0,022174  	-0,050016  	0,425277  	0,215491  	-5,469549  	17160,222759  	143850,438800  	20,863742  	-0,047966  
258,555000  	25,464433  	32,394652  	24,562446  	-242,047242  	80,574527  	74,523002  	0,010631  	0,011980  	0,003960  	0,004411  	0,004456  	-0,000000  	-0,000000  	27,792112  	26,842755  	27,968210  	27,728038  	31,051426  	29,442104  	30,889485  	30,293683  	33,284619  	32,403942  	35,336046  	67,117766  	27,413495  	25,689632  	29,678607  	73,628145  	0,339558  	0,172057  	-4984,729205  	-27067,788138  	-0,103003  	-0,050004  	0,387039  	0,196116  	-4,976066  	17185,143257  	143801,724318  	20,856677  	-0,047955  
259,553000  	25,448852  	32,385414  	24,562077  	657,183579  	80,576746  	74,526121  	0,010632  	0,011984  	0,003959  	0,004434  	0,004478  	-0,000000  	-0,000000  	27,777936  	26,834175  	27,961954  	27,719323  	31,031702  	29,425322  	30,878975  	30,280353  	33,277305  	32,384895  	35,322133  	67,112080  	27,400085  	25,677537  	29,668183  	73,620056  	0,358326  	0,181567  	-5265,063106  	18472,796989  	-0,027579  	-0,050003  	0,404935  	0,205183  	-5,205366  	17192,437027  	143829,481475  	20,860703  	-0,047954  
260,554000  	25,465878  	32,359916  	24,561954  	57,696365  	80,580683  	74,519883  	0,010628  	0,011969  	0,003960  	0,004420  	0,004503  	-0,000000  	-0,000000  	27,795471  	26,849073  	27,970039  	27,734478  	31,035140  	29,455840  	30,892274  	30,295691  	33,289524  	32,398883  	35,330017  	67,122819  	27,407365  	25,691468  	29,680519  	73,622409  	0,346945  	0,175799  	-5066,567789  	1795,966406  	-0,053884  	-0,050004  	0,424963  	0,215332  	-5,472005  	17159,969494  	143729,849449  	20,846252  	-0,047955  
261,558000  	25,462651  	32,329492  	24,561739  	1256,670793  	80,580683  	74,510620  	0,010628  	0,011992  	0,003963  	0,004393  	0,004482  	-0,000000  	-0,000000  	27,791039  	26,838190  	27,967868  	27,724484  	31,043067  	29,447510  	30,895654  	30,295590  	33,289652  	32,399927  	35,326084  	67,117395  	27,406394  	25,682197  	29,678401  	73,629073  	0,324866  	0,164612  	-4725,437385  	25551,532481  	-0,018533  	-0,050005  	0,408190  	0,206833  	-5,264052  	17209,652021  	143733,570645  	20,846792  	-0,047955  
262,556000  	25,481828  	32,322410  	24,560510  	657,183579  	80,582933  	74,507376  	0,010634  	0,011972  	0,003960  	0,004382  	0,004467  	0,000000  	-0,000000  	27,792500  	26,838104  	27,963958  	27,713064  	31,038067  	29,440589  	30,886100  	30,284418  	33,284224  	32,393176  	35,337903  	67,121673  	27,392232  	25,675979  	29,674411  	73,616807  	0,316061  	0,160150  	-4579,771251  	18470,983402  	-0,027576  	-0,049997  	0,396325  	0,200821  	-5,115672  	17166,430599  	143871,459675  	20,866791  	-0,047949  
263,557000  	25,498976  	32,320008  	24,558482  	-242,047242  	80,583620  	74,507969  	0,010624  	0,011988  	0,003959  	0,004387  	0,004457  	-0,000001  	-0,000000  	27,795032  	26,832737  	27,957119  	27,721573  	31,042596  	29,437274  	30,881625  	30,291227  	33,285777  	32,402472  	35,329162  	67,121041  	27,385727  	25,670220  	29,660737  	73,607457  	0,320282  	0,162289  	-4627,663692  	-27069,644070  	-0,103012  	-0,050008  	0,387936  	0,196570  	-5,007460  	17201,423715  	143653,603763  	20,835194  	-0,047958  
264,558000  	25,463204  	32,318099  	24,557008  	956,927186  	80,586433  	74,512148  	0,010622  	0,011962  	0,003960  	0,004410  	0,004441  	-0,000000  	-0,000000  	27,785913  	26,839340  	27,955077  	27,722310  	31,039734  	29,428702  	30,883065  	30,283736  	33,279241  	32,390158  	35,326049  	67,121070  	27,375594  	25,679581  	29,670779  	73,621359  	0,338928  	0,171737  	-4921,396239  	22501,080217  	-0,022168  	-0,050002  	0,375251  	0,190142  	-4,842634  	17144,658944  	143607,501885  	20,828507  	-0,047953  
265,555000  	25,464157  	32,326813  	24,558144  	57,696365  	80,588120  	74,510308  	0,010631  	0,011958  	0,003957  	0,004413  	0,004464  	-0,000001  	-0,000000  	27,791813  	26,844970  	27,970702  	27,725376  	31,043507  	29,448044  	30,894700  	30,280296  	33,289268  	32,403931  	35,335511  	67,124649  	27,378333  	25,687497  	29,664391  	73,614329  	0,340956  	0,172765  	-4956,456020  	1796,474463  	-0,053893  	-0,050013  	0,393897  	0,199590  	-5,086216  	17136,864303  	143799,372973  	20,856336  	-0,047962  
266,555000  	25,497347  	32,325705  	24,557161  	1256,670793  	80,587933  	74,511992  	0,010631  	0,011963  	0,003960  	0,004372  	0,004459  	-0,000001  	-0,000000  	27,797721  	26,849852  	27,972593  	27,720053  	31,040072  	29,442329  	30,890572  	30,281669  	33,282728  	32,403029  	35,323709  	67,124115  	27,386696  	25,687500  	29,662557  	73,607280  	0,308277  	0,156206  	-4458,991931  	25554,771781  	-0,018535  	-0,050011  	0,389552  	0,197389  	-5,028564  	17148,051148  	143806,624716  	20,857388  	-0,047961  
267,555000  	25,540864  	32,317667  	24,556055  	1256,670793  	80,591245  	74,511868  	0,010615  	0,011986  	0,003963  	0,004378  	0,004482  	0,000002  	-0,000000  	27,797915  	26,848333  	27,962855  	27,725902  	31,039866  	29,439509  	30,888408  	30,286466  	33,282293  	32,401697  	35,328512  	67,125061  	27,385505  	25,688124  	29,668295  	73,618250  	0,312980  	0,158589  	-4492,828534  	25540,923075  	-0,018525  	-0,049981  	0,408180  	0,206828  	-5,272010  	17196,997225  	143464,345279  	20,807744  	-0,047935  
268,552000  	25,562131  	32,318099  	24,554089  	1256,670793  	80,590682  	74,509310  	0,010626  	0,011992  	0,003961  	0,004356  	0,004462  	-0,000001  	-0,000000  	27,794121  	26,844701  	27,963228  	27,718987  	31,038532  	29,441675  	30,882258  	30,285076  	33,288487  	32,398990  	35,327426  	67,123942  	27,386785  	25,685368  	29,666266  	73,615628  	0,295265  	0,149613  	-4225,495071  	25552,641198  	-0,018534  	-0,050007  	0,392030  	0,198645  	-5,065081  	17209,557223  	143681,290310  	20,839209  	-0,047957  
269,555000  	25,548486  	32,340917  	24,553198  	956,927186  	80,588995  	74,515953  	0,010622  	0,011960  	0,003960  	0,004484  	0,004468  	0,000000  	-0,000001  	27,802428  	26,841060  	27,973477  	27,724186  	31,047916  	29,443941  	30,890044  	30,293237  	33,299115  	32,401280  	35,332285  	67,127085  	27,394158  	25,691157  	29,672805  	73,625652  	0,399086  	0,202220  	-5742,096075  	22500,365139  	-0,022167  	-0,050000  	0,396769  	0,201046  	-5,119282  	17140,926458  	143605,927261  	20,828279  	-0,047951  
270,552000  	25,517999  	32,362534  	24,551355  	357,439972  	80,589995  	74,522940  	0,010616  	0,011958  	0,003960  	0,004357  	0,004501  	-0,000001  	-0,000000  	27,808081  	26,849666  	27,976616  	27,731816  	31,048477  	29,449366  	30,894580  	30,300481  	33,294841  	32,403819  	35,342713  	67,131575  	27,395458  	25,709203  	29,672780  	73,625985  	0,295850  	0,149909  	-4289,380912  	12520,556915  	-0,036490  	-0,050011  	0,422927  	0,214300  	-5,451419  	17137,905663  	143479,413652  	20,809930  	-0,047960  
271,556000  	25,521872  	32,374082  	24,551355  	357,439972  	80,586433  	74,525279  	0,010631  	0,011982  	0,003961  	0,004428  	0,004461  	0,000001  	-0,000000  	27,795209  	26,840843  	27,968486  	27,728737  	31,040013  	29,438305  	30,888709  	30,288403  	33,282989  	32,392205  	35,334145  	67,118446  	27,379397  	25,711815  	29,667446  	73,618801  	0,353058  	0,178897  	-5124,552252  	12515,328038  	-0,036474  	-0,049987  	0,391719  	0,198487  	-5,044241  	17188,191643  	143806,681205  	20,857396  	-0,047940  
272,555000  	25,546827  	32,369647  	24,549757  	-242,047242  	80,589057  	74,520663  	0,010624  	0,011952  	0,003960  	0,004409  	0,004461  	0,000000  	-0,000000  	27,793492  	26,839089  	27,960849  	27,720951  	31,033573  	29,435378  	30,883530  	30,283207  	33,281213  	32,388925  	35,327126  	67,119287  	27,370595  	25,728115  	29,666176  	73,621949  	0,338236  	0,171387  	-4888,353179  	-27065,407275  	-0,102999  	-0,050000  	0,391227  	0,198238  	-5,043923  	17124,076506  	143650,489821  	20,834742  	-0,047951  
273,558000  	25,568401  	32,363581  	24,549481  	57,696365  	80,594057  	74,518947  	0,010628  	0,011991  	0,003962  	0,004449  	0,004456  	-0,000001  	-0,000000  	27,804735  	26,849789  	27,971970  	27,724676  	31,040928  	29,441734  	30,890363  	30,296471  	33,287308  	32,403820  	35,337051  	67,131202  	27,381229  	25,752614  	29,669559  	73,635932  	0,370504  	0,187737  	-5333,001531  	1796,788020  	-0,053888  	-0,050007  	0,387692  	0,196447  	-5,003881  	17209,146905  	143728,514902  	20,846059  	-0,047958  
274,557000  	25,566680  	32,367338  	24,548498  	657,183579  	80,591245  	74,522753  	0,010621  	0,011963  	0,003958  	0,004385  	0,004492  	0,000001  	-0,000000  	27,796571  	26,846481  	27,972211  	27,725801  	31,040068  	29,444277  	30,890591  	30,296932  	33,283922  	32,403071  	35,335579  	67,124277  	27,373450  	25,758652  	29,673811  	73,631698  	0,318753  	0,161515  	-4591,807047  	18468,572517  	-0,027572  	-0,049988  	0,415816  	0,210697  	-5,361023  	17147,117320  	143575,225627  	20,823826  	-0,047941  
275,553000  	25,555063  	32,374728  	24,547207  	-242,047242  	80,589370  	74,523096  	0,010626  	0,011979  	0,003962  	0,004446  	0,004388  	-0,000000  	-0,000000  	27,780017  	26,837252  	27,962123  	27,716778  	31,030229  	29,443193  	30,879553  	30,287866  	33,278553  	32,389342  	35,325614  	67,116630  	27,356762  	25,769847  	29,672252  	73,617505  	0,368303  	0,186622  	-5320,428530  	-27067,853511  	-0,103010  	-0,050005  	0,333946  	0,169213  	-4,303916  	17181,671111  	143680,796033  	20,839138  	-0,047955  
276,558000  	25,547195  	32,382427  	24,546347  	956,927186  	80,585245  	74,522846  	0,010634  	0,011978  	0,003960  	0,004370  	0,004485  	-0,000000  	-0,000000  	27,778835  	26,837580  	27,964512  	27,717032  	31,033528  	29,439276  	30,881605  	30,290544  	33,284757  	32,391684  	35,331377  	67,118196  	27,360452  	25,804907  	29,666730  	73,623921  	0,306004  	0,155055  	-4430,560948  	22502,742611  	-0,022169  	-0,050005  	0,410217  	0,207860  	-5,283535  	17180,774070  	143858,537874  	20,864917  	-0,047956  
277,553000  	25,530999  	32,385568  	24,545302  	956,927186  	80,588714  	74,521287  	0,010635  	0,012024  	0,003960  	0,004437  	0,004461  	-0,000001  	-0,000001  	27,784297  	26,840035  	27,967896  	27,722128  	31,037811  	29,437700  	30,892886  	30,291083  	33,287245  	32,396758  	35,337138  	67,121559  	27,365124  	25,852122  	29,663785  	73,635390  	0,360743  	0,182791  	-5237,894108  	22505,886985  	-0,022172  	-0,050013  	0,391207  	0,198228  	-5,042865  	17278,488653  	143877,814659  	20,867713  	-0,047962  
278,558000  	25,523070  	32,382735  	24,544565  	357,439972  	80,589214  	74,519602  	0,010631  	0,011959  	0,003961  	0,004446  	0,004472  	-0,000000  	-0,000000  	27,788998  	26,840688  	27,972805  	27,721591  	31,036761  	29,437837  	30,893757  	30,288564  	33,281218  	32,395050  	35,334797  	67,129656  	27,369615  	25,895117  	29,666650  	73,630949  	0,368289  	0,186615  	-5351,438470  	12519,553524  	-0,036486  	-0,050004  	0,400223  	0,202796  	-5,160943  	17138,804827  	143788,859006  	20,854811  	-0,047955  
279,553000  	25,516709  	32,377007  	24,543920  	1256,670793  	80,585839  	74,525372  	0,010626  	0,011984  	0,003961  	0,004404  	0,004451  	-0,000001  	-0,000001  	27,788601  	26,844223  	27,965633  	27,726941  	31,037774  	29,438194  	30,890305  	30,293149  	33,281002  	32,396446  	35,335941  	67,121075  	27,371973  	25,919436  	29,677637  	73,619879  	0,333907  	0,169193  	-4852,300739  	25553,040191  	-0,018534  	-0,050007  	0,383152  	0,194146  	-4,933369  	17192,400240  	143688,301976  	20,840226  	-0,047957  
280,556000  	25,519905  	32,366291  	24,542384  	1256,670793  	80,585651  	74,523563  	0,010628  	0,011978  	0,003960  	0,004470  	0,004506  	-0,000000  	-0,000000  	27,794394  	26,846374  	27,971935  	27,732030  	31,042186  	29,437198  	30,894045  	30,294314  	33,286888  	32,394036  	35,330873  	67,126856  	27,372224  	25,945849  	29,675849  	73,628287  	0,387523  	0,196361  	-5620,016177  	25552,693350  	-0,018534  	-0,050006  	0,427086  	0,216408  	-5,500521  	17179,785060  	143725,725770  	20,845654  	-0,047956  
281,553000  	25,534226  	32,359824  	24,541093  	-242,047242  	80,587339  	74,519353  	0,010629  	0,012004  	0,003960  	0,004386  	0,004442  	-0,000000  	-0,000001  	27,804150  	26,841089  	27,973709  	27,730556  	31,035818  	29,442730  	30,896707  	30,292560  	33,294823  	32,404049  	35,333948  	67,123941  	27,375608  	25,955413  	29,670186  	73,624604  	0,319562  	0,161924  	-4620,343268  	-27068,445721  	-0,103014  	-0,050006  	0,376623  	0,190838  	-4,855313  	17237,030187  	143747,113822  	20,848756  	-0,047957  
282,554000  	25,547441  	32,356745  	24,538574  	-242,047242  	80,589151  	74,520476  	0,010631  	0,011956  	0,003961  	0,004418  	0,004453  	0,000001  	-0,000001  	27,806887  	26,849797  	27,965440  	27,736495  	31,044930  	29,446235  	30,897638  	30,305864  	33,293004  	32,400359  	35,341514  	67,127382  	27,371116  	25,950990  	29,672723  	73,626896  	0,345329  	0,174981  	-4980,969931  	-27062,282809  	-0,102992  	-0,049994  	0,384880  	0,195021  	-4,962319  	17132,681174  	143809,279687  	20,857773  	-0,047946  
283,553000  	25,528264  	32,361364  	24,536915  	657,183579  	80,587901  	74,529177  	0,010635  	0,011993  	0,003961  	0,004422  	0,004464  	-0,000001  	-0,000001  	27,799961  	26,840930  	27,956536  	27,733386  	31,032529  	29,435543  	30,885887  	30,297228  	33,283211  	32,389321  	35,329548  	67,120272  	27,359861  	25,936456  	29,665019  	73,631366  	0,348521  	0,176598  	-5044,585269  	18476,583865  	-0,027584  	-0,050011  	0,393660  	0,199470  	-5,067205  	17212,503029  	143882,008949  	20,868321  	-0,047961  
284,553000  	25,531153  	32,370232  	24,534150  	1256,670793  	80,584527  	74,528304  	0,010621  	0,011992  	0,003963  	0,004422  	0,004458  	-0,000000  	-0,000000  	27,792682  	26,858403  	27,962706  	27,731054  	31,050203  	29,447791  	30,897384  	30,301603  	33,290320  	32,402428  	35,333248  	67,130278  	27,367308  	25,923246  	29,674600  	73,626344  	0,348398  	0,176536  	-5047,217136  	25553,029578  	-0,018534  	-0,050006  	0,389344  	0,197283  	-5,009581  	17209,997962  	143585,104097  	20,825259  	-0,047957  
285,558000  	25,556968  	32,370817  	24,531016  	956,927186  	80,581245  	74,523127  	0,010628  	0,011939  	0,003958  	0,004386  	0,004442  	-0,000000  	-0,000001  	27,785494  	26,842090  	27,951506  	27,719153  	31,029652  	29,430222  	30,880436  	30,281138  	33,287306  	32,394253  	35,332884  	67,115239  	27,358841  	25,903419  	29,654126  	73,619839  	0,319601  	0,161944  	-4612,944817  	22503,372270  	-0,022170  	-0,050005  	0,375986  	0,190515  	-4,839216  	17095,442624  	143728,387802  	20,846040  	-0,047956  
286,555000  	25,530907  	32,365644  	24,528374  	357,439972  	80,582183  	74,519883  	0,010624  	0,012028  	0,003962  	0,004454  	0,004437  	-0,000000  	-0,000000  	27,791275  	26,842571  	27,962843  	27,713706  	31,033469  	29,435112  	30,879374  	30,282314  	33,281448  	32,391030  	35,323556  	67,114693  	27,358279  	25,905291  	29,664148  	73,621226  	0,374061  	0,189539  	-5415,552930  	12520,671348  	-0,036488  	-0,050006  	0,372410  	0,188703  	-4,796506  	17288,245750  	143639,495699  	20,833148  	-0,047956  
287,553000  	25,497440  	32,373404  	24,526900  	357,439972  	80,583152  	74,517825  	0,010632  	0,011962  	0,003960  	0,004441  	0,004469  	-0,000000  	-0,000000  	27,795931  	26,836869  	27,965403  	27,714426  	31,036251  	29,447571  	30,889521  	30,285327  	33,292006  	32,394724  	35,327047  	67,121027  	27,368471  	25,923793  	29,668347  	73,617934  	0,363889  	0,184385  	-5300,069309  	12519,477183  	-0,036484  	-0,050000  	0,397486  	0,201409  	-5,122019  	17146,523772  	143829,580331  	20,860717  	-0,047952  
288,557000  	25,469228  	32,374636  	24,524258  	956,927186  	80,584714  	74,513895  	0,010626  	0,011961  	0,003962  	0,004382  	0,004416  	-0,000000  	-0,000000  	27,801219  	26,845699  	27,974752  	27,733495  	31,046234  	29,442046  	30,885546  	30,296198  	33,288785  	32,411071  	35,341474  	67,119047  	27,371297  	25,955604  	29,676899  	73,624118  	0,315937  	0,160087  	-4621,356810  	22502,337198  	-0,022168  	-0,050002  	0,355977  	0,180376  	-4,591285  	17143,620413  	143681,459776  	20,839234  	-0,047953  
289,553000  	25,487329  	32,362657  	24,524350  	1256,670793  	80,585308  	74,517793  	0,010623  	0,011973  	0,003960  	0,004375  	0,004459  	-0,000000  	-0,000000  	27,803463  	26,849363  	27,974604  	27,723169  	31,041472  	29,440877  	30,890352  	30,300971  	33,294643  	32,402577  	35,336436  	67,122913  	27,365098  	25,983890  	29,670107  	73,614734  	0,310306  	0,157235  	-4519,224318  	25550,907528  	-0,018532  	-0,050001  	0,390008  	0,197620  	-5,027482  	17169,281607  	143625,204046  	20,831075  	-0,047952  
290,555000  	25,508780  	32,345105  	24,522998  	1256,670793  	80,585120  	74,517856  	0,010629  	0,011956  	0,003961  	0,004459  	0,004451  	-0,000001  	-0,000000  	27,795432  	26,848324  	27,962819  	27,720989  	31,040216  	29,438261  	30,887243  	30,295492  	33,290533  	32,397951  	35,325797  	67,123949  	27,359387  	26,004590  	29,663930  	73,619707  	0,378597  	0,191838  	-5482,502462  	25556,963085  	-0,018536  	-0,050014  	0,383816  	0,194482  	-4,947452  	17131,630616  	143754,831597  	20,849876  	-0,047963  
291,553000  	25,515234  	32,335220  	24,523182  	1256,670793  	80,587245  	74,505068  	0,010626  	0,011963  	0,003960  	0,004440  	0,004522  	0,000000  	-0,000000  	27,803365  	26,847533  	27,964664  	27,729488  	31,037763  	29,450812  	30,897906  	30,293312  	33,289101  	32,402977  	35,334394  	67,128186  	27,371832  	26,024711  	29,672436  	73,617496  	0,363478  	0,184177  	-5250,978189  	25549,970559  	-0,018531  	-0,049999  	0,440078  	0,222991  	-5,686607  	17146,973708  	143701,647442  	20,842162  	-0,047950  
292,555000  	25,515295  	32,338792  	24,522814  	1256,670793  	80,592182  	74,506066  	0,010627  	0,012008  	0,003960  	0,004379  	0,004406  	-0,000000  	-0,000000  	27,795460  	26,841832  	27,968155  	27,729373  	31,037207  	29,444206  	30,889877  	30,294041  	33,291037  	32,396778  	35,326124  	67,124915  	27,371086  	26,039374  	29,667282  	73,613942  	0,313356  	0,158780  	-4529,228804  	25551,187478  	-0,018532  	-0,050001  	0,348153  	0,176412  	-4,501681  	17245,325700  	143718,474027  	20,844602  	-0,047952  
293,554000  	25,521902  	32,344119  	24,522046  	956,927186  	80,593776  	74,513458  	0,010627  	0,011959  	0,003961  	0,004365  	0,004449  	0,000000  	-0,000000  	27,804127  	26,846270  	27,976556  	27,741520  	31,048683  	29,449157  	30,889316  	30,298650  	33,291211  	32,403146  	35,333333  	67,132440  	27,374326  	26,054841  	29,671167  	73,624450  	0,302540  	0,153299  	-4372,076810  	22499,437688  	-0,022166  	-0,049994  	0,382149  	0,193638  	-4,936557  	17139,919763  	143721,256098  	20,845006  	-0,047947  
294,557000  	25,531491  	32,348307  	24,521247  	357,439972  	80,596213  	74,517326  	0,010633  	0,011985  	0,003961  	0,004402  	0,004440  	-0,000000  	-0,000000  	27,809990  	26,852636  	27,981332  	27,745525  	31,045245  	29,449168  	30,892465  	30,305839  	33,297556  	32,409386  	35,343751  	67,131688  	27,380016  	26,054455  	29,677672  	73,622947  	0,332637  	0,168550  	-4803,204345  	12521,033354  	-0,036488  	-0,050006  	0,374863  	0,189946  	-4,841300  	17195,227194  	143834,932639  	20,861493  	-0,047956  
295,560000  	25,540342  	32,352372  	24,520509  	1256,670793  	80,594432  	74,515797  	0,010624  	0,011987  	0,003963  	0,004430  	0,004504  	-0,000000  	-0,000000  	27,810513  	26,855876  	27,978111  	27,736551  	31,046326  	29,450700  	30,898822  	30,297732  	33,299844  	32,405757  	35,341894  	67,129232  	27,390601  	26,061320  	29,681492  	73,624431  	0,354903  	0,179832  	-5121,122641  	25551,073214  	-0,018532  	-0,050001  	0,425654  	0,215682  	-5,497037  	17198,710659  	143646,923969  	20,834225  	-0,047952  
296,557000  	25,516248  	32,356067  	24,518728  	1256,670793  	80,591245  	74,523595  	0,010620  	0,011974  	0,003956  	0,004408  	0,004393  	-0,000000  	-0,000000  	27,802532  	26,849509  	27,969853  	27,729101  	31,050055  	29,446407  	30,893286  	30,292430  	33,283938  	32,397534  	35,334100  	67,130692  	27,385473  	26,063854  	29,674170  	73,618300  	0,337028  	0,170775  	-4883,033537  	25551,954265  	-0,018533  	-0,050003  	0,337409  	0,170968  	-4,349541  	17171,053052  	143570,332290  	20,823116  	-0,047954  
297,554000  	25,454784  	32,363796  	24,517744  	-242,047242  	80,592057  	74,524468  	0,010628  	0,011961  	0,003960  	0,004383  	0,004461  	-0,000000  	-0,000000  	27,802506  	26,846305  	27,971841  	27,727583  	31,045927  	29,449771  	30,888966  	30,293174  	33,283169  	32,397149  	35,339400  	67,129465  	27,385289  	26,075394  	29,670156  	73,620054  	0,317293  	0,160775  	-4643,621976  	-27066,340418  	-0,103015  	-0,050003  	0,391090  	0,198168  	-5,041486  	17144,383748  	143734,799275  	20,846970  	-0,047954  
298,556000  	25,431243  	32,361087  	24,515041  	357,439972  	80,592682  	74,518667  	0,010619  	0,012003  	0,003961  	0,004436  	0,004443  	0,000000  	-0,000000  	27,801997  	26,850751  	27,974488  	27,732403  	31,039485  	29,452056  	30,893285  	30,300112  	33,291515  	32,410487  	35,343427  	67,128845  	27,395423  	26,101135  	29,676685  	73,623695  	0,359975  	0,182402  	-5284,168016  	12519,697125  	-0,036483  	-0,049999  	0,376806  	0,190930  	-4,862500  	17234,692077  	143548,336984  	20,819926  	-0,047950  
299,556000  	25,422485  	32,343996  	24,513658  	1256,670793  	80,595807  	74,521973  	0,010635  	0,011968  	0,003962  	0,004388  	0,004472  	-0,000001  	-0,000000  	27,800706  	26,851163  	27,968239  	27,731803  	31,038895  	29,449609  	30,896282  	30,299513  	33,291394  	32,408561  	35,340121  	67,130486  	27,399512  	26,126823  	29,677036  	73,619830  	0,320929  	0,162617  	-4705,344833  	25558,474718  	-0,018537  	-0,050017  	0,400431  	0,202902  	-5,167221  	17157,592475  	143881,571161  	20,868258  	-0,047966  
300,552000  	25,438096  	32,323241  	24,513597  	1256,670793  	80,601557  	74,520912  	0,010637  	0,011974  	0,003962  	0,004404  	0,004478  	-0,000001  	-0,000000  	27,798120  	26,854100  	27,964585  	27,728701  	31,042298  	29,447358  	30,891612  	30,292453  	33,289078  	32,400855  	35,334123  	67,132130  	27,401422  	26,150081  	29,672549  	73,620721  	0,333965  	0,169223  	-4870,743302  	25553,825193  	-0,018534  	-0,050006  	0,404625  	0,205027  	-5,227191  	17171,060834  	143933,554930  	20,875797  	-0,047957  
301,554000  	25,466001  	32,305350  	24,511446  	-242,047242  	80,602307  	74,522347  	0,010624  	0,011987  	0,003963  	0,004449  	0,004473  	-0,000001  	-0,000000  	27,785880  	26,850591  	27,963854  	27,725751  	31,035789  	29,439686  	30,879115  	30,287435  	33,283781  	32,397268  	35,330945  	67,126568  	27,392734  	26,161465  	29,671393  	73,619067  	0,370149  	0,187557  	-5362,545271  	-27068,464768  	-0,103026  	-0,050007  	0,400870  	0,203124  	-5,178102  	17198,563510  	143651,965589  	20,834956  	-0,047958  
302,553000  	25,487083  	32,298083  	24,509910  	357,439972  	80,599244  	74,522721  	0,010625  	0,011961  	0,003957  	0,004387  	0,004456  	0,000001  	-0,000000  	27,786601  	26,841162  	27,962441  	27,723841  	31,034307  	29,442757  	30,873612  	30,288798  	33,280911  	32,392232  	35,334652  	67,122123  	27,380966  	26,183783  	29,669517  	73,613569  	0,319922  	0,162107  	-4615,670764  	12518,187856  	-0,036478  	-0,049991  	0,387717  	0,196459  	-5,005363  	17142,398654  	143670,578631  	20,837656  	-0,047943  
303,556000  	25,508380  	32,303349  	24,509542  	1256,670793  	80,594682  	74,520257  	0,010631  	0,011941  	0,003961  	0,004384  	0,004485  	0,000000  	-0,000000  	27,804617  	26,848640  	27,970945  	27,730883  	31,048263  	29,455067  	30,885053  	30,299817  	33,289070  	32,398062  	35,340135  	67,131422  	27,393947  	26,235955  	29,674698  	73,620228  	0,317881  	0,161073  	-4575,421204  	25549,926365  	-0,018531  	-0,049997  	0,410337  	0,207921  	-5,295563  	17099,282641  	143805,466697  	20,857220  	-0,047949  
304,554000  	25,509978  	32,311170  	24,507637  	1256,670793  	80,595370  	74,524873  	0,010634  	0,011984  	0,003958  	0,004406  	0,004468  	-0,000001  	-0,000000  	27,803953  	26,853353  	27,976599  	27,732563  	31,045534  	29,445804  	30,891143  	30,301052  	33,291766  	32,398415  	35,343324  	67,134047  	27,398338  	26,266376  	29,681358  	73,625142  	0,335632  	0,170067  	-4835,348432  	25554,658390  	-0,018535  	-0,050008  	0,397242  	0,201286  	-5,123255  	17193,147303  	143864,250299  	20,865745  	-0,047958  
305,553000  	25,527188  	32,325766  	24,506101  	956,927186  	80,595932  	74,526464  	0,010626  	0,011989  	0,003963  	0,004423  	0,004418  	-0,000001  	-0,000000  	27,795427  	26,846754  	27,964735  	27,727221  	31,038722  	29,442134  	30,885615  	30,288195  	33,289135  	32,392693  	35,338682  	67,126826  	27,379494  	26,283893  	29,667974  	73,626941  	0,349273  	0,176979  	-5029,934937  	22507,139271  	-0,022173  	-0,050012  	0,357377  	0,181085  	-4,608326  	17203,819835  	143685,053873  	20,839755  	-0,047962  
306,554000  	25,516985  	32,334388  	24,504933  	357,439972  	80,594620  	74,527025  	0,010621  	0,011989  	0,003957  	0,004443  	0,004506  	0,000001  	-0,000000  	27,795636  	26,843426  	27,966588  	27,730566  	31,041341  	29,445429  	30,888630  	30,289163  	33,291254  	32,394320  	35,335282  	67,128545  	27,384298  	26,312753  	29,666760  	73,633760  	0,365769  	0,185338  	-5282,079998  	12518,309290  	-0,036478  	-0,049990  	0,426708  	0,216216  	-5,500641  	17204,670186  	143587,102386  	20,825548  	-0,047943  
307,556000  	25,495688  	32,341964  	24,503459  	1256,670793  	80,592463  	74,520382  	0,010635  	0,011962  	0,003959  	0,004391  	0,004417  	0,000000  	-0,000000  	27,802009  	26,851196  	27,968355  	27,732011  	31,050937  	29,444911  	30,893792  	30,308148  	33,285605  	32,398717  	35,340817  	67,125928  	27,386533  	26,318834  	29,681272  	73,627797  	0,323649  	0,163996  	-4693,626855  	25549,023389  	-0,018530  	-0,049995  	0,356693  	0,180739  	-4,601490  	17144,888157  	143886,902286  	20,869031  	-0,047947  
308,553000  	25,530292  	32,348738  	24,501185  	57,696365  	80,593463  	74,521443  	0,010627  	0,011986  	0,003962  	0,004369  	0,004449  	-0,000001  	-0,000000  	27,786644  	26,842596  	27,963119  	27,724970  	31,030047  	29,434936  	30,884491  	30,287647  	33,274280  	32,392733  	35,323021  	67,127113  	27,368751  	26,305125  	29,666284  	73,624936  	0,305387  	0,154742  	-4410,766670  	1799,663643  	-0,053896  	-0,050011  	0,381982  	0,193553  	-4,927676  	17196,666140  	143719,695597  	20,844780  	-0,047961  
309,557000  	25,574793  	32,344058  	24,500878  	1256,670793  	80,597901  	74,521255  	0,010623  	0,012007  	0,003960  	0,004446  	0,004461  	-0,000000  	-0,000000  	27,785488  	26,842130  	27,959107  	27,717092  	31,037909  	29,435849  	30,884247  	30,277971  	33,279324  	32,391982  	35,325650  	67,121494  	27,362065  	26,303934  	29,665455  	73,612636  	0,367847  	0,186391  	-5274,561177  	25552,796900  	-0,018533  	-0,050003  	0,391602  	0,198428  	-5,055624  	17243,283303  	143628,889937  	20,831609  	-0,047954  
310,555000  	25,568708  	32,347630  	24,499219  	1256,670793  	80,598151  	74,527431  	0,010626  	0,011931  	0,003959  	0,004407  	0,004467  	-0,000001  	-0,000000  	27,787026  	26,828362  	27,962156  	27,711638  	31,031885  	29,423566  	30,880129  	30,282317  	33,274100  	32,397785  	35,324940  	67,122214  	27,365290  	26,295422  	29,668581  	73,623254  	0,336492  	0,170503  	-4831,849649  	25554,893960  	-0,018535  	-0,050008  	0,396022  	0,200667  	-5,107703  	17079,408357  	143680,753667  	20,839131  	-0,047958  
311,556000  	25,534042  	32,364905  	24,497929  	1256,670793  	80,591776  	74,530425  	0,010628  	0,012003  	0,003962  	0,004415  	0,004441  	-0,000001  	-0,000000  	27,794107  	26,830512  	27,966779  	27,716557  	31,036908  	29,439437  	30,891868  	30,276740  	33,280980  	32,388270  	35,331990  	67,122979  	27,373884  	26,291648  	29,671497  	73,620341  	0,343083  	0,173843  	-4964,248946  	25558,343119  	-0,018537  	-0,050015  	0,375496  	0,190266  	-4,835495  	17235,017503  	143743,004266  	20,848160  	-0,047964  
312,554000  	25,498700  	32,380856  	24,497007  	57,696365  	80,594151  	74,536476  	0,010632  	0,012011  	0,003958  	0,004404  	0,004448  	-0,000000  	-0,000000  	27,779445  	26,839711  	27,957531  	27,714375  	31,032531  	29,433178  	30,878130  	30,276326  	33,270900  	32,389176  	35,317837  	67,114909  	27,370008  	26,265431  	29,668733  	73,617862  	0,334212  	0,169348  	-4872,212090  	1799,713378  	-0,053891  	-0,050005  	0,381313  	0,193214  	-4,907441  	17251,169913  	143830,618311  	20,860867  	-0,047956  
313,553000  	25,483456  	32,378639  	24,495717  	1256,670793  	80,599557  	74,534792  	0,010627  	0,011977  	0,003959  	0,004404  	0,004469  	-0,000001  	-0,000000  	27,787487  	26,823122  	27,955554  	27,711937  	31,028954  	29,422602  	30,882249  	30,278943  	33,267788  	32,386520  	35,315730  	67,123145  	27,378473  	26,226215  	29,666845  	73,618707  	0,333732  	0,169105  	-4874,429616  	25554,936438  	-0,018535  	-0,050007  	0,397379  	0,201355  	-5,120187  	17177,200052  	143708,256625  	20,843120  	-0,047958  
314,558000  	25,501035  	32,360902  	24,495164  	1256,670793  	80,599744  	74,527306  	0,010623  	0,011993  	0,003964  	0,004424  	0,004493  	0,000001  	-0,000000  	27,787183  	26,833649  	27,949102  	27,708575  	31,033089  	29,433985  	30,885689  	30,290352  	33,283339  	32,397246  	35,325689  	67,123019  	27,382541  	26,210160  	29,677298  	73,622448  	0,350366  	0,177533  	-5091,168815  	25546,545518  	-0,018528  	-0,049989  	0,416753  	0,211172  	-5,376603  	17213,242310  	143632,335750  	20,832109  	-0,047942  
315,553000  	25,499191  	32,345012  	24,493873  	357,439972  	80,599338  	74,523220  	0,010631  	0,011974  	0,003961  	0,004400  	0,004434  	0,000001  	-0,000000  	27,785563  	26,828665  	27,956960  	27,707886  	31,035667  	29,430741  	30,889295  	30,293446  	33,277545  	32,397146  	35,324259  	67,129652  	27,390803  	26,197456  	29,663413  	73,618120  	0,330866  	0,167652  	-4797,963857  	12517,316439  	-0,036474  	-0,049983  	0,370300  	0,187634  	-4,780200  	17170,873361  	143804,146273  	20,857028  	-0,047937  
316,557000  	25,492184  	32,341317  	24,493689  	956,927186  	80,599338  	74,523969  	0,010631  	0,012020  	0,003959  	0,004358  	0,004473  	0,000001  	-0,000000  	27,790664  	26,838100  	27,960311  	27,714735  	31,026202  	29,438481  	30,883518  	30,275712  	33,281630  	32,398120  	35,326859  	67,125053  	27,398339  	26,214197  	29,657062  	73,616890  	0,296459  	0,150218  	-4301,099004  	22498,751678  	-0,022164  	-0,049990  	0,401165  	0,203273  	-5,177996  	17269,710661  	143788,851944  	20,854810  	-0,047943  
317,554000  	25,510409  	32,346767  	24,490279  	956,927186  	80,596244  	74,527524  	0,010617  	0,011969  	0,003959  	0,004402  	0,004473  	0,000000  	-0,000000  	27,790030  	26,840616  	27,950465  	27,711651  	31,027035  	29,432638  	30,873637  	30,273489  	33,278260  	32,385016  	35,319564  	67,117767  	27,389801  	26,220691  	29,655983  	73,612457  	0,332568  	0,168515  	-4815,983200  	22501,544961  	-0,022167  	-0,049997  	0,400624  	0,202999  	-5,165363  	17161,419051  	143500,321549  	20,812962  	-0,047949  
318,554000  	25,511453  	32,343688  	24,489234  	357,439972  	80,597994  	74,526714  	0,010621  	0,011968  	0,003966  	0,004375  	0,004471  	-0,000001  	-0,000000  	27,791266  	26,848226  	27,961434  	27,716438  	31,032432  	29,433174  	30,882392  	30,283846  	33,275149  	32,385275  	35,325007  	67,122207  	27,394217  	26,247229  	29,663403  	73,612668  	0,310471  	0,157318  	-4493,268912  	12523,507528  	-0,036492  	-0,050010  	0,399277  	0,202317  	-5,150166  	17158,203708  	143582,399698  	20,824866  	-0,047960  
319,553000  	25,523347  	32,342395  	24,488405  	357,439972  	80,606900  	74,530082  	0,010632  	0,011979  	0,003962  	0,004368  	0,004493  	0,000000  	-0,000000  	27,799278  	26,839694  	27,957020  	27,724346  	31,038260  	29,441265  	30,883041  	30,283858  	33,282786  	32,387760  	35,332523  	67,125732  	27,388137  	26,277718  	29,663242  	73,616388  	0,304947  	0,154519  	-4404,802691  	12520,812892  	-0,036484  	-0,049998  	0,416919  	0,211256  	-5,382623  	17181,892542  	143816,700896  	20,858849  	-0,047949  
320,554000  	25,521503  	32,345967  	24,486807  	956,927186  	80,609087  	74,530020  	0,010632  	0,011983  	0,003959  	0,004413  	0,004432  	0,000000  	-0,000000  	27,799840  	26,840533  	27,961602  	27,717499  	31,039085  	29,437361  	30,884373  	30,289531  	33,278173  	32,398425  	35,331692  	67,122177  	27,392161  	26,312487  	29,665218  	73,620998  	0,341305  	0,172942  	-4933,903868  	22501,290302  	-0,022167  	-0,049996  	0,368395  	0,186669  	-4,757925  	17190,231210  	143826,226311  	20,860230  	-0,047948  
