06/22/2020 13:29:07
Tempo T_f_e T_f_s AR AR T_q_e T_q_s Corrente_P_f Corrente_P_q Corrente_P_RESERVA Corrente_eletromag_f Corrente_eletromag_q AR AR T_1 T_2 T_3 T_4 T_5 T_6 T_7 T_8 T_9 T_10 T_11 T_12 T_13 T_14 T_15 T_16 Velocidade_f_(m/s) Vazao_f_(L/s) q_f_(W) AR AR AR Velocidade_q_(m/s) Vazao_q_(L/s) q_q_(W) DeltaP_q_(Pa) DeltaP_f_(Pa) DeltaP_f_(Psi) AR
0,010000  	21,047021  	38,020793  	25,336502  	956,927186  	80,480723  	74,992276  	0,004961  	0,011868  	0,003960  	0,004128  	0,004466  	-0,000000  	-0,000000  	27,284465  	23,709843  	25,019014  	26,210124  	32,565852  	30,264109  	31,979266  	32,654478  	38,970208  	37,191822  	40,935006  	68,452892  	28,136662  	27,121970  	29,546182  	74,108417  	0,110470  	0,055976  	-3973,092600  	22473,774257  	-0,022158  	-0,050005  	0,395213  	0,200257  	-4,608719  	16943,166964  	21635,595278  	3,137978  	-0,047956  
2,557000  	21,062674  	38,025297  	25,336747  	-242,047242  	80,478348  	75,004005  	0,004978  	0,011890  	0,003965  	0,004162  	0,004491  	-0,000001  	-0,000000  	27,295793  	23,722982  	25,014645  	26,232301  	32,573826  	30,276728  	32,000443  	32,667288  	38,976386  	37,209394  	40,945464  	68,460400  	28,136647  	27,123944  	29,548151  	74,121076  	0,138183  	0,070018  	-4966,502270  	-27087,502316  	-0,102775  	-0,050011  	0,415269  	0,210420  	-4,830163  	16990,429318  	21992,724194  	3,189775  	-0,047961  
3,557000  	21,073631  	38,028165  	25,336655  	657,183579  	80,475536  	75,004036  	0,004960  	0,011870  	0,003956  	0,004143  	0,004485  	0,000001  	-0,000000  	27,289308  	23,724198  	25,038220  	26,235123  	32,574149  	30,282563  	32,000513  	32,666548  	38,981661  	37,207600  	40,951583  	68,458896  	28,161227  	27,121947  	29,556301  	74,116906  	0,122191  	0,061915  	-4389,648039  	18435,160636  	-0,027555  	-0,049988  	0,410297  	0,207901  	-4,769857  	16946,121967  	21619,383007  	3,135626  	-0,047941  
4,556000  	21,069334  	38,031744  	25,336102  	57,696365  	80,476848  	74,994927  	0,004978  	0,011887  	0,003960  	0,004131  	0,004441  	0,000002  	-0,000000  	27,292881  	23,733529  	25,030835  	26,232336  	32,583104  	30,285980  	31,998351  	32,667936  	38,985391  	37,217300  	40,953320  	68,457598  	28,158146  	27,101754  	29,556035  	74,112798  	0,112591  	0,057051  	-4046,653804  	1751,235602  	-0,053795  	-0,049981  	0,375904  	0,190473  	-4,378343  	16984,066548  	21991,424953  	3,189587  	-0,047935  
5,557000  	21,068167  	38,034736  	25,334688  	57,696365  	80,482504  	74,999607  	0,004964  	0,011859  	0,003961  	0,004157  	0,004463  	0,000001  	-0,000000  	27,288433  	23,717150  	25,026647  	26,223231  	32,565479  	30,272703  	31,993070  	32,663723  	38,976858  	37,205251  	40,941438  	68,447452  	28,153740  	27,087979  	29,534850  	74,107760  	0,134006  	0,067902  	-4817,502517  	1751,673654  	-0,053806  	-0,049992  	0,393176  	0,199225  	-4,580334  	16923,414360  	21686,710532  	3,145391  	-0,047945  
6,557000  	21,064853  	38,040782  	25,336409  	657,183579  	80,483691  	74,999607  	0,004974  	0,011827  	0,003964  	0,004137  	0,004481  	0,000001  	-0,000000  	27,296355  	23,722142  	25,022170  	26,224841  	32,569535  	30,274543  	31,993624  	32,663198  	38,975098  	37,205751  	40,944226  	68,457899  	28,167194  	27,076474  	29,547552  	74,117449  	0,117696  	0,059637  	-4233,496349  	18434,196177  	-0,027553  	-0,049985  	0,407351  	0,206408  	-4,746498  	16854,301824  	21908,944322  	3,177624  	-0,047939  
7,558000  	21,049752  	38,046334  	25,336502  	-242,047242  	80,487566  	75,003350  	0,004972  	0,011861  	0,003962  	0,004162  	0,004480  	0,000001  	-0,000000  	27,302051  	23,737196  	25,032104  	26,235511  	32,580892  	30,277726  	32,002860  	32,677073  	38,982399  	37,214532  	40,955189  	68,452498  	28,174773  	27,076068  	29,551750  	74,118406  	0,137488  	0,069666  	-4951,429566  	-27077,595089  	-0,102738  	-0,049991  	0,406639  	0,206047  	-4,738313  	16927,116426  	21875,277029  	3,172741  	-0,047944  
8,558000  	21,049507  	38,052626  	25,336071  	-242,047242  	80,486129  	75,007031  	0,004964  	0,011897  	0,003967  	0,004141  	0,004480  	-0,000000  	-0,000000  	27,300030  	23,733173  	25,036150  	26,236069  	32,578698  	30,282376  	31,997934  	32,673781  	38,979891  	37,207313  	40,961311  	68,451544  	28,178981  	27,067186  	29,551046  	74,118150  	0,120944  	0,061283  	-4357,305661  	-27083,533798  	-0,102760  	-0,050003  	0,406380  	0,205916  	-4,730885  	17004,366007  	21695,459227  	3,146660  	-0,047954  
9,562000  	21,023726  	38,060461  	25,335211  	57,696365  	80,481004  	75,011523  	0,004976  	0,011869  	0,003966  	0,004123  	0,004496  	-0,000002  	-0,000000  	27,301721  	23,736384  	25,033367  	26,232690  	32,580076  	30,284952  	32,000781  	32,673418  	38,982936  	37,206587  	40,961006  	68,456679  	28,178921  	27,055091  	29,543793  	74,115111  	0,105889  	0,053655  	-3822,447332  	1752,816690  	-0,053842  	-0,050030  	0,419181  	0,212402  	-4,871337  	16945,361462  	21953,372721  	3,184068  	-0,047977  
10,557000  	20,983828  	38,068296  	25,334350  	657,183579  	80,478942  	75,006781  	0,004964  	0,011843  	0,003965  	0,004101  	0,004521  	-0,000002  	-0,000000  	27,305369  	23,735020  	25,029850  	26,238319  	32,580908  	30,289031  	32,001113  	32,678720  	38,990466  	37,209605  	40,958622  	68,454976  	28,179306  	27,042804  	29,552041  	74,111691  	0,088106  	0,044644  	-3189,419779  	18445,966327  	-0,027571  	-0,050021  	0,439000  	0,222445  	-5,104160  	16889,340217  	21695,219150  	3,146626  	-0,047969  
11,561000  	20,954641  	38,072183  	25,334258  	-242,047242  	80,481254  	75,003225  	0,004978  	0,011847  	0,003964  	0,004164  	0,004473  	-0,000001  	-0,000000  	27,306163  	23,731521  	25,030185  	26,239759  	32,582257  	30,287537  	32,001876  	32,679354  	38,988474  	37,208841  	40,954284  	68,456881  	28,180407  	27,021972  	29,557578  	74,112494  	0,139807  	0,070841  	-5070,809040  	-27088,140875  	-0,102779  	-0,050013  	0,400931  	0,203155  	-4,666532  	16897,271396  	22003,005146  	3,191266  	-0,047962  
12,556000  	20,933219  	38,073355  	25,334320  	956,927186  	80,484691  	75,006157  	0,004961  	0,011870  	0,003959  	0,004187  	0,004487  	-0,000001  	-0,000000  	27,308799  	23,734830  	25,035168  	26,241769  	32,590081  	30,289045  	32,002521  	32,684374  	38,982610  	37,213074  	40,959530  	68,454688  	28,179884  	27,007469  	29,559389  	74,112629  	0,157968  	0,080044  	-5737,090326  	22475,419381  	-0,022160  	-0,050009  	0,412346  	0,208939  	-4,799838  	16948,076640  	21624,735316  	3,136403  	-0,047959  
13,557000  	20,938160  	38,073016  	25,334350  	956,927186  	80,489660  	74,996019  	0,004976  	0,011885  	0,003960  	0,004119  	0,004464  	0,000000  	-0,000000  	27,310987  	23,738199  	25,039055  	26,244989  	32,590222  	30,294202  	32,007018  	32,687565  	38,988560  	37,222527  	40,970196  	68,457055  	28,179932  	27,004211  	29,557884  	74,113643  	0,103280  	0,052333  	-3749,784046  	22471,710711  	-0,022156  	-0,050000  	0,393634  	0,199457  	-4,594651  	16979,133526  	21964,493943  	3,185681  	-0,047951  
14,557000  	20,951418  	38,070610  	25,334350  	-242,047242  	80,489972  	75,001884  	0,004962  	0,011899  	0,003962  	0,004137  	0,004454  	0,000002  	-0,000000  	27,316890  	23,747669  	25,043509  	26,249769  	32,589697  	30,299317  	32,017295  	32,688689  	38,999294  	37,228571  	40,971625  	68,461471  	28,187339  	26,993835  	29,559549  	74,118057  	0,117859  	0,059720  	-4275,159011  	-27069,831906  	-0,102709  	-0,049975  	0,385494  	0,195333  	-4,495101  	17009,219795  	21645,233670  	3,139376  	-0,047930  
15,580000  	20,975265  	38,068944  	25,333521  	657,183579  	80,488441  	75,007155  	0,004979  	0,011847  	0,003964  	0,004155  	0,004431  	0,000001  	-0,000000  	27,323685  	23,754412  	25,045362  	26,253860  	32,593928  	30,305111  	32,020558  	32,689943  	38,998965  	37,225269  	40,967425  	68,456814  	28,187338  	26,982019  	29,560146  	74,117609  	0,132246  	0,067010  	-4789,888551  	18436,961407  	-0,027557  	-0,049993  	0,367950  	0,186443  	-4,285206  	16896,682093  	22025,374690  	3,194511  	-0,047946  
16,561000  	20,996073  	38,064934  	25,332845  	1256,670793  	80,487316  	74,999669  	0,004966  	0,011864  	0,003964  	0,004155  	0,004438  	0,000001  	-0,000000  	27,319509  	23,747451  	25,037398  	26,247287  	32,588182  	30,300615  	32,014750  	32,687111  	38,986442  	37,216428  	40,965087  	68,448583  	28,177541  	26,974715  	29,555726  	74,107468  	0,132613  	0,067196  	-4796,195997  	25519,087202  	-0,018520  	-0,049988  	0,373510  	0,189260  	-4,355002  	16934,543196  	21735,552115  	3,152475  	-0,047941  
17,559000  	20,990273  	38,056852  	25,333767  	956,927186  	80,491972  	74,999326  	0,004971  	0,011912  	0,003961  	0,004157  	0,004519  	-0,000000  	-0,000000  	27,318869  	23,750024  	25,038344  	26,247485  	32,588874  	30,296342  	32,016588  	32,692116  	38,984807  	37,223711  	40,969885  	68,450676  	28,179746  	26,968579  	29,557404  	74,109855  	0,133455  	0,067623  	-4826,012796  	22473,915875  	-0,022158  	-0,050005  	0,437474  	0,221671  	-5,105443  	17037,571407  	21850,266637  	3,169113  	-0,047956  
18,559000  	20,990150  	38,048956  	25,332414  	-242,047242  	80,490409  	75,005440  	0,004968  	0,011840  	0,003966  	0,004155  	0,004530  	-0,000001  	-0,000000  	27,326494  	23,755826  	25,052383  	26,260845  	32,601202  	30,300714  	32,021246  	32,700853  	38,998228  	37,236789  	40,976594  	68,458790  	28,187050  	26,972355  	29,555659  	74,121329  	0,132072  	0,066922  	-4773,820968  	-27088,594489  	-0,102781  	-0,050014  	0,446272  	0,226129  	-5,200853  	16882,094554  	21789,061080  	3,160236  	-0,047963  
19,559000  	20,960411  	38,042663  	25,331493  	657,183579  	80,488816  	75,006313  	0,004968  	0,011844  	0,003965  	0,004138  	0,004459  	-0,000001  	-0,000000  	27,318395  	23,746814  	25,052422  	26,255355  	32,595203  	30,288443  	32,013275  	32,696046  	38,991837  	37,222772  	40,970037  	68,446465  	28,191426  	26,968909  	29,553866  	74,104214  	0,118535  	0,060063  	-4290,423951  	18442,829547  	-0,027566  	-0,050011  	0,389423  	0,197324  	-4,536292  	16890,363184  	21793,523691  	3,160883  	-0,047961  
20,559000  	20,919469  	38,040072  	25,331493  	1256,670793  	80,488941  	75,008684  	0,004976  	0,011881  	0,003963  	0,004160  	0,004485  	-0,000002  	-0,000000  	27,319673  	23,757185  	25,056670  	26,252189  	32,597059  	30,301395  	32,019607  	32,694878  	38,993900  	37,227464  	40,978076  	68,450999  	28,192440  	26,968266  	29,553776  	74,108852  	0,135874  	0,068848  	-4929,069077  	25533,749575  	-0,018530  	-0,050020  	0,410349  	0,207927  	-4,778099  	16971,755570  	21963,159396  	3,185487  	-0,047969  
21,563000  	20,893905  	38,039579  	25,331216  	-242,047242  	80,489097  	75,004161  	0,004966  	0,011888  	0,003963  	0,004156  	0,004473  	-0,000000  	-0,000000  	27,330800  	23,757256  	25,049220  	26,252322  	32,594561  	30,304210  	32,023884  	32,692665  	38,993193  	37,222643  	40,977007  	68,454415  	28,192546  	26,968279  	29,556380  	74,117547  	0,133312  	0,067550  	-4843,203061  	-27084,349408  	-0,102765  	-0,050005  	0,401248  	0,203315  	-4,676107  	16986,701785  	21739,407472  	3,153034  	-0,047956  
22,558000  	20,894334  	38,039455  	25,331954  	-242,047242  	80,485035  	75,006157  	0,004978  	0,011875  	0,003957  	0,004186  	0,004446  	0,000000  	-0,000000  	27,321355  	23,758642  	25,062382  	26,264622  	32,593744  	30,311169  	32,025260  	32,701117  	39,000940  	37,232081  	40,981731  	68,462830  	28,188789  	26,984300  	29,563726  	74,123558  	0,157171  	0,079640  	-5709,820932  	-27081,318504  	-0,102754  	-0,049999  	0,379320  	0,192204  	-4,415681  	16957,901652  	21998,584902  	3,190625  	-0,047950  
23,558000  	20,896360  	38,040751  	25,331308  	657,183579  	80,478536  	75,002975  	0,004968  	0,011887  	0,003963  	0,004140  	0,004490  	-0,000001  	-0,000000  	27,325189  	23,760798  	25,057362  	26,254493  	32,596124  	30,306427  	32,015575  	32,688905  	38,994946  	37,231359  	40,972659  	68,454081  	28,184687  	26,977376  	29,558720  	74,115164  	0,119821  	0,060714  	-4352,764738  	18442,636189  	-0,027566  	-0,050010  	0,414659  	0,210111  	-4,824141  	16983,772250  	21776,457028  	3,158408  	-0,047960  
24,559000  	20,895562  	38,042848  	25,329649  	1256,670793  	80,479223  	75,004410  	0,004978  	0,011837  	0,003964  	0,004144  	0,004407  	0,000002  	-0,000000  	27,330453  	23,762791  	25,055001  	26,255009  	32,598121  	30,304680  	32,016361  	32,699421  	39,010956  	37,229608  	40,979655  	68,455384  	28,174877  	26,980797  	29,554380  	74,108393  	0,123245  	0,062449  	-4477,907427  	25514,882339  	-0,018517  	-0,049979  	0,348811  	0,176745  	-4,057514  	16876,364947  	21991,460258  	3,189592  	-0,047933  
25,563000  	20,913270  	38,034952  	25,329587  	956,927186  	80,477817  	74,997922  	0,004964  	0,011867  	0,003963  	0,004127  	0,004425  	0,000001  	-0,000000  	27,324855  	23,763428  	25,053134  	26,260038  	32,608652  	30,307094  	32,026342  	32,707945  	39,000799  	37,232095  	40,982951  	68,458300  	28,175177  	26,995961  	29,563985  	74,115666  	0,109276  	0,055371  	-3964,430536  	22465,606017  	-0,022150  	-0,049984  	0,362898  	0,183883  	-4,225291  	16940,479376  	21701,418789  	3,147525  	-0,047938  
26,556000  	20,916523  	38,026747  	25,330079  	357,439972  	80,476380  	74,996861  	0,004975  	0,011821  	0,003962  	0,004149  	0,004469  	-0,000000  	-0,000000  	27,327998  	23,758601  	25,059540  	26,253830  	32,603801  	30,314635  	32,018252  	32,695400  	38,998599  	37,236677  	40,971449  	68,458790  	28,171927  	26,993592  	29,560960  	74,112075  	0,127207  	0,064457  	-4611,854820  	12480,302444  	-0,036455  	-0,050005  	0,397849  	0,201593  	-4,631917  	16841,101587  	21944,694637  	3,182809  	-0,047955  
27,558000  	20,914958  	38,018696  	25,329895  	357,439972  	80,473786  	74,995115  	0,004965  	0,011862  	0,003966  	0,004166  	0,004503  	-0,000001  	-0,000000  	27,315874  	23,754288  	25,060232  	26,251065  	32,595327  	30,295201  	32,016952  	32,690820  	38,998827  	37,228468  	40,974590  	68,450914  	28,164527  	26,995852  	29,551732  	74,124565  	0,140725  	0,071307  	-5100,020800  	12482,164948  	-0,036461  	-0,050013  	0,424941  	0,215321  	-4,946560  	16929,158116  	21719,784693  	3,150188  	-0,047962  
28,571000  	20,916922  	38,012773  	25,330263  	-242,047242  	80,471286  	74,990623  	0,004974  	0,011843  	0,003968  	0,004094  	0,004450  	-0,000000  	-0,000000  	27,321239  	23,759228  	25,060540  	26,251816  	32,598272  	30,315754  	32,020094  	32,693545  	38,999568  	37,242345  	40,979196  	68,458891  	28,168746  	27,009580  	29,564324  	74,118145  	0,083022  	0,042068  	-3007,425660  	-27084,272151  	-0,102765  	-0,050005  	0,382441  	0,193786  	-4,453458  	16889,226318  	21907,800425  	3,177458  	-0,047956  
29,558000  	20,934569  	38,006974  	25,330294  	57,696365  	80,467974  	74,991278  	0,004969  	0,011845  	0,003960  	0,004133  	0,004499  	-0,000002  	-0,000000  	27,323309  	23,739616  	25,048763  	26,247913  	32,591745  	30,291213  	32,011101  	32,693329  	39,000529  	37,226023  	40,970747  	68,448651  	28,165680  	27,009236  	29,544284  	74,116575  	0,114127  	0,057829  	-4128,497370  	1752,842635  	-0,053835  	-0,050022  	0,421677  	0,213667  	-4,906800  	16892,818022  	21803,303305  	3,162302  	-0,047970  
30,560000  	20,953843  	38,002533  	25,330171  	1256,670793  	80,467849  	74,983542  	0,004967  	0,011860  	0,003962  	0,004104  	0,004468  	0,000002  	-0,000000  	27,323144  	23,747930  	25,043647  	26,255243  	32,603025  	30,304030  	32,015226  	32,688634  	39,001780  	37,224321  	40,971052  	68,449954  	28,155538  	27,011037  	29,554882  	74,109626  	0,090687  	0,045952  	-3276,005791  	25514,299069  	-0,018516  	-0,049978  	0,396529  	0,200924  	-4,620567  	16926,164911  	21765,794777  	3,156862  	-0,047932  
31,555000  	20,972626  	37,999386  	25,329434  	1256,670793  	80,472724  	74,980454  	0,004974  	0,011912  	0,003956  	0,004176  	0,004464  	0,000000  	-0,000000  	27,325893  	23,764904  	25,055950  	26,254041  	32,595097  	30,308671  	32,015021  	32,689226  	39,002395  	37,232216  	40,977784  	68,450729  	28,172064  	27,015839  	29,557247  	74,116495  	0,148910  	0,075454  	-5372,331429  	25522,083660  	-0,018522  	-0,049995  	0,393770  	0,199526  	-4,595079  	17037,213439  	21910,568373  	3,177859  	-0,047947  
32,557000  	20,990917  	37,997412  	25,329188  	57,696365  	80,474411  	74,984821  	0,004965  	0,011858  	0,003960  	0,004152  	0,004494  	0,000000  	-0,000000  	27,319559  	23,746578  	25,045965  	26,242113  	32,593757  	30,301400  	32,011501  	32,685357  	38,995671  	37,217965  	40,975044  	68,451541  	28,160019  	27,011001  	29,552972  	74,110289  	0,129888  	0,065815  	-4680,476948  	1752,178449  	-0,053813  	-0,049998  	0,417560  	0,211581  	-4,870329  	16921,043708  	21710,810044  	3,148887  	-0,047950  
33,558000  	20,988370  	37,997998  	25,329249  	57,696365  	80,476380  	74,991839  	0,004980  	0,011826  	0,003964  	0,004148  	0,004432  	0,000001  	-0,000000  	27,321058  	23,747463  	25,050675  	26,248624  	32,588586  	30,296735  	32,013864  	32,686699  	38,996150  	37,226435  	40,982808  	68,463246  	28,162927  	27,013552  	29,549555  	74,118524  	0,126594  	0,064146  	-4562,614955  	1751,725472  	-0,053799  	-0,049984  	0,368067  	0,186502  	-4,289105  	16852,290555  	22042,596696  	3,197008  	-0,047938  
34,556000  	20,961178  	37,996826  	25,328573  	1256,670793  	80,474942  	74,997267  	0,004964  	0,011831  	0,003963  	0,004146  	0,004441  	0,000001  	-0,000000  	27,325009  	23,761514  	25,054549  	26,256641  	32,592928  	30,298472  	32,021262  	32,696097  	38,999045  	37,231907  	40,983632  	68,460780  	28,177338  	27,020796  	29,563396  	74,124651  	0,124835  	0,063255  	-4506,117926  	25517,586321  	-0,018519  	-0,049985  	0,375748  	0,190394  	-4,373131  	16863,635161  	21688,977143  	3,145720  	-0,047938  
35,563000  	20,941290  	37,996919  	25,328573  	1256,670793  	80,472255  	74,991496  	0,004980  	0,011867  	0,003964  	0,004154  	0,004442  	0,000001  	-0,000000  	27,317371  	23,748299  	25,048027  	26,250292  	32,587936  	30,294316  	32,012512  	32,689484  	38,998500  	37,223507  	40,976910  	68,452223  	28,174197  	27,010976  	29,557880  	74,116413  	0,131436  	0,066600  	-4749,964327  	25520,014347  	-0,018520  	-0,049990  	0,375934  	0,190488  	-4,377758  	16940,337180  	22050,215616  	3,198113  	-0,047943  
36,559000  	20,935091  	38,000003  	25,329126  	57,696365  	80,473880  	74,989999  	0,004962  	0,011846  	0,003967  	0,004124  	0,004493  	-0,000000  	-0,000000  	27,314116  	23,748580  	25,045668  	26,248968  	32,588085  	30,296873  	32,015285  	32,685749  	38,996899  	37,223145  	40,976598  	68,452346  	28,178444  	27,014711  	29,561901  	74,124769  	0,107442  	0,054442  	-3884,974755  	1752,298962  	-0,053816  	-0,050002  	0,416667  	0,211128  	-4,854859  	16895,267201  	21657,505850  	3,141156  	-0,047953  
37,560000  	20,949393  	38,008270  	25,329495  	-242,047242  	80,472505  	74,987472  	0,004974  	0,011873  	0,003965  	0,004147  	0,004485  	-0,000001  	-0,000000  	27,315890  	23,760723  	25,052839  	26,248472  	32,597239  	30,303433  	32,019855  	32,692869  	38,997038  	37,223393  	40,979070  	68,455237  	28,189941  	27,026083  	29,559245  	74,131123  	0,126118  	0,063905  	-4558,649593  	-27090,281166  	-0,102789  	-0,050017  	0,410260  	0,207882  	-4,781205  	16953,123561  	21920,164399  	3,179251  	-0,047966  
38,563000  	20,965290  	38,012218  	25,329802  	357,439972  	80,469568  	74,984290  	0,004960  	0,011867  	0,003968  	0,004116  	0,004490  	-0,000002  	-0,000000  	27,315231  	23,749551  	25,047319  	26,244599  	32,598793  	30,295561  	32,010547  	32,688671  	38,994813  	37,219049  	40,974350  	68,454439  	28,187447  	27,021266  	29,556736  	74,124597  	0,100949  	0,051152  	-3646,335097  	12483,580544  	-0,036465  	-0,050019  	0,414727  	0,210145  	-4,833474  	16940,013169  	21616,798647  	3,135252  	-0,047968  
39,559000  	20,975603  	38,016475  	25,329157  	357,439972  	80,469099  	74,985632  	0,004977  	0,011836  	0,003962  	0,004140  	0,004478  	-0,000001  	-0,000000  	27,313651  	23,741629  	25,041017  	26,245280  	32,591821  	30,287375  	32,003538  	32,683422  	38,990532  	37,221219  	40,971732  	68,448761  	28,178101  	27,014902  	29,555900  	74,117222  	0,119876  	0,060742  	-4328,441555  	12483,207937  	-0,036464  	-0,050017  	0,404580  	0,205004  	-4,713665  	16874,117391  	21966,788798  	3,186013  	-0,047966  
40,558000  	20,972472  	38,015488  	25,329772  	956,927186  	80,469849  	74,991496  	0,004967  	0,011899  	0,003963  	0,004146  	0,004499  	-0,000000  	-0,000000  	27,316014  	23,744887  	25,041553  	26,246147  	32,588616  	30,291604  	32,009081  	32,685383  	38,993029  	37,221311  	40,978031  	68,449808  	28,176527  	27,016421  	29,558627  	74,118054  	0,124649  	0,063161  	-4501,356422  	22473,595286  	-0,022158  	-0,050004  	0,421340  	0,213496  	-4,904357  	17010,334731  	21767,277607  	3,157077  	-0,047955  
41,557000  	20,959306  	38,015642  	25,329372  	57,696365  	80,467568  	74,985694  	0,004967  	0,011845  	0,003956  	0,004155  	0,004437  	0,000002  	-0,000000  	27,318980  	23,748454  	25,043276  	26,247841  	32,591829  	30,298858  	32,011850  	32,689044  	38,996724  	37,221665  	40,980812  	68,454983  	28,178844  	27,017985  	29,562052  	74,121937  	0,132504  	0,067141  	-4788,763318  	1751,617254  	-0,053796  	-0,049981  	0,372145  	0,188569  	-4,334515  	16893,069873  	21766,684475  	3,156991  	-0,047935  
42,563000  	20,961086  	38,017863  	25,329741  	657,183579  	80,472193  	74,991122  	0,004974  	0,011904  	0,003959  	0,004141  	0,004440  	-0,000001  	-0,000000  	27,318831  	23,752036  	25,044423  	26,248544  	32,593279  	30,299665  	32,008439  	32,689139  	38,991736  	37,228162  	40,980744  	68,452857  	28,179125  	27,019537  	29,555976  	74,124269  	0,121150  	0,061388  	-4378,527696  	18441,347095  	-0,027564  	-0,050006  	0,374886  	0,189958  	-4,365804  	17021,560486  	21915,673544  	3,178600  	-0,047957  
43,556000  	20,931070  	38,016197  	25,330202  	657,183579  	80,475411  	74,986848  	0,004966  	0,011842  	0,003958  	0,004137  	0,004482  	0,000001  	-0,000000  	27,314488  	23,744936  	25,039348  	26,240765  	32,587828  	30,293241  	32,009505  	32,681517  	38,986781  	37,223281  	40,979639  	68,448867  	28,179608  	27,011346  	29,552903  	74,123879  	0,117423  	0,059499  	-4250,894983  	18436,266581  	-0,027556  	-0,049991  	0,407772  	0,206621  	-4,755274  	16887,221416  	21733,532642  	3,152182  	-0,047944  
44,557000  	20,903511  	38,013730  	25,329649  	57,696365  	80,472974  	74,989281  	0,004976  	0,011818  	0,003965  	0,004129  	0,004491  	-0,000000  	-0,000000  	27,313818  	23,745963  	25,039419  	26,241795  	32,585774  	30,296465  	32,013677  	32,684006  	38,990640  	37,217952  	40,976050  	68,447696  	28,187309  	26,997175  	29,556038  	74,119558  	0,111117  	0,056304  	-4028,510529  	1752,217456  	-0,053815  	-0,050000  	0,415430  	0,210502  	-4,840283  	16835,458289  	21960,165493  	3,185053  	-0,047952  
45,557000  	20,897495  	38,015549  	25,330601  	1256,670793  	80,469099  	74,993149  	0,004963  	0,011871  	0,003965  	0,004152  	0,004453  	0,000001  	-0,000000  	27,324410  	23,759038  	25,045727  	26,251497  	32,594648  	30,310837  	32,018347  	32,695573  	38,996275  	37,226861  	40,987515  	68,453232  	28,199094  	27,000796  	29,558317  	74,121457  	0,129518  	0,065628  	-4697,809917  	25517,438384  	-0,018519  	-0,049985  	0,385014  	0,195090  	-4,479565  	16949,928027  	21678,314892  	3,144174  	-0,047938  
46,556000  	20,910078  	38,016968  	25,330171  	1256,670793  	80,464912  	74,988970  	0,004980  	0,011823  	0,003963  	0,004132  	0,004471  	-0,000001  	-0,000000  	27,314499  	23,751698  	25,042494  	26,249484  	32,593966  	30,304204  	32,012219  	32,691099  	38,991554  	37,226073  	40,980675  	68,457508  	28,193331  	26,989667  	29,559562  	74,119126  	0,113622  	0,057573  	-4118,518250  	25528,194307  	-0,018526  	-0,050008  	0,399210  	0,202283  	-4,644724  	16846,140018  	22038,056413  	3,196350  	-0,047958  
47,558000  	20,930886  	38,019559  	25,330263  	1256,670793  	80,466349  	74,983261  	0,004963  	0,011849  	0,003966  	0,004131  	0,004470  	-0,000001  	-0,000000  	27,310634  	23,748107  	25,035976  	26,249322  	32,587366  	30,301038  	32,008527  	32,686111  	38,990548  	37,225010  	40,974736  	68,450431  	28,190477  	26,969662  	29,560974  	74,124082  	0,112880  	0,057197  	-4087,286183  	25527,716557  	-0,018526  	-0,050007  	0,398761  	0,202055  	-4,645543  	16902,824140  	21684,698121  	3,145100  	-0,047958  
48,556000  	20,928370  	38,020978  	25,330509  	1256,670793  	80,471224  	74,979518  	0,004974  	0,011875  	0,003964  	0,004160  	0,004510  	-0,000001  	-0,000001  	27,307936  	23,745806  	25,038966  	26,243794  	32,586011  	30,295336  	32,012074  	32,684427  	38,993244  	37,222421  	40,974982  	68,441324  	28,184287  	26,956614  	29,560342  	74,125076  	0,136578  	0,069205  	-4946,495214  	25531,213240  	-0,018529  	-0,050015  	0,429965  	0,217866  	-5,016942  	16957,796243  	21919,479473  	3,179152  	-0,047964  
49,559000  	20,936257  	38,014501  	25,331093  	1256,670793  	80,471318  	74,975213  	0,004961  	0,011845  	0,003967  	0,004141  	0,004457  	-0,000001  	-0,000000  	27,308127  	23,738682  	25,047734  	26,244037  	32,588726  	30,285336  	32,014986  	32,685355  	38,991572  	37,216696  	40,981715  	68,450966  	28,192066  	26,962191  	29,565106  	74,118065  	0,120686  	0,061152  	-4367,250927  	25529,024240  	-0,018527  	-0,050010  	0,388237  	0,196723  	-4,533679  	16893,485144  	21636,075432  	3,138047  	-0,047960  
50,557000  	20,959827  	38,006789  	25,330909  	1256,670793  	80,472380  	74,979643  	0,004975  	0,011870  	0,003961  	0,004138  	0,004476  	-0,000002  	-0,000000  	27,315363  	23,747494  	25,055343  	26,255453  	32,592818  	30,303844  	32,013904  	32,696244  	38,997443  	37,226645  	40,979418  	68,457784  	28,202344  	26,951797  	29,566680  	74,130160  	0,118351  	0,059969  	-4274,910098  	25537,344173  	-0,018533  	-0,050028  	0,403084  	0,204245  	-4,704165  	16947,404566  	21934,279525  	3,181298  	-0,047976  
51,615000  	20,983490  	38,001515  	25,331462  	357,439972  	80,471505  	74,986724  	0,004967  	0,011878  	0,003964  	0,004122  	0,004499  	0,000000  	-0,000000  	27,321076  	23,750076  	25,041926  	26,253210  	32,590562  	30,291263  	32,019546  	32,695334  	38,997185  	37,211300  	40,983412  	68,454330  	28,187914  	26,950814  	29,559636  	74,117730  	0,105581  	0,053499  	-3807,167416  	12478,385590  	-0,036450  	-0,049996  	0,421744  	0,213701  	-4,914812  	16965,126800  	21771,351858  	3,157668  	-0,047948  
52,559000  	20,998897  	38,001144  	25,332261  	956,927186  	80,472005  	74,990716  	0,004969  	0,011849  	0,003958  	0,004172  	0,004437  	0,000000  	-0,000000  	27,324633  	23,754532  	25,050708  	26,260213  	32,596863  	30,307149  	32,027047  	32,693501  	38,995800  	37,220420  	40,995578  	68,447186  	28,188524  	26,944131  	29,569726  	74,122405  	0,145646  	0,073800  	-5247,013019  	22469,649828  	-0,022154  	-0,049994  	0,372378  	0,188686  	-4,336763  	16901,211871  	21799,723331  	3,161783  	-0,047947  
53,556000  	21,014488  	38,000466  	25,331923  	1256,670793  	80,473255  	74,990748  	0,004973  	0,011840  	0,003959  	0,004155  	0,004487  	-0,000000  	-0,000000  	27,321168  	23,740202  	25,040741  	26,245650  	32,588112  	30,286021  	32,014890  	32,687270  	38,984141  	37,220600  	40,983446  	68,457175  	28,186136  	26,922861  	29,564356  	74,124781  	0,132207  	0,066990  	-4758,288982  	25525,453459  	-0,018524  	-0,050002  	0,412152  	0,208840  	-4,801043  	16882,953393  	21898,366804  	3,176090  	-0,047953  
54,560000  	21,008411  	38,004291  	25,333336  	1256,670793  	80,473317  	74,994116  	0,004963  	0,011847  	0,003959  	0,004111  	0,004497  	0,000001  	-0,000000  	27,324827  	23,750968  	25,046978  	26,247456  	32,587929  	30,282179  	32,007095  	32,679173  	38,999914  	37,228517  	40,979134  	68,450348  	28,181773  	26,936838  	29,557574  	74,116669  	0,096529  	0,048912  	-3476,207807  	25517,678766  	-0,018519  	-0,049985  	0,419979  	0,212807  	-4,889279  	16896,820752  	21679,282262  	3,144314  	-0,047939  
55,555000  	21,005004  	38,004198  	25,333336  	357,439972  	80,473192  	74,995239  	0,004980  	0,011809  	0,003961  	0,004143  	0,004446  	0,000001  	-0,000000  	27,323935  	23,743570  	25,033033  	26,242669  	32,588987  	30,294069  	32,005519  	32,680112  	39,003096  	37,223614  	40,986364  	68,455510  	28,188243  	26,929676  	29,569639  	74,114981  	0,122524  	0,062084  	-4413,224451  	12477,377245  	-0,036447  	-0,049992  	0,379537  	0,192314  	-4,417456  	16815,770063  	22046,967513  	3,197642  	-0,047945  
56,563000  	20,982661  	38,006357  	25,334381  	956,927186  	80,473380  	74,992182  	0,004966  	0,011876  	0,003964  	0,004120  	0,004466  	0,000001  	-0,000000  	27,322786  	23,745281  	25,045394  	26,245284  	32,593310  	30,298100  	32,011415  	32,684452  	38,987887  	37,214729  	40,986651  	68,457995  	28,195138  	26,932693  	29,563075  	74,122190  	0,103931  	0,052662  	-3748,904884  	22465,874277  	-0,022150  	-0,049985  	0,395566  	0,200436  	-4,606748  	16960,880708  	21733,885697  	3,152234  	-0,047939  
57,557000  	20,953536  	38,012126  	25,336133  	57,696365  	80,471818  	74,986724  	0,004976  	0,011870  	0,003960  	0,004161  	0,004435  	0,000000  	-0,000000  	27,318161  	23,753913  	25,050609  	26,244218  	32,592607  	30,297509  	32,014316  	32,682210  	38,994647  	37,225139  	40,987855  	68,462325  	28,178143  	26,933111  	29,567930  	74,120664  	0,137210  	0,069525  	-4959,486132  	1751,733532  	-0,053811  	-0,049997  	0,370788  	0,187881  	-4,321241  	16946,694998  	21964,098522  	3,185623  	-0,047949  
58,558000  	20,967531  	38,018356  	25,336071  	657,183579  	80,470755  	74,979674  	0,004962  	0,011820  	0,003962  	0,004168  	0,004447  	-0,000000  	-0,000000  	27,310323  	23,739251  	25,038528  	26,237864  	32,578816  	30,289069  	31,997494  	32,677287  	38,981228  	37,215858  	40,972670  	68,445216  	28,163366  	26,917470  	29,559714  	74,101776  	0,142823  	0,072369  	-5160,003465  	18439,374015  	-0,027561  	-0,050001  	0,379971  	0,192534  	-4,433098  	16840,043248  	21659,334673  	3,141421  	-0,047952  
59,558000  	20,987787  	38,025112  	25,336901  	657,183579  	80,469943  	74,982045  	0,004979  	0,011881  	0,003960  	0,004114  	0,004466  	0,000000  	-0,000000  	27,315660  	23,741770  	25,047989  	26,245821  	32,583455  	30,293372  	32,005117  	32,684390  	38,984911  	37,218726  	40,982564  	68,458035  	28,159579  	26,924868  	29,561674  	74,120574  	0,099145  	0,050237  	-3579,132728  	18437,244475  	-0,027558  	-0,049995  	0,395560  	0,200433  	-4,612299  	16971,909086  	22012,113956  	3,192587  	-0,047947  
60,557000  	20,981526  	38,026222  	25,338376  	57,696365  	80,467693  	74,984602  	0,004962  	0,011839  	0,003967  	0,004132  	0,004480  	-0,000000  	-0,000000  	27,308948  	23,735036  	25,036415  	26,239237  	32,578284  	30,284806  	32,004759  	32,675812  	38,984688  	37,211881  	40,985035  	68,447627  	28,152420  	26,928200  	29,553036  	74,116455  	0,113336  	0,057428  	-4093,197752  	1751,811010  	-0,053817  	-0,050003  	0,406487  	0,205970  	-4,735558  	16881,117570  	21647,069554  	3,139642  	-0,047954  
61,559000  	20,954119  	38,028320  	25,338130  	1256,670793  	80,467006  	74,987784  	0,004976  	0,011862  	0,003962  	0,004165  	0,004503  	-0,000000  	-0,000000  	27,314458  	23,746752  	25,043711  	26,246967  	32,585116  	30,291686  	32,009612  	32,681453  	38,991908  	37,221091  	40,983810  	68,451623  	28,162542  	26,938094  	29,562235  	74,121685  	0,140371  	0,071127  	-5078,385353  	25525,656066  	-0,018525  	-0,050003  	0,424841  	0,215270  	-4,945895  	16930,140758  	21946,459911  	3,183065  	-0,047954  
62,555000  	20,955838  	38,031404  	25,339851  	1256,670793  	80,470255  	74,988782  	0,004963  	0,011886  	0,003965  	0,004091  	0,004503  	-0,000002  	-0,000000  	27,315638  	23,749340  	25,044219  	26,248507  	32,587526  	30,296021  	32,012693  	32,684815  	38,996781  	37,223783  	40,977605  	68,453248  	28,166198  	26,946616  	29,564416  	74,118081  	0,080287  	0,040682  	-2904,877510  	25534,749670  	-0,018531  	-0,050023  	0,424594  	0,215145  	-4,945051  	16981,117205  	21671,853992  	3,143237  	-0,047971  
63,562000  	20,952707  	38,031219  	25,341695  	1256,670793  	80,470130  	74,975931  	0,004968  	0,011849  	0,003962  	0,004133  	0,004478  	0,000000  	-0,000000  	27,307262  	23,744955  	25,040603  	26,247217  	32,587288  	30,286568  	32,010212  	32,684935  	38,989469  	37,220920  	40,976950  	68,448358  	28,165121  	26,949434  	29,561053  	74,107690  	0,114680  	0,058109  	-4149,965828  	25522,518201  	-0,018522  	-0,049997  	0,405229  	0,205333  	-4,730461  	16901,596721  	21784,513736  	3,159577  	-0,047948  
64,557000  	20,933065  	38,026160  	25,342309  	1256,670793  	80,468630  	74,984415  	0,004973  	0,011841  	0,003962  	0,004162  	0,004475  	-0,000001  	-0,000000  	27,309510  	23,746823  	25,049033  	26,254273  	32,585289  	30,289948  	32,017381  	32,688743  	38,991634  	37,221647  	40,987476  	68,451115  	28,174116  	26,952011  	29,559986  	74,112665  	0,137591  	0,069718  	-4983,314856  	25528,275734  	-0,018527  	-0,050009  	0,402416  	0,203907  	-4,689094  	16884,141903  	21898,578637  	3,176120  	-0,047959  
65,561000  	20,926559  	38,025513  	25,342648  	-242,047242  	80,469162  	74,984977  	0,004964  	0,011850  	0,003961  	0,004190  	0,004458  	-0,000000  	-0,000000  	27,311706  	23,745940  	25,051785  	26,251226  	32,585466  	30,291393  	32,017110  	32,686410  	38,995580  	37,221832  	40,988140  	68,452540  	28,182920  	26,952804  	29,559454  	74,112935  	0,160918  	0,081538  	-5830,192794  	-27084,737053  	-0,102762  	-0,050005  	0,389232  	0,197227  	-4,535437  	16904,944357  	21707,321864  	3,148381  	-0,047956  
66,556000  	20,920912  	38,028042  	25,343938  	357,439972  	80,469599  	74,982668  	0,004978  	0,011896  	0,003958  	0,004133  	0,004471  	0,000001  	-0,000000  	27,311178  	23,744968  	25,046318  	26,245102  	32,587073  	30,289215  	32,008666  	32,681641  	38,994008  	37,221571  	40,982440  	68,450041  	28,183665  	26,945924  	29,552150  	74,106678  	0,114686  	0,058112  	-4157,142032  	12476,915597  	-0,036447  	-0,049992  	0,399517  	0,202438  	-4,657616  	17003,860891  	21988,247461  	3,189126  	-0,047945  
67,557000  	20,890529  	38,028782  	25,344215  	357,439972  	80,469630  	74,981483  	0,004966  	0,011858  	0,003962  	0,004130  	0,004414  	0,000001  	-0,000000  	27,317892  	23,746282  	25,042925  	26,246790  	32,585014  	30,297186  	32,005598  	32,682239  	38,994174  	37,221810  	40,979664  	68,450996  	28,191214  	26,937439  	29,552919  	74,107964  	0,112189  	0,056847  	-4074,063721  	12477,129327  	-0,036447  	-0,049993  	0,353820  	0,179283  	-4,125788  	16920,841379  	21733,038365  	3,152111  	-0,047946  
68,557000  	20,866345  	38,027610  	25,345813  	-242,047242  	80,469505  	74,980610  	0,004979  	0,011846  	0,003960  	0,004161  	0,004444  	0,000000  	-0,000000  	27,324503  	23,748443  	25,044150  	26,250391  	32,587237  	30,304310  	32,009778  	32,683693  	38,996567  	37,223514  	40,977943  	68,452919  	28,197862  	26,935936  	29,561873  	74,108668  	0,137045  	0,069442  	-4983,352549  	-27081,946818  	-0,102751  	-0,050000  	0,377604  	0,191335  	-4,403731  	16895,706525  	22028,135577  	3,194911  	-0,047951  
69,557000  	20,920697  	38,024772  	25,346089  	1256,670793  	80,471193  	74,989157  	0,004963  	0,011839  	0,003965  	0,004100  	0,004461  	0,000002  	-0,000000  	27,323151  	23,750440  	25,043503  	26,252841  	32,593877  	30,300566  	32,016928  	32,684067  	38,997048  	37,227498  	40,980140  	68,451751  	28,190012  	26,937774  	29,560786  	74,109273  	0,087613  	0,044394  	-3175,225024  	25513,269536  	-0,018516  	-0,049977  	0,391425  	0,198338  	-4,559211  	16879,407673  	21668,584706  	3,142763  	-0,047931  
70,560000  	20,989260  	38,022305  	25,347134  	1256,670793  	80,472193  	74,988158  	0,004977  	0,011902  	0,003960  	0,004172  	0,004373  	0,000002  	-0,000000  	27,316240  	23,748457  	25,035381  	26,248415  	32,588378  	30,294630  	32,015401  	32,684797  	38,991071  	37,226109  	40,979000  	68,450986  	28,188490  	26,931904  	29,564337  	74,110943  	0,145884  	0,073921  	-5265,102961  	25509,794673  	-0,018513  	-0,049969  	0,321619  	0,162967  	-3,747501  	17015,991470  	21968,885943  	3,186318  	-0,047925  
71,558000  	21,014672  	38,016752  	25,347411  	1256,670793  	80,468068  	74,982512  	0,004961  	0,011881  	0,003965  	0,004102  	0,004497  	-0,000001  	-0,000000  	27,315884  	23,755212  	25,043089  	26,249036  	32,583784  	30,305759  	32,016366  	32,687998  	38,991339  	37,223158  	40,982042  	68,457135  	28,193528  	26,915793  	29,568633  	74,106957  	0,089292  	0,045245  	-3216,766535  	25527,876795  	-0,018526  	-0,050009  	0,419812  	0,212722  	-4,892990  	16970,980209  	21637,042802  	3,138188  	-0,047959  
72,560000  	21,018417  	38,011077  	25,347656  	57,696365  	80,468380  	74,983635  	0,004977  	0,011858  	0,003965  	0,004153  	0,004458  	0,000001  	-0,000000  	27,320812  	23,751677  	25,053880  	26,247817  	32,600270  	30,305661  	32,012693  	32,689974  	38,992758  	37,229723  	40,988975  	68,458377  	28,199495  	26,909886  	29,573600  	74,110722  	0,130546  	0,066148  	-4700,334877  	1750,860928  	-0,053803  	-0,049990  	0,388766  	0,196990  	-4,530469  	16922,197553  	21966,901776  	3,186030  	-0,047943  
73,555000  	21,027962  	38,002533  	25,347103  	-242,047242  	80,468005  	74,981577  	0,004966  	0,011857  	0,003964  	0,004155  	0,004472  	-0,000001  	-0,000000  	27,318291  	23,746044  	25,050096  	26,243060  	32,583294  	30,295959  	32,007351  	32,685566  	38,990187  	37,230077  	40,984066  	68,449368  	28,196376  	26,909950  	29,570081  	74,116486  	0,132607  	0,067193  	-4769,469848  	-27090,965477  	-0,102784  	-0,050018  	0,399901  	0,202633  	-4,661668  	16918,917833  	21735,650970  	3,152490  	-0,047967  
74,558000  	21,036494  	37,995808  	25,347902  	357,439972  	80,468630  	74,985382  	0,004967  	0,011846  	0,003968  	0,004097  	0,004500  	-0,000002  	-0,000000  	27,319103  	23,751145  	25,044882  	26,247953  	32,588047  	30,295740  	32,010836  	32,684054  	38,998956  	37,226418  	40,986600  	68,455088  	28,207440  	26,921027  	29,572054  	74,116331  	0,085211  	0,043177  	-3062,027458  	12483,338096  	-0,036466  	-0,050022  	0,422248  	0,213956  	-4,919317  	16894,964414  	21770,850520  	3,157595  	-0,047970  
75,561000  	21,016514  	37,997844  	25,348548  	357,439972  	80,464381  	74,987597  	0,004971  	0,011890  	0,003961  	0,004127  	0,004425  	-0,000001  	-0,000000  	27,319103  	23,750979  	25,043446  	26,249310  	32,596075  	30,305049  	32,009104  	32,682298  	38,997894  	37,222617  	40,981098  	68,450716  	28,204743  	26,922195  	29,563463  	74,111560  	0,109587  	0,055529  	-3943,095489  	12481,210551  	-0,036460  	-0,050013  	0,362492  	0,183677  	-4,218158  	16990,057202  	21853,175807  	3,169535  	-0,047962  
76,557000  	20,996012  	38,005062  	25,349900  	-242,047242  	80,464506  	74,992026  	0,004968  	0,011799  	0,003965  	0,004142  	0,004478  	-0,000001  	-0,000000  	27,307278  	23,743752  	25,043666  	26,241531  	32,580024  	30,288061  	32,008586  	32,679274  	38,989860  	37,217745  	40,972127  	68,442631  	28,200596  	26,926166  	29,561121  	74,113181  	0,121733  	0,061683  	-4387,262220  	-27088,169586  	-0,102773  	-0,050012  	0,404747  	0,205088  	-4,706167  	16794,262285  	21785,721183  	3,159752  	-0,047962  
77,560000  	21,003316  	38,014439  	25,349623  	57,696365  	80,461444  	74,991902  	0,004978  	0,011855  	0,003959  	0,004136  	0,004450  	-0,000001  	-0,000000  	27,313967  	23,752005  	25,057851  	26,239222  	32,599330  	30,295108  	32,014476  	32,684362  	38,992351  	37,228832  	40,981934  	68,452149  	28,204614  	26,942631  	29,563049  	74,124931  	0,117205  	0,059388  	-4224,577221  	1751,489541  	-0,053826  	-0,050013  	0,382956  	0,194046  	-4,450399  	16915,826293  	21990,853004  	3,189504  	-0,047963  
78,559000  	21,003071  	38,022336  	25,348824  	1256,670793  	80,457069  	74,990217  	0,004964  	0,011901  	0,003960  	0,004168  	0,004437  	-0,000000  	-0,000000  	27,322671  	23,751870  	25,048036  	26,251094  	32,588486  	30,297618  	32,014782  	32,686269  	38,992935  	37,224164  	40,972558  	68,449360  	28,200645  	26,952583  	29,569889  	74,106678  	0,142634  	0,072274  	-5143,645332  	25525,440407  	-0,018525  	-0,050003  	0,372745  	0,188872  	-4,329604  	17014,532008  	21701,425851  	3,147526  	-0,047954  
79,558000  	20,981066  	38,028906  	25,348824  	1256,670793  	80,454538  	74,986224  	0,004976  	0,011887  	0,003960  	0,004159  	0,004477  	-0,000000  	-0,000000  	27,297894  	23,738558  	25,044934  	26,243848  	32,577390  	30,285763  	32,006842  	32,684792  	38,990101  	37,214940  	40,973150  	68,440316  	28,189057  	26,960550  	29,554411  	74,100101  	0,135396  	0,068606  	-4890,822620  	25524,208669  	-0,018524  	-0,050001  	0,404190  	0,204806  	-4,696112  	16984,359431  	21963,957300  	3,185603  	-0,047952  
80,558000  	20,963940  	38,034150  	25,349869  	1256,670793  	80,457663  	74,983043  	0,004965  	0,011847  	0,003960  	0,004148  	0,004467  	-0,000000  	-0,000000  	27,317976  	23,740971  	25,044860  	26,242668  	32,589847  	30,288162  	32,004178  	32,676364  	38,983471  	37,217493  	40,966627  	68,444851  	28,193936  	26,964551  	29,557300  	74,110003  	0,126161  	0,063927  	-4563,210315  	25524,214068  	-0,018524  	-0,050001  	0,395847  	0,200579  	-4,604479  	16898,488203  	21714,714828  	3,149453  	-0,047952  
81,556000  	20,974989  	38,039424  	25,348701  	1256,670793  	80,459881  	74,980423  	0,004979  	0,011858  	0,003963  	0,004156  	0,004466  	0,000001  	-0,000000  	27,316376  	23,750100  	25,034967  	26,239947  	32,582022  	30,293434  	32,005858  	32,684102  	38,986628  	37,210340  	40,974056  	68,446448  	28,183313  	26,961716  	29,554426  	74,110381  	0,132904  	0,067343  	-4805,479258  	25518,384788  	-0,018519  	-0,049988  	0,395584  	0,200445  	-4,605478  	16921,896181  	22010,398111  	3,192338  	-0,047941  
82,557000  	20,995183  	38,042941  	25,349316  	1256,670793  	80,459194  	74,983854  	0,004960  	0,011869  	0,003963  	0,004116  	0,004471  	0,000001  	-0,000000  	27,326312  	23,757408  	25,051090  	26,257084  	32,595338  	30,305618  	32,023576  	32,697838  	38,999082  	37,226499  	40,986784  	68,461010  	28,197609  	26,979344  	29,564128  	74,114768  	0,101008  	0,051181  	-3648,615415  	25519,258311  	-0,018520  	-0,049990  	0,399516  	0,202438  	-4,647763  	16944,449564  	21620,964692  	3,135856  	-0,047943  
83,557000  	21,010836  	38,045624  	25,349961  	1256,670793  	80,459475  	74,987784  	0,004976  	0,011937  	0,003968  	0,004151  	0,004458  	0,000002  	-0,000000  	27,326946  	23,747265  	25,046969  	26,248765  	32,593554  	30,298181  	32,015986  	32,691685  	38,999358  	37,225298  	40,991389  	68,451414  	28,186262  	26,967183  	29,565199  	74,110762  	0,129220  	0,065477  	-4664,158120  	25514,231956  	-0,018516  	-0,049979  	0,389177  	0,197199  	-4,524476  	17092,282462  	21945,619641  	3,182943  	-0,047933  
84,558000  	21,026120  	38,043650  	25,350391  	57,696365  	80,460163  	74,982606  	0,004964  	0,011833  	0,003958  	0,004091  	0,004448  	0,000001  	-0,000000  	27,318087  	23,750459  	25,043591  	26,248450  	32,598774  	30,296031  	32,008890  	32,687305  	38,994603  	37,218309  	40,983848  	68,450900  	28,198134  	26,964296  	29,560629  	74,114974  	0,080339  	0,040708  	-2896,866261  	1750,473434  	-0,053796  	-0,049982  	0,381238  	0,193176  	-4,436928  	16867,578466  	21689,217220  	3,145755  	-0,047936  
85,560000  	21,044903  	38,041152  	25,350791  	57,696365  	80,461444  	74,982731  	0,004973  	0,011833  	0,003963  	0,004159  	0,004499  	-0,000000  	-0,000000  	27,320205  	23,748195  	25,051912  	26,251076  	32,594605  	30,302650  	32,022143  	32,687726  	38,999110  	37,220115  	40,985296  	68,455084  	28,208751  	26,960265  	29,574007  	74,119156  	0,135345  	0,068580  	-4874,150849  	1751,083163  	-0,053815  	-0,050003  	0,421242  	0,213446  	-4,903529  	16867,690243  	21881,321325  	3,173617  	-0,047954  
86,557000  	21,066326  	38,034921  	25,352020  	1256,670793  	80,468505  	74,978301  	0,004970  	0,011872  	0,003960  	0,004157  	0,004428  	0,000001  	-0,000000  	27,322922  	23,754746  	25,048078  	26,252776  	32,594976  	30,304644  	32,021164  	32,690735  	39,001555  	37,224971  	40,986195  	68,448017  	28,206625  	26,947693  	29,572269  	74,112147  	0,133635  	0,067714  	-4804,724604  	25516,148385  	-0,018518  	-0,049983  	0,365037  	0,184967  	-4,258179  	16952,551237  	21819,416720  	3,164639  	-0,047937  
87,556000  	21,068352  	38,033718  	25,352112  	1256,670793  	80,463818  	74,988283  	0,004968  	0,011836  	0,003963  	0,004135  	0,004492  	-0,000001  	-0,000000  	27,322149  	23,748890  	25,046913  	26,244866  	32,590054  	30,297051  	32,008662  	32,690677  	38,990825  	37,220399  	40,976202  	68,438236  	28,208666  	26,937635  	29,557606  	74,104171  	0,115730  	0,058641  	-4160,168896  	25529,006641  	-0,018527  	-0,050012  	0,416042  	0,210811  	-4,840193  	16873,471493  	21774,042134  	3,158058  	-0,047961  
88,559000  	21,047911  	38,032237  	25,352665  	1256,670793  	80,462319  	74,992026  	0,004976  	0,011859  	0,003967  	0,004083  	0,004496  	-0,000002  	-0,000000  	27,331658  	23,749415  	25,050160  	26,247815  	32,596649  	30,301833  	32,017103  	32,693461  	38,994030  	37,226674  	40,981798  	68,446256  	28,213739  	26,930337  	29,561203  	74,106243  	0,073581  	0,037284  	-2648,012872  	25533,433421  	-0,018530  	-0,050021  	0,418864  	0,212241  	-4,868363  	16924,254099  	21959,925416  	3,185018  	-0,047970  
89,558000  	21,012800  	38,035723  	25,354263  	1256,670793  	80,462944  	74,985445  	0,004964  	0,011852  	0,003961  	0,004141  	0,004463  	-0,000001  	-0,000000  	27,325569  	23,748543  	25,051012  	26,248307  	32,597028  	30,301655  	32,012718  	32,694582  	38,994735  	37,225328  	40,981219  	68,446788  	28,219252  	26,923644  	29,563071  	74,114668  	0,121032  	0,061328  	-4365,555248  	25530,669580  	-0,018528  	-0,050015  	0,393334  	0,199305  	-4,577657  	16908,221247  	21706,700487  	3,148291  	-0,047965  
90,557000  	21,001628  	38,038499  	25,354878  	657,183579  	80,462381  	74,985569  	0,004977  	0,011826  	0,003964  	0,004135  	0,004461  	-0,000002  	-0,000000  	27,319159  	23,745973  	25,049135  	26,244846  	32,588734  	30,299211  	32,014585  	32,693652  	38,991752  	37,232063  	40,979760  	68,447714  	28,221657  	26,916511  	29,562074  	74,106715  	0,116240  	0,058899  	-4196,138577  	18446,234681  	-0,027572  	-0,050024  	0,391272  	0,198261  	-4,553089  	16851,698423  	21974,104091  	3,187074  	-0,047972  
91,564000  	21,011020  	38,045809  	25,354509  	-242,047242  	80,466349  	74,981764  	0,004963  	0,011834  	0,003968  	0,004111  	0,004412  	-0,000000  	-0,000000  	27,320024  	23,749243  	25,048194  	26,246865  	32,586764  	30,298972  	32,018306  	32,692095  	38,991488  	37,229108  	40,979018  	68,446814  	28,215691  	26,900867  	29,563456  	74,099935  	0,096642  	0,048969  	-3488,260190  	-27085,232764  	-0,102760  	-0,050006  	0,352281  	0,178503  	-4,105179  	16870,214411  	21683,511857  	3,144928  	-0,047957  
92,558000  	21,011020  	38,052596  	25,355861  	956,927186  	80,467412  	74,981826  	0,004978  	0,011872  	0,003958  	0,004154  	0,004450  	-0,000000  	-0,000000  	27,322849  	23,754627  	25,053151  	26,248167  	32,590147  	30,299806  	32,017710  	32,692400  	38,991354  	37,219123  	40,976122  	68,444390  	28,215630  	26,887876  	29,566041  	74,103743  	0,131591  	0,066678  	-4751,608333  	22472,875428  	-0,022157  	-0,050005  	0,382881  	0,194008  	-4,462571  	16951,020324  	22002,991024  	3,191264  	-0,047955  
93,566000  	20,984257  	38,058395  	25,356875  	57,696365  	80,466724  	74,988970  	0,004961  	0,011826  	0,003962  	0,004132  	0,004481  	-0,000000  	-0,000000  	27,321690  	23,760022  	25,052201  	26,252673  	32,588773  	30,301845  	32,021496  	32,691109  	38,992721  	37,221139  	40,979583  	68,444101  	28,223005  	26,880284  	29,567719  	74,104957  	0,113838  	0,057682  	-4118,423528  	1750,744312  	-0,053815  	-0,050003  	0,407490  	0,206478  	-4,742626  	16851,746529  	21632,996795  	3,137601  	-0,047954  
94,556000  	20,969464  	38,062652  	25,357244  	1256,670793  	80,468599  	74,983230  	0,004974  	0,011864  	0,003960  	0,004158  	0,004458  	0,000000  	-0,000000  	27,317398  	23,758819  	25,046791  	26,258144  	32,587707  	30,302412  	32,021310  	32,690025  	38,995759  	37,225076  	40,986198  	68,445065  	28,221438  	26,867442  	29,565346  	74,100014  	0,134359  	0,068081  	-4866,289748  	25522,031271  	-0,018522  	-0,049997  	0,389136  	0,197178  	-4,535308  	16933,252814  	21921,004669  	3,179373  	-0,047948  
95,557000  	20,948656  	38,063484  	25,357429  	357,439972  	80,472193  	74,982169  	0,004962  	0,011862  	0,003958  	0,004149  	0,004499  	-0,000001  	-0,000000  	27,319500  	23,757131  	25,055221  	26,261726  	32,593632  	30,301644  	32,022001  	32,694218  	38,999927  	37,231495  	40,988401  	68,453253  	28,217347  	26,862904  	29,565119  	74,097510  	0,127755  	0,064734  	-4632,960731  	12479,397323  	-0,036456  	-0,050007  	0,421801  	0,213730  	-4,920181  	16930,360774  	21657,117490  	3,141099  	-0,047957  
96,558000  	20,939019  	38,062127  	25,357306  	-242,047242  	80,478692  	74,983355  	0,004974  	0,011827  	0,003961  	0,004156  	0,004460  	0,000000  	-0,000000  	27,322788  	23,765455  	25,063996  	26,270786  	32,596188  	30,301030  	32,024027  	32,694795  	39,003780  	37,234041  	40,988477  	68,454403  	28,220074  	26,863424  	29,567401  	74,104603  	0,133287  	0,067537  	-4835,905591  	-27080,187854  	-0,102739  	-0,049995  	0,390194  	0,197714  	-4,555899  	16854,752468  	21914,211898  	3,178388  	-0,047947  
97,556000  	20,960472  	38,061449  	25,358166  	-242,047242  	80,482160  	74,988533  	0,004970  	0,011871  	0,003959  	0,004154  	0,004463  	-0,000000  	-0,000000  	27,328594  	23,760243  	25,062753  	26,262855  	32,596338  	30,303892  	32,022751  	32,697006  	38,999148  	37,229264  	40,991227  	68,447324  	28,217613  	26,848830  	29,562876  	74,104168  	0,131020  	0,066389  	-4747,511016  	-27083,323329  	-0,102751  	-0,050002  	0,393217  	0,199246  	-4,589765  	16949,372682  	21833,185852  	3,166636  	-0,047953  
98,559000  	20,986498  	38,057192  	25,357797  	357,439972  	80,480473  	74,988533  	0,004967  	0,011854  	0,003963  	0,004117  	0,004449  	0,000001  	-0,000000  	27,325040  	23,761609  	25,059462  	26,261779  	32,603238  	30,307288  	32,027846  	32,702532  	38,993878  	37,234110  	40,991940  	68,450014  	28,208842  	26,847452  	29,561006  	74,106535  	0,101195  	0,051276  	-3660,301711  	12475,649885  	-0,036445  	-0,049990  	0,381755  	0,193438  	-4,454609  	16912,691599  	21762,758507  	3,156421  	-0,047943  
99,559000  	21,008687  	38,051639  	25,358258  	1256,670793  	80,475317  	74,986380  	0,004977  	0,011849  	0,003962  	0,004157  	0,004476  	0,000001  	-0,000000  	27,326508  	23,769205  	25,058055  	26,263820  	32,611761  	30,317509  	32,030059  	32,698689  	39,005010  	37,241639  	40,991415  	68,460683  	28,212092  	26,851591  	29,569700  	74,106537  	0,134135  	0,067967  	-4843,866383  	25516,419213  	-0,018518  	-0,049984  	0,403010  	0,204208  	-4,700061  	16902,272332  	21985,479512  	3,188724  	-0,047938  
100,558000  	21,008381  	38,048246  	25,358811  	1256,670793  	80,473630  	74,990685  	0,004964  	0,011858  	0,003959  	0,004151  	0,004438  	0,000001  	-0,000000  	27,334633  	23,759624  	25,051061  	26,258787  	32,600566  	30,316689  	32,023117  	32,697937  	39,003024  	37,225494  	40,980379  	68,451494  	28,202506  	26,847740  	29,562993  	74,103977  	0,129267  	0,065501  	-4667,247016  	25518,591858  	-0,018520  	-0,049989  	0,372893  	0,188947  	-4,344074  	16921,750447  	21705,090558  	3,148057  	-0,047942  
101,557000  	21,005004  	38,040195  	25,358904  	-242,047242  	80,475442  	74,987597  	0,004979  	0,011854  	0,003965  	0,004123  	0,004423  	0,000000  	-0,000000  	27,333380  	23,765210  	25,062797  	26,266584  	32,607273  	30,325602  	32,029706  	32,707445  	39,012150  	37,243473  	40,991357  	68,454195  	28,194905  	26,845987  	29,572048  	74,119216  	0,106020  	0,053721  	-3826,824549  	-27079,719204  	-0,102737  	-0,049994  	0,361207  	0,183026  	-4,211694  	16912,487147  	22015,397365  	3,193063  	-0,047947  
102,562000  	21,014150  	38,035137  	25,360686  	357,439972  	80,478442  	74,990966  	0,004964  	0,011848  	0,003963  	0,004085  	0,004482  	0,000001  	-0,000000  	27,339987  	23,772025  	25,072495  	26,271996  	32,611498  	30,325471  	32,037054  	32,702675  	39,010431  	37,241532  	40,997298  	68,458705  	28,206381  	26,843054  	29,575241  	74,125495  	0,075452  	0,038232  	-2721,191082  	12475,032371  	-0,036443  	-0,049988  	0,407708  	0,206589  	-4,753585  	16900,184659  	21689,464359  	3,145791  	-0,047941  
103,559000  	21,001260  	38,033471  	25,361424  	1256,670793  	80,479348  	74,991559  	0,004977  	0,011867  	0,003965  	0,004129  	0,004458  	-0,000001  	-0,000000  	27,333484  	23,762785  	25,059123  	26,263228  	32,612474  	30,311256  	32,027454  	32,688749  	38,994445  	37,236092  	40,993492  	68,442131  	28,182467  	26,827528  	29,564853  	74,101842  	0,111087  	0,056289  	-4009,049108  	25529,701125  	-0,018528  	-0,050014  	0,388721  	0,196968  	-4,532469  	16939,962940  	21982,464426  	3,188287  	-0,047963  
104,556000  	20,979715  	38,034211  	25,362591  	1256,670793  	80,474099  	74,989500  	0,004962  	0,011866  	0,003967  	0,004158  	0,004461  	-0,000001  	-0,000000  	27,332146  	23,757452  	25,055029  	26,262455  	32,606650  	30,306837  	32,016883  	32,694356  	38,998927  	37,222412  	40,982137  	68,439542  	28,192171  	26,825749  	29,558670  	74,092167  	0,134472  	0,068138  	-4859,331959  	25527,108264  	-0,018526  	-0,050008  	0,391286  	0,198267  	-4,559720  	16937,685671  	21650,769567  	3,140179  	-0,047958  
105,558000  	20,943776  	38,038098  	25,363206  	1256,670793  	80,466537  	74,991559  	0,004979  	0,011864  	0,003963  	0,004111  	0,004463  	0,000000  	-0,000000  	27,346879  	23,768538  	25,065931  	26,268507  	32,617704  	30,316479  	32,026968  	32,710218  	39,013103  	37,237067  	41,000055  	68,453388  	28,198114  	26,820648  	29,579533  	74,108913  	0,096530  	0,048912  	-3496,408087  	25523,232460  	-0,018523  	-0,050000  	0,392923  	0,199097  	-4,570766  	16933,315777  	22027,302368  	3,194790  	-0,047951  
106,558000  	20,942365  	38,037975  	25,364312  	1256,670793  	80,462350  	74,990935  	0,004964  	0,011849  	0,003966  	0,004135  	0,004500  	-0,000002  	-0,000000  	27,338644  	23,767149  	25,059831  	26,263962  	32,607030  	30,320826  	32,029328  	32,712735  	39,003366  	37,226658  	41,003095  	68,439832  	28,192138  	26,828811  	29,569376  	74,100091  	0,116193  	0,058876  	-4208,921963  	25533,571804  	-0,018531  	-0,050022  	0,422158  	0,213911  	-4,907661  	16902,298508  	21696,355986  	3,146790  	-0,047971  
107,560000  	20,965014  	38,043064  	25,364865  	1256,670793  	80,462037  	74,990685  	0,004975  	0,011831  	0,003964  	0,004111  	0,004487  	-0,000000  	-0,000000  	27,330747  	23,768434  	25,072487  	26,266919  	32,627199  	30,320020  	32,043619  	32,709225  	39,016333  	37,248638  	41,000748  	68,448983  	28,195310  	26,814358  	29,571102  	74,105728  	0,096888  	0,049094  	-3506,014505  	25525,858936  	-0,018525  	-0,050006  	0,412009  	0,208768  	-4,789614  	16862,405620  	21929,075499  	3,180544  	-0,047956  
108,558000  	20,987296  	38,047568  	25,365357  	57,696365  	80,466099  	74,986443  	0,004963  	0,011833  	0,003961  	0,004163  	0,004464  	-0,000001  	-0,000000  	27,333224  	23,763567  	25,060079  	26,263814  	32,614953  	30,316597  	32,034262  	32,698299  	39,010150  	37,236408  	40,996081  	68,446231  	28,191305  	26,808764  	29,570630  	74,095961  	0,138955  	0,070409  	-5023,031022  	1750,540037  	-0,053822  	-0,050012  	0,393627  	0,199454  	-4,582870  	16868,445795  	21678,576153  	3,144212  	-0,047961  
109,558000  	21,013322  	38,049789  	25,366740  	1256,670793  	80,467037  	74,984322  	0,004974  	0,011838  	0,003966  	0,004125  	0,004488  	0,000000  	-0,000000  	27,341899  	23,767284  	25,068546  	26,261462  	32,612313  	30,315884  	32,038334  	32,706705  	39,015311  	37,242945  	41,001412  	68,443503  	28,195761  	26,807810  	29,577891  	74,104162  	0,108281  	0,054867  	-3908,733290  	25522,461926  	-0,018523  	-0,049998  	0,412424  	0,208978  	-4,804394  	16877,434606  	21911,797004  	3,178037  	-0,047950  
110,557000  	21,015593  	38,043373  	25,366740  	1256,670793  	80,470974  	74,987129  	0,004965  	0,011855  	0,003964  	0,004051  	0,004518  	-0,000001  	-0,000000  	27,345539  	23,769088  	25,072088  	26,265258  	32,614840  	30,313308  	32,039978  	32,706851  	39,013671  	37,241193  	41,000634  	68,449973  	28,200861  	26,809122  	29,573137  	74,107156  	0,048079  	0,024362  	-1734,663925  	25528,601789  	-0,018527  	-0,050012  	0,436272  	0,221062  	-5,083254  	16914,786347  	21718,993851  	3,150074  	-0,047961  
111,556000  	21,009056  	38,036895  	25,367662  	1256,670793  	80,469255  	74,979611  	0,004971  	0,011857  	0,003961  	0,004142  	0,004446  	-0,000000  	-0,000000  	27,334978  	23,765410  	25,069378  	26,270725  	32,620779  	30,309303  	32,037108  	32,710297  	39,007136  	37,245081  	41,002182  	68,445184  	28,202197  	26,804694  	29,566836  	74,106039  	0,121723  	0,061678  	-4391,739989  	25524,213271  	-0,018524  	-0,050002  	0,379188  	0,192138  	-4,422806  	16918,812423  	21850,895074  	3,169204  	-0,047953  
112,559000  	21,008933  	38,031343  	25,368399  	57,696365  	80,471318  	74,983292  	0,004974  	0,011849  	0,003960  	0,004143  	0,004416  	-0,000001  	-0,000000  	27,328450  	23,762463  	25,059449  	26,269820  	32,616361  	30,307530  	32,030829  	32,702308  	39,002362  	37,238384  	40,994042  	68,437702  	28,191587  	26,784841  	29,563902  	74,100495  	0,122884  	0,062266  	-4432,215511  	1750,305615  	-0,053820  	-0,050010  	0,355545  	0,180157  	-4,145812  	16900,989025  	21920,990547  	3,179371  	-0,047960  
113,558000  	21,001874  	38,029893  	25,370550  	1256,670793  	80,473130  	74,988221  	0,004968  	0,011810  	0,003955  	0,004154  	0,004466  	-0,000000  	-0,000000  	27,334691  	23,772696  	25,068839  	26,273476  	32,616341  	30,315902  	32,038948  	32,707921  	39,009745  	37,242341  	40,998888  	68,446927  	28,187651  	26,780282  	29,567945  	74,106949  	0,131719  	0,066743  	-4752,442463  	25523,932776  	-0,018524  	-0,050002  	0,395539  	0,200422  	-4,609544  	16817,871885  	21776,824205  	3,158461  	-0,047953  
114,556000  	21,003409  	38,031929  	25,370304  	1256,670793  	80,473692  	74,986911  	0,004976  	0,011833  	0,003958  	0,004142  	0,004498  	0,000001  	-0,000000  	27,330376  	23,772948  	25,066022  	26,267198  	32,611712  	30,315418  	32,032306  	32,702559  	39,005871  	37,239264  	40,995122  	68,450310  	28,179277  	26,767550  	29,570606  	74,110258  	0,121851  	0,061743  	-4396,537995  	25517,931739  	-0,018519  	-0,049989  	0,420401  	0,213020  	-4,900958  	16866,896488  	21965,270663  	3,185793  	-0,047942  
115,559000  	21,014181  	38,035630  	25,370120  	1256,670793  	80,474130  	74,986599  	0,004961  	0,011846  	0,003962  	0,004153  	0,004500  	0,000000  	-0,000000  	27,334737  	23,769426  	25,060863  	26,264781  	32,607221  	30,317316  	32,030873  	32,699141  	39,005915  	37,239718  	40,988408  	68,444018  	28,178279  	26,757957  	29,569141  	74,110334  	0,130338  	0,066043  	-4700,796958  	25521,339387  	-0,018522  	-0,049996  	0,422106  	0,213884  	-4,921504  	16896,039732  	21639,464757  	3,138539  	-0,047948  
116,557000  	20,998222  	38,042478  	25,370243  	57,696365  	80,473505  	74,987223  	0,004976  	0,011833  	0,003957  	0,004130  	0,004459  	0,000000  	-0,000000  	27,337367  	23,770347  	25,068551  	26,267927  	32,613481  	30,320563  	32,041667  	32,699007  	39,010608  	37,238782  	40,991321  	68,446512  	28,185109  	26,756082  	29,571515  	74,113327  	0,111852  	0,056676  	-4039,489793  	1749,770980  	-0,053807  	-0,049996  	0,389777  	0,197503  	-4,543529  	16867,671849  	21963,131152  	3,185483  	-0,047948  
117,560000  	20,973239  	38,046118  	25,371165  	57,696365  	80,472786  	74,992182  	0,004965  	0,011859  	0,003966  	0,004165  	0,004427  	-0,000001  	-0,000000  	27,340873  	23,770919  	25,072148  	26,271087  	32,616549  	30,325712  	32,041969  	32,702825  	39,010871  	37,235424  	40,996513  	68,448385  	28,189084  	26,750363  	29,568907  	74,113570  	0,140681  	0,071284  	-5089,210223  	1750,081275  	-0,053818  	-0,050008  	0,364756  	0,184825  	-4,247473  	16923,967583  	21713,034288  	3,149209  	-0,047958  
118,557000  	20,954579  	38,047105  	25,370919  	657,183579  	80,470661  	74,992432  	0,004978  	0,011867  	0,003965  	0,004147  	0,004415  	0,000000  	-0,000000  	27,341875  	23,770261  	25,067813  	26,271180  	32,614333  	30,323736  	32,031418  	32,705776  	39,009652  	37,237158  	40,998513  	68,447454  	28,190887  	26,738794  	29,572031  	74,111351  	0,125587  	0,063636  	-4548,414712  	18435,638461  	-0,027557  	-0,049994  	0,354878  	0,179819  	-4,130654  	16940,211254  	22005,716606  	3,191659  	-0,047946  
119,556000  	20,927418  	38,047105  	25,372210  	657,183579  	80,470974  	74,988377  	0,004962  	0,011846  	0,003962  	0,004169  	0,004486  	0,000002  	-0,000000  	27,337549  	23,763713  	25,063818  	26,270083  	32,614341  	30,312225  	32,031300  	32,703073  	39,007903  	37,234905  	40,994662  	68,449767  	28,188940  	26,730230  	29,574763  	74,107004  	0,143594  	0,072760  	-5208,836101  	18429,482211  	-0,027548  	-0,049976  	0,411062  	0,208288  	-4,788426  	16895,759583  	21655,451072  	3,140858  	-0,047931  
120,558000  	20,899858  	38,046365  	25,371595  	57,696365  	80,473286  	74,996175  	0,004979  	0,011875  	0,003965  	0,004125  	0,004438  	0,000002  	-0,000000  	27,341722  	23,764888  	25,063721  	26,273580  	32,615876  	30,312897  	32,041081  	32,705413  	39,007188  	37,232784  	40,993121  	68,450005  	28,190545  	26,728098  	29,568576  	74,104324  	0,107870  	0,054659  	-3919,101618  	1748,987527  	-0,053785  	-0,049973  	0,373259  	0,189133  	-4,343721  	16958,725827  	22021,533455  	3,193953  	-0,047929  
121,563000  	20,879511  	38,046241  	25,372794  	1256,670793  	80,472599  	74,995957  	0,004963  	0,011864  	0,003963  	0,004174  	0,004401  	0,000002  	-0,000000  	27,344922  	23,776135  	25,069032  	26,278194  	32,615708  	30,320496  	32,039593  	32,711126  	39,009371  	37,238555  	40,997903  	68,445796  	28,195605  	26,726477  	29,570955  	74,109327  	0,147649  	0,074815  	-5370,650150  	25512,746748  	-0,018516  	-0,049977  	0,343677  	0,174144  	-3,999122  	16934,630211  	21665,442519  	3,142307  	-0,047932  
122,558000  	20,919470  	38,047475  	25,372978  	1256,670793  	80,473286  	74,987036  	0,004976  	0,011856  	0,003960  	0,004123  	0,004487  	0,000001  	-0,000000  	27,340909  	23,771444  	25,069766  	26,275168  	32,608303  	30,316861  	32,029805  	32,711122  	39,007765  	37,239573  	40,994728  	68,438011  	28,189521  	26,720901  	29,570392  	74,108420  	0,106049  	0,053736  	-3848,760875  	25520,035661  	-0,018521  	-0,049993  	0,412253  	0,208892  	-4,805502  	16916,032867  	21958,428464  	3,184801  	-0,047946  
123,562000  	20,987695  	38,048493  	25,374084  	357,439972  	80,475692  	74,988190  	0,004964  	0,011902  	0,003967  	0,004160  	0,004438  	-0,000001  	-0,000000  	27,339163  	23,771549  	25,064335  	26,268904  	32,605759  	30,314743  	32,032137  	32,712600  	39,006902  	37,240241  	40,992395  	68,439851  	28,190777  	26,710368  	29,571563  	74,100521  	0,135923  	0,068873  	-4913,601920  	12479,401685  	-0,036457  	-0,050010  	0,372977  	0,188990  	-4,348668  	17016,713772  	21697,514005  	3,146958  	-0,047960  
124,556000  	21,032136  	38,044360  	25,374515  	956,927186  	80,478692  	74,995364  	0,004972  	0,011859  	0,003965  	0,004181  	0,004448  	0,000001  	-0,000000  	27,337628  	23,770508  	25,065709  	26,275087  	32,609542  	30,312111  	32,037428  	32,717371  	39,014214  	37,235306  	40,992394  	68,451025  	28,193203  	26,703844  	29,576301  	74,102936  	0,153081  	0,077567  	-5518,085700  	22463,214005  	-0,022148  	-0,049982  	0,381320  	0,193218  	-4,442568  	16924,286641  	21868,131203  	3,171704  	-0,047936  
125,569000  	21,020810  	38,033625  	25,374975  	57,696365  	80,472349  	74,995083  	0,004968  	0,011832  	0,003962  	0,004149  	0,004489  	-0,000002  	-0,000000  	27,334347  	23,767280  	25,064900  	26,268077  	32,598085  	30,314586  	32,024757  	32,704661  	39,003799  	37,229207  	40,991403  	68,445401  	28,196579  	26,693656  	29,566793  	74,103885  	0,127633  	0,064673  	-4600,924083  	1750,217097  	-0,053829  	-0,050019  	0,413602  	0,209575  	-4,813336  	16866,188335  	21790,360321  	3,160425  	-0,047968  
126,559000  	20,993925  	38,025359  	25,374975  	1256,670793  	80,472349  	74,994085  	0,004971  	0,011855  	0,003967  	0,004135  	0,004469  	-0,000000  	-0,000000  	27,329955  	23,761322  	25,057308  	26,256439  	32,606449  	30,307967  	32,024894  	32,699761  	38,999583  	37,234835  	40,979508  	68,439988  	28,188738  	26,691994  	29,561865  	74,098332  	0,116099  	0,058828  	-4189,730096  	25523,690346  	-0,018524  	-0,050001  	0,397780  	0,201558  	-4,630044  	16914,534496  	21839,441980  	3,167543  	-0,047953  
127,562000  	20,974498  	38,015549  	25,374791  	1256,670793  	80,478098  	74,996643  	0,004975  	0,011793  	0,003965  	0,004139  	0,004481  	0,000001  	-0,000000  	27,334345  	23,766363  	25,055505  	26,263982  	32,610925  	30,304880  	32,032949  	32,706352  	39,003077  	37,234367  	40,998400  	68,442829  	28,191573  	26,692042  	29,564338  	74,108904  	0,118944  	0,060270  	-4294,825358  	25518,990074  	-0,018520  	-0,049991  	0,407329  	0,206396  	-4,743957  	16780,236458  	21934,971512  	3,181399  	-0,047944  
128,560000  	20,964124  	38,010984  	25,375283  	1256,670793  	80,480035  	74,994584  	0,004964  	0,011858  	0,003965  	0,004099  	0,004491  	-0,000002  	-0,000000  	27,344283  	23,770460  	25,057144  	26,263537  	32,604216  	30,317875  	32,031991  	32,709280  	39,008337  	37,232594  	40,992577  	68,437558  	28,201245  	26,699682  	29,574273  	74,103457  	0,086800  	0,043982  	-3135,227924  	25532,597579  	-0,018530  	-0,050021  	0,415483  	0,210528  	-4,842448  	16921,093230  	21704,977581  	3,148041  	-0,047969  
129,562000  	20,969035  	38,020115  	25,375652  	1256,670793  	80,479473  	74,997111  	0,004979  	0,011871  	0,003969  	0,004115  	0,004462  	-0,000002  	-0,000000  	27,338875  	23,775138  	25,060961  	26,270732  	32,615948  	30,311711  	32,045304  	32,702481  	39,012442  	37,247431  	40,996525  	68,444689  	28,192600  	26,707901  	29,582920  	74,106305  	0,099675  	0,050506  	-3601,186645  	25534,183656  	-0,018531  	-0,050025  	0,392150  	0,198706  	-4,567939  	16950,165729  	22018,214741  	3,193472  	-0,047972  
130,557000  	20,972595  	38,031158  	25,376758  	1256,670793  	80,473974  	74,995177  	0,004963  	0,011877  	0,003964  	0,004137  	0,004476  	-0,000001  	-0,000000  	27,322517  	23,771806  	25,060842  	26,255131  	32,604178  	30,317432  	32,022420  	32,701044  	39,010357  	37,230896  	40,981159  	68,433206  	28,158066  	26,691890  	29,552400  	74,095903  	0,117358  	0,059466  	-4241,900018  	25531,340506  	-0,018529  	-0,050018  	0,403133  	0,204271  	-4,692818  	16962,631637  	21677,580538  	3,144067  	-0,047967  
131,559000  	20,975173  	38,035970  	25,378048  	357,439972  	80,469318  	74,995520  	0,004977  	0,011852  	0,003961  	0,004123  	0,004474  	-0,000001  	-0,000000  	27,328323  	23,764007  	25,048245  	26,266507  	32,605639  	30,314729  	32,032095  	32,695865  	39,003159  	37,232351  	40,980334  	68,440677  	28,174479  	26,687599  	29,570858  	74,102475  	0,106675  	0,054053  	-3856,288733  	12479,217438  	-0,036457  	-0,050010  	0,401802  	0,203596  	-4,673054  	16907,285296  	21984,893442  	3,188639  	-0,047960  
132,563000  	20,982170  	38,039363  	25,378171  	956,927186  	80,466506  	74,991278  	0,004962  	0,011864  	0,003963  	0,004103  	0,004486  	0,000000  	-0,000000  	27,334398  	23,767220  	25,069847  	26,258448  	32,603564  	30,319685  	32,034183  	32,701264  	39,003718  	37,238384  	40,987780  	68,433181  	28,172078  	26,690059  	29,577059  	74,107227  	0,089779  	0,045492  	-3244,802553  	22470,109226  	-0,022155  	-0,050000  	0,411398  	0,208458  	-4,785903  	16934,345818  	21648,552384  	3,139857  	-0,047951  
133,558000  	20,983920  	38,037913  	25,379308  	57,696365  	80,465631  	74,988065  	0,004977  	0,011890  	0,003961  	0,004139  	0,004455  	0,000000  	-0,000000  	27,324623  	23,764728  	25,071703  	26,262459  	32,604849  	30,309048  	32,025763  	32,706441  	39,006571  	37,236434  	40,988090  	68,433075  	28,158226  	26,682110  	29,576683  	74,111131  	0,119176  	0,060387  	-4306,455303  	1749,219134  	-0,053805  	-0,049995  	0,386614  	0,195900  	-4,499502  	16990,942924  	21969,472014  	3,186403  	-0,047947  
134,561000  	20,987787  	38,035815  	25,380415  	657,183579  	80,462506  	74,984010  	0,004961  	0,011846  	0,003965  	0,004149  	0,004487  	-0,000001  	-0,000000  	27,330309  	23,749947  	25,052739  	26,256989  	32,595125  	30,298488  	32,021672  	32,698843  	39,002240  	37,226040  	40,981901  	68,431725  	28,149553  	26,662979  	29,571587  	74,104572  	0,127625  	0,064668  	-4610,151938  	18440,788174  	-0,027565  	-0,050011  	0,412275  	0,208903  	-4,798965  	16896,334030  	21636,421426  	3,138098  	-0,047961  
135,563000  	20,982815  	38,034427  	25,381337  	-242,047242  	80,458007  	74,986256  	0,004979  	0,011857  	0,003966  	0,004135  	0,004496  	-0,000001  	-0,000000  	27,332236  	23,757338  	25,053279  	26,261067  	32,595358  	30,305145  	32,025515  	32,687398  	39,001462  	37,233305  	40,987943  	68,437193  	28,152024  	26,668024  	29,579594  	74,102895  	0,115817  	0,058685  	-4184,513140  	-27086,137741  	-0,102753  	-0,050007  	0,419245  	0,212435  	-4,874087  	16919,549582  	22021,010934  	3,193878  	-0,047957  
136,562000  	20,971091  	38,034859  	25,382320  	-242,047242  	80,457944  	74,983012  	0,004960  	0,011853  	0,003960  	0,004116  	0,004462  	-0,000001  	-0,000000  	27,341764  	23,768118  	25,066535  	26,265425  	32,603831  	30,312481  	32,019127  	32,695247  	39,005549  	37,237619  	40,999881  	68,437634  	28,155715  	26,671204  	29,575637  	74,106594  	0,100608  	0,050979  	-3637,582447  	-27088,022393  	-0,102759  	-0,050011  	0,391904  	0,198581  	-4,558871  	16910,142671  	21616,276126  	3,135176  	-0,047960  
137,561000  	20,986467  	38,036031  	25,383027  	1256,670793  	80,459506  	74,986006  	0,004975  	0,011870  	0,003957  	0,004141  	0,004460  	-0,000000  	-0,000000  	27,338314  	23,775795  	25,068034  	26,264793  	32,608744  	30,311831  	32,031593  	32,703531  	39,007529  	37,243050  	40,997242  	68,447061  	28,153559  	26,666623  	29,574293  	74,105570  	0,120721  	0,061170  	-4361,157295  	25524,270552  	-0,018524  	-0,050003  	0,390615  	0,197927  	-4,542685  	16947,222753  	21934,717313  	3,181362  	-0,047954  
138,562000  	21,001567  	38,035599  	25,384502  	657,183579  	80,460319  	74,987503  	0,004962  	0,011887  	0,003962  	0,004117  	0,004498  	-0,000000  	-0,000000  	27,332475  	23,770823  	25,059594  	26,262888  	32,598001  	30,312122  	32,025505  	32,702132  	39,003625  	37,235089  	40,988425  	68,441921  	28,153524  	26,665094  	29,574698  	74,099682  	0,101142  	0,051250  	-3650,528211  	18438,277402  	-0,027561  	-0,050004  	0,420599  	0,213120  	-4,890776  	16984,207330  	21652,654879  	3,140452  	-0,047955  
139,579000  	20,999357  	38,034581  	25,384778  	-242,047242  	80,460725  	74,987971  	0,004973  	0,011846  	0,003960  	0,004139  	0,004478  	0,000001  	-0,000000  	27,329316  	23,762694  	25,052979  	26,263652  	32,599768  	30,306218  	32,021040  	32,700629  	38,998342  	37,230856  	40,983106  	68,438983  	28,144416  	26,667397  	29,571656  	74,096808  	0,119333  	0,060467  	-4307,397381  	-27077,855499  	-0,102720  	-0,049989  	0,404711  	0,205070  	-4,705986  	16894,513063  	21886,461801  	3,174363  	-0,047942  
140,559000  	21,007214  	38,033965  	25,386684  	956,927186  	80,461600  	74,980984  	0,004969  	0,011818  	0,003955  	0,004123  	0,004475  	0,000001  	-0,000000  	27,340675  	23,768106  	25,067536  	26,261605  	32,607407  	30,309173  	32,031030  	32,702404  	39,007393  	37,237878  	40,991138  	68,445749  	28,141504  	26,671777  	29,571688  	74,109370  	0,106226  	0,053825  	-3832,375318  	22464,053888  	-0,022149  	-0,049985  	0,402194  	0,203795  	-4,683431  	16834,566199  	21804,503691  	3,162476  	-0,047939  
141,564000  	21,028790  	38,035815  	25,388988  	1256,670793  	80,463631  	74,984696  	0,004966  	0,011902  	0,003960  	0,004100  	0,004497  	-0,000001  	-0,000000  	27,337648  	23,767174  	25,063869  	26,260458  	32,604343  	30,307779  	32,034505  	32,698874  	39,007516  	37,231380  	40,989905  	68,438060  	28,122070  	26,666023  	29,568541  	74,109794  	0,088016  	0,044598  	-3171,715151  	25525,907154  	-0,018525  	-0,050007  	0,420004  	0,212819  	-4,889321  	17017,225963  	21744,258443  	3,153738  	-0,047958  
142,557000  	21,024616  	38,034396  	25,390709  	1256,670793  	80,463131  	74,981390  	0,004978  	0,011834  	0,003961  	0,004168  	0,004449  	0,000000  	-0,000000  	27,335570  	23,765200  	25,055577  	26,262607  	32,607964  	30,306662  	32,028238  	32,697456  	39,001882  	37,237831  	40,986344  	68,442809  	28,103600  	26,662839  	29,568654  	74,107058  	0,143123  	0,072521  	-5158,379578  	25521,575114  	-0,018522  	-0,049998  	0,381923  	0,193523  	-4,448295  	16868,933933  	22005,292940  	3,191598  	-0,047950  
143,562000  	21,019828  	38,034304  	25,392000  	1256,670793  	80,460350  	74,979300  	0,004964  	0,011869  	0,003958  	0,004120  	0,004483  	0,000001  	-0,000000  	27,333466  	23,764217  	25,056337  	26,261569  	32,605668  	30,305629  	32,024366  	32,699557  	39,003497  	37,238700  	40,984300  	68,445300  	28,088708  	26,666829  	29,573937  	74,104884  	0,104042  	0,052719  	-3750,867233  	25517,277587  	-0,018519  	-0,049989  	0,408485  	0,206982  	-4,757057  	16945,434329  	21705,330635  	3,148092  	-0,047942  
144,558000  	21,013076  	38,040596  	25,392615  	1256,670793  	80,458288  	74,984665  	0,004977  	0,011872  	0,003961  	0,004142  	0,004472  	0,000001  	-0,000000  	27,327865  	23,763695  	25,061800  	26,256521  	32,598671  	30,307534  	32,027918  	32,699266  	39,005174  	37,235893  	40,979610  	68,440035  	28,074799  	26,669151  	29,577907  	74,103704  	0,121413  	0,061521  	-4380,479714  	25519,281805  	-0,018521  	-0,049993  	0,400434  	0,202903  	-4,656985  	16952,000137  	21977,994753  	3,187639  	-0,047945  
145,559000  	21,037322  	38,044576  	25,393875  	57,696365  	80,458850  	74,992713  	0,004965  	0,011807  	0,003964  	0,004119  	0,004509  	0,000000  	-0,000000  	27,325323  	23,759750  	25,056908  	26,252795  	32,604870  	30,308011  	32,028082  	32,695434  	39,003969  	37,238097  	40,980053  	68,438223  	28,068531  	26,671608  	29,577408  	74,099262  	0,102873  	0,052127  	-3707,153878  	1748,541221  	-0,053808  	-0,050000  	0,429447  	0,217604  	-4,987579  	16811,199253  	21724,826314  	3,150920  	-0,047951  
146,563000  	21,072249  	38,046303  	25,394489  	657,183579  	80,454226  	74,981608  	0,004979  	0,011887  	0,003960  	0,004135  	0,004466  	0,000001  	-0,000000  	27,332131  	23,761500  	25,055840  	26,258290  	32,608188  	30,309163  	32,032586  	32,700474  	39,009836  	37,237625  	40,985679  	68,439986  	28,069128  	26,685139  	29,582230  	74,100308  	0,116194  	0,058876  	-4179,010147  	18432,582227  	-0,027553  	-0,049988  	0,395452  	0,200378  	-4,598194  	16983,709995  	22025,812477  	3,194574  	-0,047941  
147,557000  	21,090388  	38,048431  	25,394766  	657,183579  	80,449851  	74,976586  	0,004962  	0,011851  	0,003955  	0,004141  	0,004458  	0,000001  	-0,000000  	27,343968  	23,778032  	25,074221  	26,266919  	32,603877  	30,317552  	32,041677  	32,712239  	39,012435  	37,245537  	40,988403  	68,446109  	28,071278  	26,694476  	29,594381  	74,113623  	0,121235  	0,061430  	-4356,174515  	18432,636633  	-0,027553  	-0,049988  	0,389032  	0,197125  	-4,524081  	16906,637275  	21649,209066  	3,139952  	-0,047941  
148,558000  	21,084127  	38,049604  	25,395934  	57,696365  	80,447601  	74,973903  	0,004974  	0,011915  	0,003963  	0,004149  	0,004452  	-0,000000  	-0,000000  	27,340668  	23,779155  	25,073280  	26,264357  	32,607047  	30,314261  	32,031206  	32,710718  	39,004294  	37,243877  	40,985960  	68,442269  	28,060710  	26,684337  	29,592867  	74,112077  	0,127506  	0,064608  	-4583,543946  	1748,455948  	-0,053809  	-0,050001  	0,384185  	0,194669  	-4,468066  	17044,357230  	21908,683062  	3,177586  	-0,047952  
149,560000  	21,064822  	38,052380  	25,396517  	1256,670793  	80,446914  	74,980828  	0,004961  	0,011827  	0,003961  	0,004074  	0,004504  	-0,000001  	-0,000000  	27,341811  	23,768478  	25,068113  	26,264282  	32,608127  	30,313326  	32,029108  	32,710342  	39,008482  	37,239406  	40,983130  	68,444908  	28,049216  	26,686618  	29,584459  	74,111125  	0,066269  	0,033579  	-2385,303665  	25527,130360  	-0,018526  	-0,050011  	0,425824  	0,215768  	-4,945448  	16855,159957  	21628,647162  	3,136970  	-0,047960  
150,561000  	21,050704  	38,051331  	25,397071  	657,183579  	80,444539  	74,980391  	0,004978  	0,011870  	0,003964  	0,004125  	0,004474  	0,000000  	-0,000000  	27,341277  	23,768054  	25,063679  	26,269917  	32,608286  	30,314171  	32,035616  	32,709732  	39,004870  	37,239456  	40,989084  	68,445831  	28,049777  	26,688230  	29,587996  	74,108449  	0,108085  	0,054767  	-3893,436304  	18436,108369  	-0,027559  	-0,049999  	0,402023  	0,203708  	-4,667364  	16947,622460  	22006,041416  	3,191706  	-0,047951  
151,558000  	21,031552  	38,050776  	25,397071  	657,183579  	80,450007  	74,975088  	0,004963  	0,011922  	0,003961  	0,004123  	0,004489  	-0,000001  	-0,000000  	27,343349  	23,773449  	25,060439  	26,274587  	32,607029  	30,310160  	32,039081  	32,711223  	39,010232  	37,243038  	40,990360  	68,445314  	28,051417  	26,691033  	29,588200  	74,115030  	0,106514  	0,053971  	-3841,059465  	18440,754036  	-0,027565  	-0,050013  	0,413419  	0,209483  	-4,809134  	17060,266987  	21669,446159  	3,142887  	-0,047963  
152,563000  	21,002703  	38,056020  	25,397501  	57,696365  	80,455382  	74,977646  	0,004977  	0,011827  	0,003960  	0,004121  	0,004454  	-0,000000  	-0,000000  	27,331668  	23,758736  	25,055911  	26,258748  	32,601361  	30,310556  	32,022283  	32,700279  	38,996073  	37,229332  	40,978459  	68,428360  	28,043054  	26,684612  	29,578967  	74,104137  	0,104615  	0,053009  	-3780,151615  	1748,538014  	-0,053814  	-0,050006  	0,385891  	0,195534  	-4,491217  	16853,500288  	21974,195885  	3,187088  	-0,047957  
153,558000  	20,972073  	38,065181  	25,396917  	-242,047242  	80,458475  	74,980672  	0,004968  	0,011891  	0,003964  	0,004142  	0,004453  	0,000001  	-0,000000  	27,334552  	23,772215  	25,064658  	26,269807  	32,603176  	30,311008  	32,030982  	32,707452  	39,008805  	37,232644  	40,982024  	68,434398  	28,047573  	26,687009  	29,577416  	74,107191  	0,121463  	0,061546  	-4399,185341  	-27077,718203  	-0,102715  	-0,049989  	0,385081  	0,195123  	-4,481852  	16992,296976  	21780,199408  	3,158951  	-0,047942  
154,560000  	20,945065  	38,073571  	25,397224  	357,439972  	80,460975  	74,984290  	0,004969  	0,011833  	0,003959  	0,004126  	0,004489  	-0,000000  	-0,000000  	27,339141  	23,778002  	25,076406  	26,279681  	32,616527  	30,321295  	32,037770  	32,716826  	39,010385  	37,244550  	40,988293  	68,440573  	28,053383  	26,673316  	29,594334  	74,113040  	0,108390  	0,054922  	-3933,853243  	12476,080049  	-0,036450  	-0,050001  	0,413337  	0,209441  	-4,809728  	16867,413631  	21804,433080  	3,162466  	-0,047952  
155,565000  	20,926283  	38,079124  	25,397224  	357,439972  	80,466349  	74,980547  	0,004973  	0,011876  	0,003960  	0,004153  	0,004445  	0,000000  	-0,000000  	27,342653  	23,785755  	25,075000  	26,273310  	32,613793  	30,318352  	32,045628  	32,719149  	39,015945  	37,244675  	40,982937  	68,443904  	28,046004  	26,669759  	29,591365  	74,110497  	0,130500  	0,066126  	-4743,034823  	12475,498081  	-0,036448  	-0,049998  	0,378565  	0,191822  	-4,412442  	16959,380922  	21885,402637  	3,174209  	-0,047950  
156,558000  	20,915725  	38,080111  	25,396917  	-242,047242  	80,467849  	74,983916  	0,004964  	0,011839  	0,003964  	0,004121  	0,004487  	0,000000  	-0,000000  	27,344817  	23,787483  	25,072961  	26,274147  	32,615065  	30,317866  	32,041184  	32,715365  	39,014806  	37,253822  	40,992432  	68,442296  	28,044131  	26,663241  	29,583542  	74,111253  	0,104569  	0,052986  	-3803,116259  	-27081,292100  	-0,102728  	-0,049996  	0,412157  	0,208843  	-4,802353  	16880,337965  	21692,966661  	3,146299  	-0,047948  
157,563000  	20,916094  	38,076347  	25,396456  	956,927186  	80,466099  	74,988907  	0,004978  	0,011907  	0,003962  	0,004053  	0,004461  	0,000000  	-0,000000  	27,353716  	23,787405  	25,076969  	26,290131  	32,615840  	30,319166  	32,052793  	32,718201  	39,003282  	37,250261  	41,003834  	68,448826  	28,041869  	26,666274  	29,587715  	74,112633  	0,049400  	0,025031  	-1796,203650  	22467,321562  	-0,022153  	-0,049994  	0,391357  	0,198304  	-4,554397  	17026,231045  	21994,920194  	3,190093  	-0,047947  
158,558000  	20,897495  	38,068574  	25,396886  	357,439972  	80,466287  	74,984602  	0,004964  	0,011812  	0,003961  	0,004147  	0,004458  	0,000001  	-0,000000  	27,358862  	23,789244  	25,084649  	26,285860  	32,624345  	30,323637  	32,042739  	32,718132  	39,023539  	37,251286  	40,991797  	68,450294  	28,034325  	26,664246  	29,592528  	74,109804  	0,125547  	0,063616  	-4567,869200  	12472,500045  	-0,036440  	-0,049984  	0,389015  	0,197117  	-4,530849  	16821,409116  	21692,811317  	3,146276  	-0,047938  
159,560000  	20,880646  	38,058672  	25,396794  	1256,670793  	80,465068  	74,981795  	0,004980  	0,011879  	0,003959  	0,004151  	0,004495  	0,000001  	-0,000000  	27,346524  	23,788198  	25,072848  	26,275906  	32,620459  	30,327987  	32,039942  	32,717681  	39,019540  	37,247108  	40,989010  	68,445632  	28,033390  	26,662481  	29,598237  	74,116494  	0,128631  	0,065178  	-4681,985496  	25518,139037  	-0,018520  	-0,049991  	0,418233  	0,211922  	-4,872557  	16967,060957  	22034,243423  	3,195797  	-0,047944  
160,565000  	20,875245  	38,049357  	25,396179  	57,696365  	80,464443  	74,979237  	0,004965  	0,011824  	0,003966  	0,004110  	0,004481  	0,000001  	-0,000000  	27,349777  	23,783519  	25,077402  	26,269507  	32,614777  	30,322179  	32,036599  	32,708903  	39,008427  	37,247067  	40,986732  	68,436672  	28,028601  	26,658000  	29,577617  	74,110313  	0,095520  	0,048401  	-3475,998529  	1748,198464  	-0,053802  	-0,049993  	0,406894  	0,206176  	-4,742119  	16847,491240  	21717,998237  	3,149929  	-0,047945  
161,557000  	20,869721  	38,039178  	25,396118  	-242,047242  	80,460475  	74,982637  	0,004979  	0,011841  	0,003966  	0,004144  	0,004442  	-0,000001  	-0,000000  	27,351276  	23,780311  	25,077198  	26,278233  	32,622131  	30,328217  	32,044388  	32,719444  	39,014618  	37,252092  	40,991627  	68,450010  	28,031844  	26,658400  	29,589426  	74,110165  	0,123438  	0,062547  	-4490,732911  	-27088,494736  	-0,102756  	-0,050011  	0,375991  	0,190517  	-4,376077  	16884,298956  	22015,835153  	3,193127  	-0,047961  
162,562000  	20,890099  	38,034674  	25,394889  	357,439972  	80,459975  	74,983448  	0,004960  	0,011868  	0,003959  	0,004143  	0,004452  	0,000001  	-0,000000  	27,352125  	23,786040  	25,083391  	26,281617  	32,628170  	30,333691  	32,050292  	32,729110  	39,022188  	37,256427  	40,998624  	68,453142  	28,036827  	26,660625  	29,597011  	74,115335  	0,122390  	0,062016  	-4446,142960  	12472,930468  	-0,036441  	-0,049986  	0,384369  	0,194763  	-4,472528  	16942,823145  	21602,902416  	3,133236  	-0,047939  
163,558000  	20,914313  	38,028381  	25,393967  	1256,670793  	80,458538  	74,978457  	0,004978  	0,011889  	0,003960  	0,004186  	0,004389  	0,000002  	-0,000000  	27,339653  	23,777369  	25,080262  	26,276418  	32,618862  	30,329103  	32,038270  	32,720013  	39,013344  	37,244286  	40,988451  	68,437138  	28,025722  	26,642478  	29,584664  	74,113428  	0,157018  	0,079562  	-5693,921141  	25512,558215  	-0,018516  	-0,049978  	0,334163  	0,169323  	-3,890841  	16987,770736  	21996,014664  	3,190252  	-0,047933  
164,560000  	20,934139  	38,019683  	25,392123  	1256,670793  	80,455351  	74,979518  	0,004963  	0,011869  	0,003967  	0,004101  	0,004490  	0,000001  	-0,000000  	27,337622  	23,774611  	25,081465  	26,274358  	32,612966  	30,329115  	32,046311  	32,717745  	39,010270  	37,250400  	40,990052  	68,442100  	28,023754  	26,640120  	29,593337  	74,113608  	0,088435  	0,044811  	-3201,549644  	25515,647576  	-0,018518  	-0,049985  	0,414144  	0,209850  	-4,818369  	16944,102915  	21668,669439  	3,142775  	-0,047939  
165,561000  	20,965260  	38,011694  	25,391262  	1256,670793  	80,456725  	74,985944  	0,004975  	0,011859  	0,003967  	0,004152  	0,004465  	0,000002  	-0,000000  	27,343413  	23,777485  	25,073975  	26,280598  	32,611419  	30,323278  	32,050913  	32,716272  	39,014460  	37,253065  	40,985845  	68,435269  	28,030656  	26,632016  	29,595167  	74,101053  	0,129698  	0,065719  	-4684,607415  	25513,230790  	-0,018516  	-0,049980  	0,394221  	0,199755  	-4,582352  	16924,530710  	21925,707357  	3,180055  	-0,047934  
166,559000  	20,984779  	38,002070  	25,389665  	1256,670793  	80,456600  	74,974589  	0,004964  	0,011849  	0,003960  	0,004182  	0,004402  	0,000001  	-0,000000  	27,341884  	23,780014  	25,076477  	26,283318  	32,612511  	30,321900  	32,046824  	32,713627  	39,014380  	37,244301  	40,982533  	68,429714  	28,038492  	26,635440  	29,586529  	74,097864  	0,154014  	0,078040  	-5553,364557  	25515,835604  	-0,018518  	-0,049985  	0,344909  	0,174768  	-4,017382  	16901,678078  	21698,650841  	3,147123  	-0,047939  
167,562000  	20,996841  	37,997165  	25,388650  	357,439972  	80,455663  	74,974995  	0,004971  	0,011845  	0,003963  	0,004148  	0,004411  	0,000000  	-0,000000  	27,342517  	23,784390  	25,075833  	26,278721  	32,615169  	30,315205  	32,045172  	32,712218  	39,016503  	37,247905  	40,984663  	68,436971  	28,043628  	26,636299  	29,590803  	74,100068  	0,126794  	0,064248  	-4567,332292  	12475,015205  	-0,036446  	-0,049994  	0,351396  	0,178055  	-4,091930  	16892,293805  	21837,888540  	3,167318  	-0,047946  
168,558000  	20,990150  	37,995006  	25,388097  	-242,047242  	80,454601  	74,973747  	0,004972  	0,011878  	0,003963  	0,004104  	0,004416  	0,000001  	-0,000000  	27,339274  	23,780786  	25,071903  	26,271736  	32,613723  	30,315662  	32,039323  	32,716395  	39,017505  	37,249384  	40,982111  	68,441084  	28,052638  	26,642262  	29,588574  	74,102031  	0,091017  	0,046119  	-3279,453412  	-27074,479287  	-0,102706  	-0,049982  	0,356085  	0,180431  	-4,146670  	16963,420440  	21877,649556  	3,173085  	-0,047936  
169,560000  	20,957710  	37,996240  	25,386807  	1256,670793  	80,454132  	74,976898  	0,004964  	0,011820  	0,003962  	0,004110  	0,004511  	0,000002  	-0,000000  	27,341206  	23,772887  	25,069452  	26,266597  	32,611289  	30,316064  	32,035930  	32,708887  	39,013328  	37,245838  	40,982503  	68,442768  	28,060348  	26,645183  	29,585304  	74,103939  	0,095997  	0,048642  	-3465,742414  	25512,988213  	-0,018516  	-0,049979  	0,430959  	0,218370  	-5,015282  	16838,482621  	21696,179458  	3,146765  	-0,047933  
170,557000  	20,952738  	37,997967  	25,385639  	1256,670793  	80,453882  	74,974714  	0,004977  	0,011845  	0,003962  	0,004180  	0,004423  	0,000002  	-0,000000  	27,336741  	23,768075  	25,065825  	26,265739  	32,610435  	30,314917  	32,031595  	32,700450  	39,009748  	37,239954  	40,989444  	68,445845  	28,066048  	26,636520  	29,579972  	74,109376  	0,152856  	0,077453  	-5520,678816  	25512,383090  	-0,018516  	-0,049977  	0,360985  	0,182914  	-4,202440  	16892,643990  	21972,042252  	3,186775  	-0,047932  
171,560000  	20,946569  	38,002594  	25,383887  	1256,670793  	80,452695  	74,975806  	0,004965  	0,011877  	0,003969  	0,004124  	0,004475  	0,000001  	-0,000000  	27,336106  	23,773967  	25,065510  	26,268576  	32,615316  	30,319690  	32,030348  	32,707730  	39,016103  	37,241485  	40,989623  	68,447347  	28,070737  	26,636627  	29,579941  	74,109767  	0,107046  	0,054241  	-3868,632132  	25518,121635  	-0,018520  	-0,049990  	0,402296  	0,203846  	-4,681421  	16961,775627  	21727,791973  	3,151350  	-0,047943  
172,558000  	20,924226  	38,012095  	25,382166  	57,696365  	80,458194  	74,976804  	0,004978  	0,011834  	0,003962  	0,004160  	0,004411  	0,000000  	-0,000000  	27,339760  	23,778576  	25,064801  	26,268070  	32,615070  	30,317826  	32,033308  	32,707264  	39,017406  	37,246348  	40,986594  	68,440708  	28,066972  	26,635124  	29,586508  	74,102148  	0,136405  	0,069117  	-4938,862675  	1749,047785  	-0,053804  	-0,049994  	0,351589  	0,178153  	-4,094727  	16869,090986  	22000,978612  	3,190972  	-0,047947  
173,562000  	20,928431  	38,020454  	25,380292  	1256,670793  	80,461100  	74,980173  	0,004960  	0,011847  	0,003959  	0,004131  	0,004458  	0,000001  	-0,000000  	27,327286  	23,771160  	25,061434  	26,262993  	32,602714  	30,306682  	32,028946  	32,697574  	39,005969  	37,238367  	40,981778  	68,431263  	28,058677  	26,621262  	29,578996  	74,096253  	0,113133  	0,057325  	-4097,228897  	25519,221207  	-0,018520  	-0,049992  	0,388688  	0,196951  	-4,526411  	16898,435145  	21611,460461  	3,134477  	-0,047945  
174,558000  	20,913147  	38,021009  	25,379984  	1256,670793  	80,462412  	74,978676  	0,004977  	0,011830  	0,003964  	0,004099  	0,004478  	0,000000  	-0,000000  	27,332386  	23,772951  	25,064478  	26,263010  	32,601412  	30,303836  	32,033510  	32,699643  	39,006496  	37,241376  	40,976011  	68,437116  	28,060053  	26,620503  	29,580885  	74,094083  	0,086485  	0,043823  	-3135,056961  	25520,436685  	-0,018521  	-0,049995  	0,404840  	0,205135  	-4,716921  	16861,882817  	21975,127950  	3,187223  	-0,047947  
175,557000  	20,867204  	38,018603  	25,378602  	1256,670793  	80,460350  	74,974527  	0,004963  	0,011895  	0,003962  	0,004142  	0,004433  	-0,000001  	-0,000000  	27,338130  	23,774752  	25,065035  	26,264940  	32,605977  	30,315448  	32,039082  	32,698987  	39,008685  	37,248740  	40,988537  	68,444861  	28,068193  	26,617894  	29,587185  	74,105305  	0,121843  	0,061738  	-4428,011376  	25526,219411  	-0,018526  	-0,050007  	0,368995  	0,186973  	-4,300916  	17001,888531  	21681,901928  	3,144694  	-0,047958  
176,564000  	20,850877  	38,015210  	25,377372  	1256,670793  	80,457788  	74,972531  	0,004978  	0,011877  	0,003965  	0,004184  	0,004423  	0,000001  	-0,000000  	27,337249  	23,776085  	25,065111  	26,261422  	32,608141  	30,315561  	32,032926  	32,698458  	39,007722  	37,240935  	40,978234  	68,446856  	28,062017  	26,608725  	29,584490  	74,106922  	0,155338  	0,078711  	-5649,576335  	25517,084148  	-0,018519  	-0,049987  	0,361138  	0,182991  	-4,208901  	16962,246079  	22006,337982  	3,191749  	-0,047940  
177,559000  	20,860729  	38,011632  	25,376328  	57,696365  	80,452413  	74,976024  	0,004962  	0,011835  	0,003963  	0,004132  	0,004479  	0,000001  	-0,000000  	27,330334  	23,769211  	25,066654  	26,262042  	32,601613  	30,307876  	32,026994  	32,695136  	38,999247  	37,236916  	40,973543  	68,442047  	28,057399  	26,599881  	29,587007  	74,096907  	0,113849  	0,057688  	-4137,385507  	1749,314443  	-0,053803  	-0,049992  	0,405517  	0,205478  	-4,718475  	16871,717026  	21648,552384  	3,139857  	-0,047945  
178,561000  	20,863368  	38,013421  	25,374668  	657,183579  	80,456913  	74,971283  	0,004976  	0,011820  	0,003962  	0,004115  	0,004462  	0,000001  	-0,000000  	27,326393  	23,764998  	25,064605  	26,259074  	32,605257  	30,305929  	32,032052  	32,689181  	39,003161  	37,231387  	40,986501  	68,441236  	28,052186  	26,598310  	29,582097  	74,095882  	0,099581  	0,050458  	-3618,701935  	18433,054288  	-0,027553  	-0,049987  	0,391831  	0,198544  	-4,566925  	16838,873839  	21949,708014  	3,183536  	-0,047940  
179,557000  	20,874324  	38,014532  	25,373562  	657,183579  	80,454632  	74,966323  	0,004964  	0,011830  	0,003967  	0,004112  	0,004493  	-0,000000  	-0,000000  	27,332647  	23,761491  	25,067706  	26,258522  	32,606029  	30,306437  	32,032064  	32,699872  	39,004147  	37,234316  	40,993650  	68,439868  	28,056661  	26,611524  	29,582623  	74,100960  	0,097183  	0,049243  	-3529,529586  	18438,207607  	-0,027561  	-0,050002  	0,416944  	0,211269  	-4,861992  	16861,486647  	21690,537645  	3,145947  	-0,047953  
180,562000  	20,910293  	38,011755  	25,372640  	1256,670793  	80,452570  	74,973310  	0,004970  	0,011853  	0,003961  	0,004159  	0,004436  	0,000000  	-0,000000  	27,334590  	23,765437  	25,066370  	26,258367  	32,601496  	30,309880  	32,031177  	32,693416  	39,004339  	37,233506  	40,985153  	68,443588  	28,053618  	26,609435  	29,588515  	74,092916  	0,135799  	0,068811  	-4920,847215  	25520,756849  	-0,018521  	-0,049995  	0,371578  	0,188281  	-4,325831  	16910,367639  	21822,530662  	3,165090  	-0,047947  
181,559000  	20,949577  	38,000034  	25,372087  	956,927186  	80,449601  	74,973061  	0,004968  	0,011881  	0,003961  	0,004147  	0,004469  	-0,000001  	-0,000000  	27,339378  	23,768125  	25,077991  	26,265810  	32,609361  	30,311074  	32,040342  	32,702609  	39,015647  	37,246929  	40,989741  	68,440021  	28,061251  	26,610142  	29,592913  	74,108335  	0,126099  	0,063896  	-4555,717969  	22474,071308  	-0,022159  	-0,050009  	0,398097  	0,201719  	-4,632265  	16970,243758  	21783,715832  	3,159461  	-0,047959  
182,557000  	20,955715  	37,992076  	25,371165  	357,439972  	80,445539  	74,973872  	0,004966  	0,011786  	0,003966  	0,004106  	0,004450  	-0,000001  	-0,000000  	27,331121  	23,775358  	25,054785  	26,264747  	32,604347  	30,303061  	32,026403  	32,704190  	39,013940  	37,240185  	40,977224  	68,431344  	28,039090  	26,604533  	29,594815  	74,105678  	0,092278  	0,046758  	-3331,073553  	12479,403100  	-0,036457  	-0,050010  	0,382338  	0,193734  	-4,444937  	16766,660567  	21743,672372  	3,153653  	-0,047960  
183,565000  	20,951664  	37,986801  	25,370427  	1256,670793  	80,444852  	74,970097  	0,004974  	0,011857  	0,003961  	0,004114  	0,004454  	0,000001  	-0,000000  	27,324204  	23,767032  	25,065983  	26,257501  	32,604244  	30,307179  	32,038076  	32,693325  	39,012244  	37,242591  	40,990217  	68,449069  	28,057759  	26,627602  	29,585208  	74,107282  	0,098766  	0,050045  	-3564,998627  	25519,548225  	-0,018521  	-0,049992  	0,386044  	0,195611  	-4,490550  	16919,884204  	21909,565698  	3,177714  	-0,047945  
184,557000  	20,959030  	37,982236  	25,370243  	1256,670793  	80,450476  	74,963547  	0,004963  	0,011871  	0,003962  	0,004205  	0,004463  	0,000001  	-0,000000  	27,317637  	23,769090  	25,057151  	26,261065  	32,600312  	30,306580  	32,019661  	32,694668  	39,003745  	37,236486  	40,974302  	68,432746  	28,043198  	26,605063  	29,575520  	74,096124  	0,173069  	0,087695  	-6242,641456  	25520,307426  	-0,018521  	-0,049994  	0,393112  	0,199193  	-4,582933  	16949,134272  	21685,142969  	3,145164  	-0,047946  
185,565000  	20,982232  	37,978319  	25,369659  	1256,670793  	80,457507  	74,964732  	0,004977  	0,011817  	0,003962  	0,004158  	0,004457  	-0,000001  	-0,000000  	27,321387  	23,763227  	25,059768  	26,255717  	32,596791  	30,296631  	32,027747  	32,693053  	38,999216  	37,227435  	40,975060  	68,435938  	28,045935  	26,611921  	29,585638  	74,104058  	0,134822  	0,068315  	-4855,308356  	25526,868027  	-0,018526  	-0,050008  	0,387927  	0,196565  	-4,527296  	16833,817721  	21983,763667  	3,188475  	-0,047958  
186,557000  	20,995429  	37,983686  	25,368737  	1256,670793  	80,452445  	74,968226  	0,004963  	0,011845  	0,003966  	0,004102  	0,004445  	-0,000000  	-0,000000  	27,312513  	23,764429  	25,059045  	26,250000  	32,605801  	30,298891  	32,017923  	32,688909  	39,003893  	37,224294  	40,972305  	68,449595  	28,044931  	26,615965  	29,585867  	74,101166  	0,089521  	0,045361  	-3222,399587  	25523,413980  	-0,018523  	-0,050000  	0,378599  	0,191839  	-4,411559  	16893,466043  	21678,632641  	3,144220  	-0,047952  
187,561000  	20,986774  	37,990719  	25,368461  	357,439972  	80,448008  	74,970035  	0,004978  	0,011875  	0,003966  	0,004184  	0,004441  	0,000001  	-0,000000  	27,323351  	23,771174  	25,066976  	26,254439  	32,601804  	30,300004  	32,034871  	32,696756  	39,002788  	37,236541  	40,980855  	68,447056  	28,053225  	26,621036  	29,591338  	74,114363  	0,155999  	0,079046  	-5620,531791  	12474,043978  	-0,036441  	-0,049985  	0,375924  	0,190483  	-4,375396  	16956,970653  	22009,197725  	3,192164  	-0,047939  
188,558000  	20,967562  	37,994975  	25,368092  	956,927186  	80,446883  	74,965855  	0,004959  	0,011821  	0,003960  	0,004202  	0,004467  	0,000000  	-0,000000  	27,322597  	23,776366  	25,062065  	26,250086  	32,605758  	30,311590  	32,031848  	32,703678  	39,009378  	37,237668  	40,991762  	68,448666  	28,062680  	26,636031  	29,596186  	74,110459  	0,169946  	0,086113  	-6131,484382  	22470,017089  	-0,022155  	-0,049999  	0,395898  	0,200604  	-4,610442  	16840,830635  	21579,170081  	3,129794  	-0,047950  
189,558000  	20,983705  	37,998029  	25,368123  	1256,670793  	80,444883  	74,965668  	0,004975  	0,011826  	0,003960  	0,004173  	0,004472  	-0,000001  	-0,000000  	27,320115  	23,758783  	25,051844  	26,251709  	32,598450  	30,305764  	32,026417  	32,692807  	38,996039  	37,226934  	40,981904  	68,444444  	28,058104  	26,633716  	29,590257  	74,101622  	0,147008  	0,074490  	-5299,814430  	25526,674837  	-0,018526  	-0,050008  	0,400193  	0,202781  	-4,658922  	16852,222640  	21934,576091  	3,181341  	-0,047958  
190,563000  	21,000339  	37,999571  	25,367754  	1256,670793  	80,447445  	74,967727  	0,004960  	0,011845  	0,003967  	0,004120  	0,004463  	-0,000001  	-0,000000  	27,324021  	23,760208  	25,051592  	26,248306  	32,603146  	30,300846  	32,023541  	32,690908  	38,993878  	37,232486  	40,977515  	68,437380  	28,063764  	26,642257  	29,596460  	74,103637  	0,103754  	0,052573  	-3737,139038  	25530,712736  	-0,018529  	-0,050016  	0,393112  	0,199193  	-4,576913  	16893,591261  	21604,462917  	3,133462  	-0,047965  
191,558000  	20,980452  	38,006234  	25,366187  	1256,670793  	80,442102  	74,964202  	0,004974  	0,011849  	0,003960  	0,004136  	0,004478  	0,000000  	-0,000000  	27,328455  	23,761830  	25,050723  	26,245419  	32,593461  	30,299888  	32,020752  	32,690008  	38,996489  	37,226209  	40,972911  	68,433033  	28,066704  	26,643727  	29,591844  	74,098246  	0,116984  	0,059277  	-4220,279817  	25521,745305  	-0,018522  	-0,049997  	0,404942  	0,205187  	-4,713077  	16901,073211  	21903,083615  	3,176774  	-0,047948  
192,562000  	20,955347  	38,012588  	25,365388  	1256,670793  	80,439290  	74,968008  	0,004957  	0,011877  	0,003959  	0,004191  	0,004459  	0,000000  	-0,000000  	27,317178  	23,750885  	25,048920  	26,237572  	32,593650  	30,295987  	32,023529  	32,687998  	38,996021  	37,221143  	40,969563  	68,429591  	28,060224  	26,638713  	29,584051  	74,097813  	0,161075  	0,081618  	-5821,612945  	25520,926373  	-0,018522  	-0,049995  	0,390085  	0,197659  	-4,534680  	16963,161514  	21547,148023  	3,125150  	-0,047947  
193,559000  	20,950252  	38,018017  	25,365265  	1256,670793  	80,435384  	74,964732  	0,004972  	0,011866  	0,003966  	0,004127  	0,004495  	-0,000001  	-0,000000  	27,311406  	23,749805  	25,052682  	26,239284  	32,593235  	30,291939  	32,023777  	32,682775  	38,992603  	37,218404  	40,969115  	68,434013  	28,061290  	26,633257  	29,582855  	74,095144  	0,109311  	0,055389  	-3953,184140  	25527,851498  	-0,018527  	-0,050010  	0,417931  	0,211769  	-4,857816  	16939,298649  	21867,100283  	3,171555  	-0,047960  
194,562000  	20,975541  	38,019251  	25,365511  	1256,670793  	80,437384  	74,962112  	0,004966  	0,011854  	0,003967  	0,004109  	0,004485  	-0,000001  	-0,000000  	27,314034  	23,750225  	25,058161  	26,243449  	32,596862  	30,291806  	32,018896  	32,679018  	38,990180  	37,222927  	40,968533  	68,432598  	28,071887  	26,632722  	29,586162  	74,100173  	0,094576  	0,047922  	-3415,479329  	25529,034125  	-0,018527  	-0,050013  	0,410351  	0,207928  	-4,773743  	16912,165967  	21740,092398  	3,153134  	-0,047962  
195,558000  	20,994692  	38,020732  	25,366156  	1256,670793  	80,439696  	74,963048  	0,004966  	0,011877  	0,003967  	0,004180  	0,004494  	-0,000001  	-0,000000  	27,313985  	23,747580  	25,054602  	26,246815  	32,594483  	30,290058  	32,017115  	32,683702  	38,990438  	37,225301  	40,969110  	68,430435  	28,074403  	26,632238  	29,582565  	74,101833  	0,152664  	0,077356  	-5507,515777  	25526,860053  	-0,018526  	-0,050008  	0,417361  	0,211480  	-4,856514  	16961,235846  	21746,489748  	3,154062  	-0,047958  
196,557000  	21,005864  	38,020115  	25,364988  	1256,670793  	80,439759  	74,967165  	0,004974  	0,011878  	0,003961  	0,004126  	0,004465  	-0,000001  	-0,000000  	27,312949  	23,744546  	25,045686  	26,248083  	32,587169  	30,285390  	32,017404  	32,689578  	38,991471  	37,221630  	40,967416  	68,427369  	28,072689  	26,634170  	29,579640  	74,096192  	0,108830  	0,055145  	-3923,426564  	25526,230636  	-0,018525  	-0,050006  	0,394687  	0,199991  	-4,589274  	16963,571833  	21914,423730  	3,178418  	-0,047957  
197,564000  	21,004606  	38,020146  	25,365234  	956,927186  	80,440165  	74,962050  	0,004963  	0,011835  	0,003960  	0,004134  	0,004466  	-0,000001  	-0,000000  	27,312579  	23,742373  	25,043400  	26,242297  	32,579971  	30,281973  	32,013341  	32,686887  	38,990490  	37,217044  	40,966992  	68,426494  	28,074983  	26,635822  	29,579551  	74,093232  	0,115203  	0,058374  	-4153,498278  	22473,576011  	-0,022158  	-0,050007  	0,395463  	0,200384  	-4,602931  	16870,933883  	21674,565452  	3,143630  	-0,047958  
198,559000  	20,996073  	38,022428  	25,365603  	-242,047242  	80,442165  	74,965169  	0,004976  	0,011855  	0,003966  	0,004109  	0,004437  	-0,000000  	-0,000000  	27,314595  	23,751527  	25,050750  	26,247354  	32,583898  	30,285342  	32,010546  	32,682827  	38,992336  	37,219094  	40,972758  	68,433213  	28,084295  	26,639619  	29,581666  	74,095418  	0,095032  	0,048153  	-3428,453115  	-27084,371870  	-0,102752  	-0,050004  	0,372341  	0,188668  	-4,332919  	16914,064045  	21956,882084  	3,184577  	-0,047955  
199,565000  	20,993495  	38,020762  	25,364865  	-242,047242  	80,443696  	74,963890  	0,004961  	0,011825  	0,003963  	0,004112  	0,004480  	0,000000  	-0,000000  	27,312733  	23,761574  	25,054014  	26,256641  	32,596619  	30,292711  	32,013092  	32,685792  	38,996323  	37,225823  	40,976291  	68,433873  	28,093832  	26,648589  	29,586946  	74,096829  	0,097340  	0,049323  	-3511,886003  	-27081,677223  	-0,102742  	-0,049998  	0,406613  	0,206034  	-4,734166  	16850,850902  	21623,676152  	3,136249  	-0,047950  
200,557000  	21,008043  	38,019590  	25,364128  	956,927186  	80,446633  	74,961519  	0,004972  	0,011840  	0,003959  	0,004199  	0,004468  	-0,000001  	-0,000000  	27,308685  	23,759877  	25,050082  	26,248068  	32,588684  	30,297341  	32,015001  	32,691267  	38,996812  	37,224343  	40,976137  	68,436874  	28,092867  	26,649613  	29,585247  	74,097108  	0,167713  	0,084981  	-6045,261598  	22475,785452  	-0,022161  	-0,050013  	0,397249  	0,201289  	-4,629623  	16881,877368  	21872,085415  	3,172278  	-0,047962  
201,565000  	21,027348  	38,023168  	25,366033  	57,696365  	80,448726  	74,958369  	0,004960  	0,011864  	0,003965  	0,004141  	0,004486  	-0,000000  	-0,000000  	27,321693  	23,761687  	25,054903  	26,249355  	32,593362  	30,304786  	32,015450  	32,694681  	39,001053  	37,230889  	40,976744  	68,445773  	28,098283  	26,655478  	29,593100  	74,110477  	0,120928  	0,061275  	-4354,868628  	1750,313628  	-0,053817  	-0,050006  	0,410885  	0,208198  	-4,793117  	16934,284270  	21610,401297  	3,134324  	-0,047956  
202,557000  	21,020903  	38,027795  	25,366279  	657,183579  	80,449164  	74,961051  	0,004978  	0,011864  	0,003966  	0,004087  	0,004474  	0,000001  	-0,000000  	27,317649  	23,752642  	25,047930  	26,242389  	32,594847  	30,301690  	32,013788  	32,689571  	38,996573  	37,233791  	40,978181  	68,444395  	28,089526  	26,656271  	29,596040  	74,098144  	0,077392  	0,039215  	-2788,873317  	18434,637991  	-0,027555  	-0,049991  	0,401831  	0,203611  	-4,685587  	16934,770286  	22005,857828  	3,191680  	-0,047943  
203,561000  	21,009485  	38,030571  	25,365910  	657,183579  	80,447945  	74,964670  	0,004960  	0,011830  	0,003963  	0,004146  	0,004491  	0,000001  	-0,000000  	27,318353  	23,754835  	25,050519  	26,243898  	32,596218  	30,296296  	32,022994  	32,684063  	38,998027  	37,230358  	40,978177  	68,447283  	28,087617  	26,658653  	29,593620  	74,093773  	0,125210  	0,063445  	-4515,788327  	18434,895341  	-0,027555  	-0,049991  	0,415138  	0,210354  	-4,836494  	16861,122313  	21607,301477  	3,133874  	-0,047944  
204,561000  	21,011879  	38,034828  	25,366279  	57,696365  	80,449882  	74,969661  	0,004977  	0,011877  	0,003962  	0,004134  	0,004540  	0,000000  	-0,000000  	27,314974  	23,749893  	25,037881  	26,241226  	32,594112  	30,290282  	32,015231  	32,681774  	38,993967  	37,223737  	40,970259  	68,438874  	28,076219  	26,657262  	29,586096  	74,094390  	0,115436  	0,058492  	-4163,708633  	1750,080000  	-0,053810  	-0,049999  	0,453930  	0,230010  	-5,285486  	16961,651824  	21971,547975  	3,186704  	-0,047950  
205,558000  	21,005035  	38,037358  	25,366002  	1256,670793  	80,449133  	74,967197  	0,004961  	0,011841  	0,003964  	0,004150  	0,004458  	-0,000001  	-0,000000  	27,325262  	23,754923  	25,046364  	26,256169  	32,594703  	30,301589  	32,014530  	32,684260  	39,000209  	37,231303  	40,976227  	68,441878  	28,076325  	26,671821  	29,601056  	74,103890  	0,128291  	0,065006  	-4629,945613  	25527,373417  	-0,018526  	-0,050009  	0,388771  	0,196993  	-4,528194  	16883,800914  	21631,471599  	3,137380  	-0,047959  
206,562000  	20,987603  	38,041923  	25,367047  	657,183579  	80,448945  	74,972000  	0,004971  	0,011844  	0,003965  	0,004106  	0,004476  	-0,000000  	-0,000000  	27,321341  	23,757344  	25,050827  	26,244039  	32,597724  	30,301920  	32,015521  	32,695158  	39,001227  	37,228054  	40,975986  	68,442554  	28,083017  	26,684731  	29,596862  	74,101523  	0,092161  	0,046699  	-3330,352576  	18438,695064  	-0,027561  	-0,050003  	0,403360  	0,204386  	-4,693853  	16891,277912  	21857,179447  	3,170116  	-0,047954  
207,558000  	20,973055  	38,042848  	25,367785  	657,183579  	80,450570  	74,971408  	0,004964  	0,011824  	0,003963  	0,004148  	0,004482  	0,000000  	-0,000000  	27,321714  	23,753700  	25,049844  	26,241555  	32,592231  	30,311224  	32,021116  	32,700841  	38,995794  	37,223862  	40,985235  	68,435752  	28,070031  	26,699252  	29,589415  	74,097633  	0,126739  	0,064220  	-4584,015115  	18436,290103  	-0,027558  	-0,049996  	0,408015  	0,206744  	-4,749942  	16847,263443  	21694,421246  	3,146510  	-0,047948  
208,560000  	20,968390  	38,043218  	25,367354  	1256,670793  	80,447883  	74,971408  	0,004967  	0,011854  	0,003962  	0,004176  	0,004519  	-0,000001  	-0,000000  	27,323796  	23,756233  	25,057534  	26,258968  	32,602725  	30,304708  	32,022090  	32,696385  	39,001855  	37,219644  	40,979141  	68,448233  	28,070929  	26,709879  	29,601116  	74,095930  	0,149512  	0,075759  	-5409,271021  	25531,450878  	-0,018529  	-0,050018  	0,437422  	0,221645  	-5,089790  	16912,192850  	21760,710790  	3,156124  	-0,047967  
209,557000  	20,965812  	38,044761  	25,367293  	1256,670793  	80,446445  	74,970784  	0,004972  	0,011876  	0,003960  	0,004132  	0,004505  	-0,000000  	-0,000000  	27,319082  	23,744345  	25,046577  	26,248714  	32,596655  	30,302302  	32,022437  	32,687568  	38,985803  	37,225913  	40,980530  	68,438183  	28,070725  	26,715662  	29,602519  	74,089690  	0,113340  	0,057430  	-4101,582090  	25525,574679  	-0,018525  	-0,050005  	0,425836  	0,215774  	-4,954236  	16960,531937  	21860,441672  	3,170589  	-0,047956  
210,559000  	20,943163  	38,044452  	25,367908  	1256,670793  	80,445883  	74,968725  	0,004961  	0,011849  	0,003964  	0,004136  	0,004452  	-0,000001  	-0,000000  	27,320202  	23,750123  	25,050565  	26,245178  	32,582367  	30,287995  	32,014973  	32,685152  	38,984713  	37,218254  	40,977005  	68,428692  	28,060755  	26,710985  	29,584847  	74,082997  	0,117094  	0,059333  	-4242,994168  	25529,111582  	-0,018527  	-0,050013  	0,384064  	0,194608  	-4,469480  	16901,397222  	21641,215908  	3,138793  	-0,047962  
211,564000  	20,903020  	38,042509  	25,369751  	1256,670793  	80,446977  	74,969910  	0,004974  	0,011792  	0,003964  	0,004100  	0,004441  	0,000001  	-0,000000  	27,329154  	23,758236  	25,055578  	26,261106  	32,597962  	30,299447  	32,029009  	32,695131  	38,989242  	37,229230  	40,992563  	68,440884  	28,075809  	26,735602  	29,589416  	74,090975  	0,087300  	0,044236  	-3170,457046  	25515,140470  	-0,018517  	-0,049982  	0,375614  	0,190326  	-4,371069  	16779,684650  	21909,212644  	3,177663  	-0,047936  
212,557000  	20,880002  	38,041522  	25,371103  	1256,670793  	80,445039  	74,970472  	0,004959  	0,011879  	0,003962  	0,004091  	0,004517  	0,000001  	-0,000000  	27,335984  	23,768451  	25,067286  	26,266073  	32,602716  	30,309158  	32,035478  	32,697137  	39,004387  	37,239966  	40,990962  	68,442012  	28,079213  	26,756639  	29,595975  	74,110826  	0,080179  	0,040628  	-2915,604381  	25519,290825  	-0,018520  	-0,049992  	0,436081  	0,220965  	-5,072417  	16966,170990  	21597,126441  	3,132398  	-0,047944  
213,558000  	20,902314  	38,040288  	25,371226  	57,696365  	80,443977  	74,973841  	0,004980  	0,011825  	0,003962  	0,004165  	0,004464  	-0,000002  	-0,000000  	27,329228  	23,759429  	25,054447  	26,260713  	32,589666  	30,294298  	32,019212  	32,696673  	38,997560  	37,229188  	40,985080  	68,434175  	28,070086  	26,743798  	29,580467  	74,095261  	0,140014  	0,070946  	-5084,417304  	1750,610335  	-0,053834  	-0,050025  	0,393524  	0,199402  	-4,573702  	16849,700595  	22040,464246  	3,196699  	-0,047972  
214,572000  	20,935521  	38,036772  	25,371657  	1256,670793  	80,441227  	74,969723  	0,004963  	0,011851  	0,003963  	0,004162  	0,004483  	-0,000000  	-0,000000  	27,324613  	23,767582  	25,058268  	26,270022  	32,597087  	30,306807  	32,029135  	32,706731  	38,999255  	37,239387  	40,989135  	68,437346  	28,078606  	26,753213  	29,595001  	74,096640  	0,137709  	0,069778  	-4989,975663  	25525,115553  	-0,018525  	-0,050004  	0,408864  	0,207174  	-4,753170  	16906,700238  	21668,026879  	3,142682  	-0,047955  
215,565000  	20,954856  	38,032700  	25,372855  	357,439972  	80,436571  	74,957246  	0,004976  	0,011833  	0,003967  	0,004137  	0,004451  	0,000000  	-0,000000  	27,329569  	23,765174  	25,055996  	26,269421  	32,603186  	30,306489  	32,034142  	32,700345  	39,004371  	37,232581  	40,990622  	68,441444  	28,076329  	26,759490  	29,588456  	74,092277  	0,117455  	0,059515  	-4250,209603  	12476,940348  	-0,036450  	-0,049999  	0,383251  	0,194196  	-4,461778  	16868,239221  	21947,264875  	3,183182  	-0,047951  
216,560000  	20,979961  	38,028196  	25,373101  	956,927186  	80,432822  	74,960739  	0,004960  	0,011861  	0,003960  	0,004138  	0,004469  	0,000001  	-0,000000  	27,326394  	23,765425  	25,059256  	26,260458  	32,598563  	30,298201  	32,027077  	32,695723  	39,005076  	37,230440  	40,988929  	68,428868  	28,061589  	26,759046  	29,593139  	74,092651  	0,118784  	0,060189  	-4290,866198  	22465,013432  	-0,022150  	-0,049987  	0,397455  	0,201394  	-4,621025  	16928,128074  	21606,270557  	3,133725  	-0,047940  
217,557000  	21,022007  	38,018233  	25,374115  	1256,670793  	80,430541  	74,953721  	0,004976  	0,011811  	0,003963  	0,004088  	0,004447  	0,000001  	-0,000000  	27,328576  	23,762727  	25,054799  	26,251795  	32,597170  	30,300697  	32,028067  	32,691820  	39,003654  	37,228260  	40,989050  	68,434460  	28,059614  	26,761804  	29,592904  	74,092601  	0,077641  	0,039341  	-2796,079308  	25516,236445  	-0,018518  	-0,049985  	0,380348  	0,192725  	-4,425948  	16819,603006  	21948,945416  	3,183425  	-0,047939  
218,561000  	21,048893  	38,009905  	25,374668  	1256,670793  	80,431416  	74,952848  	0,004962  	0,011885  	0,003967  	0,004160  	0,004503  	0,000000  	-0,000000  	27,331934  	23,761811  	25,053334  	26,258883  	32,601798  	30,308526  	32,032070  	32,696008  	39,005851  	37,230678  	40,987491  	68,435360  	28,060171  	26,761845  	29,591843  	74,092713  	0,136334  	0,069081  	-4899,581757  	25522,137783  	-0,018523  	-0,049998  	0,424355  	0,215024  	-4,939616  	16979,187292  	21662,836976  	3,141929  	-0,047950  
219,558000  	21,046039  	38,003057  	25,376235  	357,439972  	80,435509  	74,954033  	0,004975  	0,011827  	0,003966  	0,004144  	0,004468  	-0,000000  	-0,000000  	27,329249  	23,762165  	25,052423  	26,256536  	32,601773  	30,308079  	32,027334  	32,687327  	39,003094  	37,231283  	40,986775  	68,436320  	28,057542  	26,756809  	29,594316  	74,084516  	0,123360  	0,062507  	-4432,282439  	12478,056226  	-0,036454  	-0,050005  	0,397291  	0,201310  	-4,627041  	16853,421054  	21939,864850  	3,182108  	-0,047956  
220,559000  	21,021056  	37,999787  	25,375990  	-242,047242  	80,434447  	74,957402  	0,004966  	0,011823  	0,003962  	0,004143  	0,004454  	0,000000  	-0,000000  	27,325023  	23,756355  	25,057183  	26,249365  	32,593857  	30,303095  	32,018655  	32,688096  	39,001217  	37,227105  	40,983495  	68,437692  	28,055013  	26,756636  	29,595282  	74,079515  	0,122787  	0,062217  	-4417,359470  	-27080,075172  	-0,102732  	-0,049994  	0,385448  	0,195309  	-4,485482  	16846,019753  	21735,601542  	3,152482  	-0,047947  
221,558000  	20,979347  	38,003674  	25,377219  	1256,670793  	80,433134  	74,957807  	0,004967  	0,011878  	0,003963  	0,004125  	0,004515  	0,000001  	-0,000000  	27,326933  	23,758345  	25,066747  	26,253214  	32,592352  	30,306422  	32,022985  	32,693021  	39,000340  	37,226591  	40,984795  	68,436617  	28,059447  	26,757906  	29,595796  	74,087883  	0,108310  	0,054882  	-3907,022088  	25518,057285  	-0,018520  	-0,049989  	0,434441  	0,220135  	-5,054036  	16963,663801  	21757,632153  	3,155678  	-0,047942  
222,561000  	20,956820  	38,008301  	25,377833  	657,183579  	80,436821  	74,955125  	0,004974  	0,011843  	0,003961  	0,004129  	0,004478  	0,000001  	-0,000000  	27,325601  	23,763105  	25,059313  	26,255299  	32,595524  	30,305094  	32,028808  	32,691356  	39,002182  	37,228326  	40,984476  	68,432434  	28,068509  	26,756478  	29,599112  	74,087891  	0,110793  	0,056140  	-4002,982295  	18432,219100  	-0,027552  	-0,049985  	0,404458  	0,204942  	-4,710700  	16889,060068  	21913,625827  	3,178303  	-0,047938  
223,557000  	20,926712  	38,014778  	25,378940  	657,183579  	80,438446  	74,953721  	0,004966  	0,011904  	0,003964  	0,004113  	0,004477  	-0,000000  	-0,000000  	27,320340  	23,756838  	25,048303  	26,248448  	32,591004  	30,299535  	32,020921  	32,686754  	38,998553  	37,222302  	40,980647  	68,431062  	28,067734  	26,750738  	29,593516  	74,079745  	0,098426  	0,049873  	-3563,778638  	18437,278368  	-0,027560  	-0,050000  	0,403706  	0,204561  	-4,704535  	17021,304390  	21730,616410  	3,151759  	-0,047952  
224,557000  	20,908053  	38,021873  	25,379308  	1256,670793  	80,436821  	74,959149  	0,004976  	0,011829  	0,003965  	0,004149  	0,004432  	0,000001  	-0,000000  	27,322754  	23,750338  	25,052635  	26,244813  	32,588471  	30,301649  	32,015095  	32,684423  	38,992466  	37,212703  	40,979721  	68,431744  	28,061627  	26,747036  	29,585121  	74,076005  	0,127280  	0,064494  	-4615,486369  	25515,716856  	-0,018518  	-0,049984  	0,368735  	0,186841  	-4,291489  	16858,070390  	21954,947345  	3,184296  	-0,047938  
225,564000  	20,922845  	38,029924  	25,381337  	956,927186  	80,439946  	74,958899  	0,004964  	0,011857  	0,003962  	0,004116  	0,004482  	0,000002  	-0,000000  	27,324452  	23,753343  	25,057286  	26,251173  	32,597954  	30,305159  	32,020111  	32,695663  	38,996730  	37,218642  	40,983591  	68,430909  	28,067834  	26,757617  	29,596721  	74,077104  	0,100421  	0,050884  	-3640,058737  	22459,280913  	-0,022145  	-0,049973  	0,407955  	0,206714  	-4,750867  	16918,840721  	21694,350635  	3,146500  	-0,047928  
226,557000  	20,948012  	38,033810  	25,381460  	357,439972  	80,443696  	74,962330  	0,004975  	0,011849  	0,003963  	0,004121  	0,004466  	0,000002  	-0,000000  	27,319069  	23,758805  	25,055706  	26,254165  	32,597924  	30,305887  	32,024358  	32,700323  	38,992110  	37,229484  	40,992614  	68,432347  	28,072917  	26,761528  	29,603193  	74,088994  	0,104811  	0,053109  	-3794,466157  	12471,365004  	-0,036435  	-0,049976  	0,395594  	0,200450  	-4,607184  	16901,318695  	21927,938663  	3,180379  	-0,047931  
227,564000  	20,954088  	38,034643  	25,382289  	1256,670793  	80,443602  	74,962143  	0,004964  	0,011873  	0,003963  	0,004076  	0,004465  	0,000002  	-0,000000  	27,321133  	23,759103  	25,046503  	26,248226  	32,586789  	30,300693  	32,026432  	32,690298  	38,990220  	37,221626  	40,990813  	68,425324  	28,066227  	26,748474  	29,587344  	74,088205  	0,068571  	0,034746  	-2481,718617  	25509,932873  	-0,018514  	-0,049972  	0,394816  	0,200056  	-4,598202  	16954,607783  	21690,262262  	3,145907  	-0,047927  
228,558000  	20,952370  	38,031435  	25,383211  	57,696365  	80,443289  	74,959772  	0,004980  	0,011860  	0,003965  	0,004126  	0,004460  	0,000001  	-0,000000  	27,327594  	23,761817  	25,048328  	26,259227  	32,602891  	30,306475  	32,025440  	32,692549  	39,001474  	37,228848  	40,997019  	68,431760  	28,070411  	26,754542  	29,593231  	74,081105  	0,108665  	0,055061  	-3932,437592  	1748,744967  	-0,053797  	-0,049987  	0,390254  	0,197745  	-4,546784  	16925,828874  	22038,006986  	3,196343  	-0,047940  
229,564000  	20,932451  	38,023693  	25,383488  	1256,670793  	80,449632  	74,959117  	0,004960  	0,011808  	0,003963  	0,004132  	0,004432  	0,000001  	-0,000000  	27,322179  	23,758998  	25,044773  	26,250645  	32,600360  	30,294971  	32,018784  	32,686785  	38,990898  	37,225635  	40,991941  	68,430483  	28,065530  	26,743667  	29,598158  	74,084859  	0,113947  	0,057738  	-4126,520144  	25514,828278  	-0,018517  	-0,049983  	0,368670  	0,186808  	-4,300790  	16812,657300  	21611,785271  	3,134524  	-0,047937  
230,557000  	20,918948  	38,018017  	25,384287  	657,183579  	80,449008  	74,963297  	0,004977  	0,011879  	0,003964  	0,004115  	0,004450  	0,000003  	-0,000000  	27,324704  	23,765226  	25,050852  	26,255427  	32,600533  	30,304466  	32,023864  	32,693626  	39,001233  	37,231791  	40,995144  	68,431919  	28,073665  	26,740427  	29,604959  	74,092988  	0,099551  	0,050443  	-3606,850485  	18426,046248  	-0,027543  	-0,049967  	0,382869  	0,194003  	-4,462528  	16966,231831  	21972,162290  	3,186793  	-0,047923  
231,559000  	20,938559  	38,013113  	25,385577  	657,183579  	80,451257  	74,965387  	0,004960  	0,011859  	0,003960  	0,004131  	0,004448  	0,000002  	-0,000000  	27,326944  	23,757968  	25,051477  	26,250660  	32,591178  	30,305102  	32,022052  	32,687074  	38,996004  	37,218480  	40,993831  	68,430169  	28,065713  	26,722655  	29,595475  	74,085037  	0,112808  	0,057160  	-4081,272955  	18428,128693  	-0,027546  	-0,049973  	0,381105  	0,193109  	-4,442099  	16923,011824  	21620,173850  	3,135741  	-0,047929  
232,558000  	20,971275  	38,010583  	25,386499  	57,696365  	80,454507  	74,968694  	0,004976  	0,011824  	0,003965  	0,004139  	0,004453  	0,000001  	-0,000000  	27,330788  	23,762767  	25,047293  	26,263124  	32,598786  	30,297074  	32,024193  	32,684459  	38,998594  	37,232313  	40,986712  	68,430231  	28,075528  	26,715921  	29,595336  	74,084652  	0,119155  	0,060377  	-4302,012712  	1748,699073  	-0,053801  	-0,049991  	0,384646  	0,194903  	-4,483328  	16847,832230  	21954,361274  	3,184211  	-0,047944  
233,559000  	20,963296  	38,008578  	25,387821  	1256,670793  	80,451695  	74,967134  	0,004962  	0,011931  	0,003963  	0,004122  	0,004440  	0,000000  	-0,000000  	27,335997  	23,763348  	25,055477  	26,264516  	32,609843  	30,301525  	32,026757  	32,698465  	38,996501  	37,232697  	40,998837  	68,434984  	28,076151  	26,717005  	29,595793  	74,084864  	0,105112  	0,053261  	-3796,335424  	25522,227530  	-0,018523  	-0,049999  	0,374655  	0,189840  	-4,365872  	17078,111608  	21660,937542  	3,141653  	-0,047951  
234,561000  	20,935183  	38,009442  	25,389480  	1256,670793  	80,447758  	74,974683  	0,004968  	0,011831  	0,003966  	0,004111  	0,004450  	-0,000000  	-0,000000  	27,318952  	23,767306  	25,049623  	26,258669  	32,598534  	30,307221  	32,022766  	32,687157  	38,992908  	37,233257  	40,997641  	68,429292  	28,069641  	26,706287  	29,595466  	74,093782  	0,096207  	0,048749  	-3480,609316  	25522,796148  	-0,018523  	-0,050001  	0,382350  	0,193740  	-4,446217  	16863,677608  	21781,717543  	3,159171  	-0,047952  
235,558000  	20,918886  	38,007129  	25,390955  	357,439972  	80,443196  	74,977147  	0,004970  	0,011842  	0,003960  	0,004142  	0,004419  	0,000001  	-0,000000  	27,316981  	23,754937  	25,036914  	26,250582  	32,584771  	30,295387  	32,014388  	32,690798  	38,983551  	37,219097  	40,993642  	68,424009  	28,050875  	26,686575  	29,586832  	74,086936  	0,121653  	0,061642  	-4404,819778  	12474,859953  	-0,036446  	-0,049994  	0,358096  	0,181450  	-4,158833  	16886,822416  	21818,406984  	3,164492  	-0,047946  
236,560000  	20,925086  	38,005710  	25,392615  	-242,047242  	80,435947  	74,969162  	0,004966  	0,011823  	0,003956  	0,004143  	0,004500  	0,000001  	-0,000000  	27,327086  	23,757981  	25,066328  	26,251653  	32,594849  	30,299514  	32,025767  	32,681970  	38,997723  	37,246863  	40,995860  	68,435222  	28,068355  	26,697224  	29,598113  	74,094490  	0,122418  	0,062030  	-4430,565470  	-27078,037649  	-0,102717  	-0,049989  	0,422311  	0,213988  	-4,905267  	16846,854539  	21740,085336  	3,153133  	-0,047942  
237,562000  	20,932298  	38,007437  	25,393321  	-242,047242  	80,432822  	74,964607  	0,004975  	0,011837  	0,003962  	0,004102  	0,004483  	-0,000000  	-0,000000  	27,325675  	23,756695  	25,055154  	26,252029  	32,595388  	30,297015  	32,026526  	32,692044  	38,991729  	37,230936  	40,995720  	68,425985  	28,070118  	26,689381  	29,589052  	74,088812  	0,089170  	0,045183  	-3226,188148  	-27083,924808  	-0,102740  	-0,050002  	0,409196  	0,207343  	-4,754165  	16875,803235  	21943,056464  	3,182571  	-0,047953  
238,557000  	20,929904  	38,013730  	25,394428  	357,439972  	80,434884  	74,961239  	0,004966  	0,011854  	0,003964  	0,004123  	0,004459  	0,000000  	-0,000000  	27,331246  	23,764556  	25,051845  	26,258953  	32,593587  	30,304516  	32,032457  	32,695775  	38,996167  	37,229453  	41,009358  	68,439187  	28,073303  	26,692165  	29,604248  	74,095043  	0,106409  	0,053918  	-3851,861514  	12474,883037  	-0,036446  	-0,049995  	0,389536  	0,197381  	-4,530247  	16913,254019  	21735,996963  	3,152540  	-0,047947  
239,563000  	20,934232  	38,016413  	25,395534  	1256,670793  	80,436165  	74,955343  	0,004977  	0,011865  	0,003962  	0,004157  	0,004484  	-0,000001  	-0,000000  	27,324917  	23,756378  	25,058141  	26,262035  	32,599316  	30,297132  	32,013289  	32,687133  	38,994186  	37,230424  	41,002664  	68,429665  	28,068736  	26,677202  	29,596437  	74,088668  	0,133941  	0,067869  	-4848,014653  	25525,848323  	-0,018525  	-0,050008  	0,409964  	0,207732  	-4,774064  	16936,477353  	21977,768798  	3,187606  	-0,047958  
240,557000  	20,935336  	38,014501  	25,396272  	1256,670793  	80,437415  	74,952598  	0,004963  	0,011841  	0,003957  	0,004174  	0,004448  	-0,000001  	-0,000000  	27,316947  	23,754995  	25,050111  	26,252429  	32,583904  	30,293884  	32,021228  	32,684069  	38,994710  	37,227993  	40,987378  	68,423705  	28,069974  	26,673503  	29,592307  	74,086542  	0,147481  	0,074730  	-5337,164799  	25525,342227  	-0,018525  	-0,050007  	0,381334  	0,193225  	-4,443901  	16883,638201  	21685,453658  	3,145209  	-0,047957  
241,558000  	20,950498  	38,011447  	25,396855  	1256,670793  	80,439634  	74,955281  	0,004978  	0,011895  	0,003953  	0,004152  	0,004493  	0,000000  	-0,000000  	27,325130  	23,757414  	25,059523  	26,259020  	32,593158  	30,301539  	32,029256  	32,695210  	38,996515  	37,236688  	41,005747  	68,438603  	28,076308  	26,678409  	29,598403  	74,083996  	0,129603  	0,065671  	-4685,173121  	25520,265825  	-0,018521  	-0,049996  	0,417029  	0,211312  	-4,859466  	17001,369266  	21991,749763  	3,189634  	-0,047948  
242,562000  	20,957863  	38,009164  	25,398208  	657,183579  	80,436509  	74,953534  	0,004960  	0,011839  	0,003956  	0,004126  	0,004479  	-0,000001  	-0,000000  	27,334848  	23,763617  	25,064348  	26,260522  	32,595696  	30,301921  	32,031177  	32,694669  	38,999420  	37,237792  	41,009075  	68,437368  	28,089281  	26,687033  	29,597908  	74,084911  	0,108863  	0,055162  	-3933,184745  	18438,997852  	-0,027563  	-0,050008  	0,406000  	0,205723  	-4,729763  	16880,666220  	21605,507959  	3,133614  	-0,047958  
243,557000  	20,964492  	38,006851  	25,399129  	657,183579  	80,434665  	74,956684  	0,004975  	0,011837  	0,003959  	0,004181  	0,004456  	-0,000001  	-0,000000  	27,330976  	23,765247  	25,056736  	26,257120  	32,597948  	30,302145  	32,017249  	32,696427  	38,999847  	37,235784  	41,007636  	68,437929  	28,089959  	26,680775  	29,601681  	74,084737  	0,153665  	0,077863  	-5548,957143  	18439,450107  	-0,027564  	-0,050009  	0,387729  	0,196465  	-4,512796  	16875,968777  	21934,978573  	3,181400  	-0,047960  
244,558000  	20,970508  	38,004877  	25,399375  	1256,670793  	80,435728  	74,961176  	0,004959  	0,011835  	0,003958  	0,004159  	0,004453  	-0,000000  	-0,000000  	27,328853  	23,761343  	25,048315  	26,252911  	32,599113  	30,299587  	32,020488  	32,692975  	38,996197  	37,236141  	40,998938  	68,437385  	28,095950  	26,681468  	29,602372  	74,089134  	0,135652  	0,068736  	-4896,205986  	25522,365296  	-0,018523  	-0,050000  	0,384862  	0,195012  	-4,476624  	16871,332175  	21587,855226  	3,131054  	-0,047952  
245,561000  	20,974835  	38,000867  	25,398730  	956,927186  	80,441477  	74,959523  	0,004974  	0,011865  	0,003958  	0,004141  	0,004440  	0,000001  	-0,000000  	27,326230  	23,763339  	25,050758  	26,251232  	32,597417  	30,300387  	32,022358  	32,690895  	38,997626  	37,238940  	41,000319  	68,436676  	28,098064  	26,678141  	29,606027  	74,088318  	0,121076  	0,061350  	-4367,956434  	22464,432583  	-0,022150  	-0,049988  	0,374426  	0,189724  	-4,361126  	16935,503907  	21917,523550  	3,178868  	-0,047941  
246,562000  	20,975879  	38,000127  	25,399775  	-242,047242  	80,444227  	74,963391  	0,004961  	0,011845  	0,003960  	0,004177  	0,004498  	-0,000001  	-0,000000  	27,324972  	23,764422  	25,059904  	26,247282  	32,592226  	30,299683  	32,020226  	32,686749  	38,997019  	37,235176  	40,997237  	68,433175  	28,099417  	26,680656  	29,604677  	74,086985  	0,149845  	0,075928  	-5405,261986  	-27090,625207  	-0,102762  	-0,050015  	0,421013  	0,213330  	-4,902749  	16892,307954  	21642,564577  	3,138989  	-0,047964  
247,558000  	20,977168  	38,003643  	25,400605  	657,183579  	80,448476  	74,963734  	0,004970  	0,011821  	0,003961  	0,004170  	0,004467  	-0,000001  	-0,000000  	27,319927  	23,763074  	25,061708  	26,249268  	32,590307  	30,299766  	32,015873  	32,682641  	38,992679  	37,230228  	40,993923  	68,430126  	28,099513  	26,681177  	29,601383  	74,089540  	0,144324  	0,073130  	-5206,785172  	18440,952167  	-0,027566  	-0,050014  	0,396251  	0,200783  	-4,617679  	16841,474411  	21828,228964  	3,165917  	-0,047964  
248,567000  	20,982262  	38,004137  	25,400727  	57,696365  	80,449664  	74,962673  	0,004968  	0,011905  	0,003962  	0,004147  	0,004436  	-0,000001  	-0,000000  	27,321511  	23,761117  	25,058696  	26,256987  	32,597321  	30,305311  	32,016460  	32,689543  	38,993313  	37,230972  	40,997102  	68,434439  	28,096437  	26,681081  	29,607792  	74,089447  	0,126078  	0,063885  	-4547,293097  	1748,510978  	-0,053819  	-0,050011  	0,371815  	0,188401  	-4,334695  	17023,015703  	21780,248835  	3,158958  	-0,047961  
249,557000  	20,989229  	38,005895  	25,401281  	-242,047242  	80,448164  	74,962299  	0,004966  	0,011867  	0,003966  	0,004121  	0,004475  	-0,000000  	-0,000000  	27,325889  	23,755921  	25,052025  	26,250507  	32,597887  	30,298357  	32,015346  	32,687646  	38,988039  	37,225006  	40,993504  	68,433635  	28,091334  	26,679388  	29,606150  	74,082800  	0,104784  	0,053095  	-3778,133192  	-27084,625191  	-0,102739  	-0,050003  	0,402265  	0,203830  	-4,688719  	16941,640295  	21738,531896  	3,152907  	-0,047954  
250,559000  	20,971920  	38,009658  	25,400727  	357,439972  	80,446914  	74,966791  	0,004974  	0,011865  	0,003964  	0,004135  	0,004470  	-0,000000  	-0,000000  	27,323014  	23,752446  	25,053250  	26,243584  	32,590456  	30,292039  	32,010450  	32,683843  	38,986334  	37,224575  	40,990231  	68,430142  	28,089052  	26,672755  	29,598451  	74,081653  	0,116011  	0,058784  	-4188,113539  	12476,574818  	-0,036452  	-0,050004  	0,398270  	0,201806  	-4,637302  	16937,106980  	21923,101814  	3,179677  	-0,047955  
251,561000  	20,939694  	38,013637  	25,400635  	357,439972  	80,442227  	74,965668  	0,004964  	0,011829  	0,003962  	0,004129  	0,004485  	0,000000  	-0,000000  	27,323057  	23,750632  	25,058767  	26,251805  	32,586893  	30,299655  	32,017339  	32,690063  	38,994430  	37,231179  	40,991906  	68,433270  	28,091409  	26,672380  	29,597305  	74,088002  	0,111167  	0,056329  	-4021,784279  	12475,001640  	-0,036447  	-0,049997  	0,410217  	0,207860  	-4,773303  	16858,657570  	21699,561722  	3,147255  	-0,047948  
252,557000  	20,908636  	38,016598  	25,401250  	956,927186  	80,443164  	74,963859  	0,004976  	0,011869  	0,003963  	0,004169  	0,004445  	-0,000000  	-0,000000  	27,315327  	23,746129  	25,044410  	26,248153  	32,581065  	30,290038  	32,016609  	32,673903  	38,985358  	37,217350  	40,984850  	68,427537  	28,085373  	26,665967  	29,589807  	74,084850  	0,143202  	0,072562  	-5191,071059  	22470,400132  	-0,022156  	-0,050003  	0,379064  	0,192074  	-4,413014  	16944,915063  	21962,608631  	3,185407  	-0,047954  
253,558000  	20,915817  	38,020732  	25,401219  	1256,670793  	80,446039  	74,959772  	0,004962  	0,011838  	0,003962  	0,004159  	0,004450  	-0,000001  	-0,000000  	27,309940  	23,747762  	25,042924  	26,241435  	32,581412  	30,285024  	32,009184  	32,669661  	38,985776  	37,218590  	40,983573  	68,425544  	28,078128  	26,664111  	29,600349  	74,082581  	0,135686  	0,068753  	-4917,717114  	25526,346292  	-0,018526  	-0,050009  	0,382989  	0,194064  	-4,464377  	16878,628068  	21648,100474  	3,139792  	-0,047959  
254,557000  	20,955224  	38,025605  	25,401526  	1256,670793  	80,443914  	74,965512  	0,004978  	0,011885  	0,003967  	0,004100  	0,004453  	-0,000001  	-0,000000  	27,323019  	23,751573  	25,042865  	26,243366  	32,580090  	30,285893  	32,015055  	32,681803  	38,990417  	37,227944  	40,992441  	68,429068  	28,076008  	26,670334  	29,610523  	74,080518  	0,087621  	0,044398  	-3169,259411  	25525,882173  	-0,018526  	-0,050008  	0,385053  	0,195109  	-4,482004  	16979,482297  	22003,810111  	3,191383  	-0,047958  
255,560000  	20,980452  	38,028104  	25,401987  	357,439972  	80,443727  	74,969130  	0,004961  	0,011871  	0,003966  	0,004111  	0,004506  	-0,000002  	-0,000000  	27,318303  	23,753446  	25,054569  	26,244579  	32,575598  	30,283807  	32,016483  	32,684969  	38,989230  	37,227932  	40,980125  	68,427351  	28,074639  	26,665371  	29,601329  	74,073718  	0,096916  	0,049108  	-3500,787084  	12481,670961  	-0,036467  	-0,050027  	0,426947  	0,216337  	-4,966200  	16949,191575  	21638,101966  	3,138341  	-0,047974  
256,558000  	20,970385  	38,027240  	25,401496  	-242,047242  	80,441227  	74,961207  	0,004977  	0,011861  	0,003963  	0,004171  	0,004459  	0,000000  	-0,000000  	27,314951  	23,755292  	25,054379  	26,247744  	32,584020  	30,286046  	32,017069  	32,682069  	38,982121  	37,218914  	40,980974  	68,428295  	28,071709  	26,664610  	29,595868  	74,085366  	0,145132  	0,073539  	-5245,268278  	-27082,646346  	-0,102731  	-0,049999  	0,389731  	0,197479  	-4,537785  	16927,543016  	21984,321493  	3,188556  	-0,047950  
257,567000  	20,968636  	38,019991  	25,401035  	956,927186  	80,442133  	74,957277  	0,004960  	0,011844  	0,003964  	0,004132  	0,004512  	-0,000000  	-0,000000  	27,309187  	23,747015  	25,043334  	26,241632  	32,586381  	30,291314  	32,018974  	32,681106  	38,980726  	37,222443  	40,974406  	68,425962  	28,065338  	26,673624  	29,601329  	74,078577  	0,113369  	0,057445  	-4096,000902  	22471,795125  	-0,022157  	-0,050006  	0,432154  	0,218975  	-5,036172  	16891,289939  	21619,291213  	3,135613  	-0,047957  
258,559000  	20,995582  	38,015611  	25,401772  	357,439972  	80,442321  	74,954158  	0,004976  	0,011857  	0,003967  	0,004145  	0,004520  	-0,000001  	-0,000000  	27,307083  	23,732305  	25,041518  	26,232815  	32,576957  	30,288371  	32,006119  	32,681098  	38,979644  	37,217254  	40,960338  	68,417280  	28,049592  	26,672670  	29,587204  	74,073909  	0,123814  	0,062737  	-4465,144109  	12477,941460  	-0,036456  	-0,050010  	0,437789  	0,221831  	-5,104921  	16919,979709  	21952,207641  	3,183899  	-0,047960  
259,558000  	21,016667  	38,008393  	25,401219  	1256,670793  	80,438790  	74,957371  	0,004962  	0,011889  	0,003967  	0,004135  	0,004470  	-0,000001  	-0,000000  	27,325572  	23,751465  	25,046180  	26,247360  	32,586734  	30,295067  	32,019806  	32,690518  	38,996577  	37,224098  	40,972549  	68,425225  	28,053504  	26,675012  	29,604789  	74,091319  	0,115911  	0,058733  	-4173,192051  	25526,897641  	-0,018526  	-0,050010  	0,398604  	0,201976  	-4,642285  	16987,439651  	21646,095123  	3,139501  	-0,047960  
260,565000  	21,013966  	38,010676  	25,401096  	1256,670793  	80,436040  	74,959305  	0,004974  	0,011828  	0,003964  	0,004115  	0,004471  	-0,000001  	-0,000000  	27,309949  	23,750422  	25,043685  	26,232924  	32,586455  	30,286539  	32,022510  	32,696833  	38,983404  	37,214845  	40,975631  	68,424177  	28,046907  	26,681451  	29,596880  	74,080391  	0,099499  	0,050417  	-3583,347437  	25527,864148  	-0,018527  	-0,050012  	0,399291  	0,202324  	-4,646311  	16856,095908  	21919,048746  	3,179089  	-0,047962  
261,559000  	21,010069  	38,014223  	25,399928  	1256,670793  	80,439571  	74,960428  	0,004961  	0,011821  	0,003960  	0,004129  	0,004493  	-0,000000  	-0,000000  	27,307304  	23,742457  	25,036841  	26,224705  	32,580575  	30,270818  	32,006587  	32,672406  	38,975510  	37,217428  	40,958296  	68,414266  	28,047995  	26,678856  	29,588320  	74,078988  	0,111385  	0,056440  	-4013,173025  	25523,137955  	-0,018524  	-0,050002  	0,416430  	0,211008  	-4,847881  	16842,134458  	21628,392962  	3,136933  	-0,047953  
262,567000  	21,027808  	38,017123  	25,400973  	1256,670793  	80,438759  	74,957683  	0,004970  	0,011899  	0,003963  	0,004163  	0,004469  	0,000001  	-0,000000  	27,318883  	23,754295  	25,049636  	26,241467  	32,585365  	30,295144  	32,007776  	32,687527  	38,986610  	37,224605  	40,971753  	68,432895  	28,043949  	26,695586  	29,615587  	74,085792  	0,138876  	0,070370  	-4999,302072  	25516,108515  	-0,018518  	-0,049987  	0,397945  	0,201642  	-4,634320  	17009,207769  	21830,742714  	3,166282  	-0,047940  
263,557000  	21,038212  	38,018233  	25,401158  	357,439972  	80,438384  	74,965325  	0,004970  	0,011848  	0,003959  	0,004167  	0,004464  	-0,000000  	-0,000000  	27,320757  	23,755548  	25,045408  	26,234654  	32,591372  	30,299868  	32,010897  	32,683852  	38,984886  	37,228798  	40,976625  	68,437094  	28,048355  	26,685821  	29,602909  	74,089497  	0,142280  	0,072094  	-5119,019561  	12476,135825  	-0,036451  	-0,050002  	0,393675  	0,199478  	-4,577898  	16898,904889  	21820,278173  	3,164764  	-0,047953  
264,558000  	21,029742  	38,021503  	25,400482  	-242,047242  	80,442821  	74,963079  	0,004967  	0,011918  	0,003963  	0,004136  	0,004433  	-0,000001  	-0,000000  	27,319135  	23,746550  	25,047026  	26,240288  	32,588655  	30,294211  	32,020922  	32,687107  	38,973278  	37,222919  	40,967098  	68,431184  	28,044602  	26,685822  	29,603020  	74,083393  	0,116676  	0,059121  	-4200,734939  	-27087,206761  	-0,102749  	-0,050008  	0,369289  	0,187121  	-4,299558  	17049,669443  	21757,759253  	3,155696  	-0,047958  
265,559000  	21,003900  	38,027518  	25,400666  	1256,670793  	80,442789  	74,966417  	0,004977  	0,011818  	0,003964  	0,004138  	0,004473  	0,000001  	-0,000000  	27,325601  	23,750294  	25,051827  	26,243536  	32,586744  	30,290634  	32,011989  	32,687861  	38,982498  	37,225202  	40,972550  	68,433842  	28,053045  	26,692451  	29,601970  	74,080948  	0,118071  	0,059828  	-4258,950368  	25516,324057  	-0,018519  	-0,049987  	0,401242  	0,203312  	-4,668716  	16836,101358  	21972,698933  	3,186871  	-0,047940  
266,558000  	20,990457  	38,033502  	25,399621  	657,183579  	80,442290  	74,969099  	0,004963  	0,011897  	0,003966  	0,004094  	0,004484  	0,000001  	-0,000000  	27,326398  	23,760367  	25,050897  	26,254182  	32,588715  	30,296607  	32,026238  	32,691079  	38,999721  	37,231507  	40,979223  	68,441597  	28,051923  	26,703008  	29,606251  	74,083615  	0,082460  	0,041783  	-2977,817723  	18432,884005  	-0,027554  	-0,049990  	0,409257  	0,207374  	-4,759211  	17005,634458  	21675,095034  	3,143707  	-0,047942  
267,561000  	20,983551  	38,037481  	25,398423  	-242,047242  	80,443727  	74,971033  	0,004979  	0,011858  	0,003968  	0,004138  	0,004420  	0,000001  	-0,000000  	27,314063  	23,752674  	25,049672  	26,240369  	32,580848  	30,287969  	32,019347  	32,675435  	38,987519  	37,220727  	40,965447  	68,422348  	28,038708  	26,691066  	29,600653  	74,082394  	0,118520  	0,060055  	-4282,755352  	-27075,300020  	-0,102705  	-0,049984  	0,358948  	0,181882  	-4,173795  	16921,947117  	22029,653712  	3,195131  	-0,047937  
268,557000  	20,989812  	38,042910  	25,398054  	956,927186  	80,443164  	74,978208  	0,004962  	0,011887  	0,003961  	0,004139  	0,004420  	0,000003  	-0,000000  	27,318465  	23,764129  	25,062194  	26,256914  	32,600097  	30,300236  	32,024609  	32,695123  	38,997039  	37,230645  	40,976063  	68,429582  	28,054309  	26,694694  	29,613420  	74,090483  	0,119311  	0,060456  	-4311,123110  	22454,073098  	-0,022140  	-0,049962  	0,358556  	0,181683  	-4,163345  	16984,469792  	21662,907587  	3,141939  	-0,047919  
269,561000  	20,979316  	38,048339  	25,397347  	1256,670793  	80,444883  	74,975712  	0,004975  	0,011816  	0,003960  	0,004127  	0,004487  	0,000002  	-0,000000  	27,318767  	23,756840  	25,059214  	26,250527  	32,599171  	30,298839  	32,018870  	32,687721  	38,988360  	37,230471  	40,965838  	68,427839  	28,051607  	26,690044  	29,613295  	74,080497  	0,109520  	0,055495  	-3961,038239  	25512,334734  	-0,018516  	-0,049978  	0,412201  	0,208865  	-4,789929  	16829,906959  	21927,910419  	3,180375  	-0,047933  
270,558000  	20,946538  	38,048215  	25,396794  	657,183579  	80,447945  	74,968538  	0,004961  	0,011894  	0,003960  	0,004139  	0,004493  	0,000000  	-0,000000  	27,323521  	23,753629  	25,053171  	26,247882  	32,589947  	30,296603  	32,019644  	32,686338  	38,987932  	37,229386  	40,966308  	68,430021  	28,045386  	26,693984  	29,616342  	74,081461  	0,118858  	0,060226  	-4306,994770  	18435,107551  	-0,027557  	-0,049996  	0,416682  	0,211136  	-4,851060  	16998,627204  	21638,349104  	3,138377  	-0,047948  
271,560000  	20,915695  	38,046550  	25,394213  	657,183579  	80,451070  	74,968975  	0,004973  	0,011816  	0,003962  	0,004102  	0,004459  	-0,000001  	-0,000000  	27,330558  	23,769806  	25,067130  	26,260997  	32,600620  	30,306263  	32,029234  	32,695471  	38,994662  	37,233555  	40,978342  	68,437819  	28,053148  	26,704603  	29,619876  	74,086730  	0,089432  	0,045316  	-3246,228085  	18439,205420  	-0,027563  	-0,050008  	0,389741  	0,197484  	-4,539627  	16830,627847  	21894,313737  	3,175502  	-0,047958  
272,557000  	20,896974  	38,047167  	25,393537  	1256,670793  	80,450132  	74,969411  	0,004961  	0,011872  	0,003961  	0,004123  	0,004450  	-0,000001  	-0,000000  	27,327577  	23,767776  	25,068073  	26,262252  	32,601776  	30,301730  	32,029272  	32,695033  	38,995065  	37,236731  	40,973110  	68,424605  	28,053520  	26,704662  	29,612935  	74,078089  	0,106131  	0,053777  	-3856,746247  	25525,376643  	-0,018525  	-0,050006  	0,382949  	0,194043  	-4,459406  	16950,992733  	21640,792242  	3,138732  	-0,047957  
273,557000  	20,888902  	38,047290  	25,392277  	956,927186  	80,447633  	74,970503  	0,004978  	0,011842  	0,003959  	0,004169  	0,004464  	0,000000  	-0,000000  	27,317314  	23,755022  	25,051031  	26,248583  	32,590130  	30,293663  	32,015948  	32,688931  	38,988078  	37,225674  	40,964040  	68,413538  	28,045776  	26,705604  	29,602475  	74,073724  	0,143338  	0,072631  	-5211,325258  	22467,920979  	-0,022153  	-0,049996  	0,393922  	0,199603  	-4,584172  	16887,080634  	21989,130098  	3,189254  	-0,047948  
274,566000  	20,907807  	38,045069  	25,392645  	357,439972  	80,444133  	74,966697  	0,004958  	0,011857  	0,003957  	0,004155  	0,004443  	-0,000001  	-0,000000  	27,323219  	23,759062  	25,049600  	26,246933  	32,587941  	30,298560  	32,015447  	32,689709  	38,991693  	37,217583  	40,966837  	68,421990  	28,049821  	26,715182  	29,595821  	74,079914  	0,132100  	0,066936  	-4796,810619  	12479,159155  	-0,036459  	-0,050013  	0,377502  	0,191283  	-4,393335  	16918,404227  	21561,969258  	3,127299  	-0,047963  
275,557000  	20,941689  	38,043959  	25,392092  	1256,670793  	80,439571  	74,965824  	0,004972  	0,011857  	0,003955  	0,004156  	0,004443  	0,000001  	-0,000000  	27,332898  	23,769595  	25,057636  	26,256232  	32,598778  	30,301638  	32,027632  	32,696908  	38,999843  	37,222235  	40,972795  	68,426408  	28,057958  	26,723558  	29,604285  	74,085038  	0,132649  	0,067214  	-4806,913177  	25519,027723  	-0,018520  	-0,049992  	0,377075  	0,191066  	-4,385404  	16919,316125  	21860,420489  	3,170586  	-0,047945  
276,580000  	20,939602  	38,038530  	25,391846  	1256,670793  	80,440134  	74,964015  	0,004966  	0,011894  	0,003958  	0,004148  	0,004500  	0,000000  	-0,000000  	27,327335  	23,769020  	25,057131  	26,261607  	32,608188  	30,304794  	32,032670  	32,702489  	39,001094  	37,232426  	40,974150  	68,431630  	28,062751  	26,731397  	29,617615  	74,091688  	0,126799  	0,064250  	-4594,016753  	25521,457912  	-0,018522  	-0,049998  	0,422117  	0,213890  	-4,911374  	16998,728369  	21731,901529  	3,151946  	-0,047950  
277,562000  	20,926620  	38,029399  	25,391078  	-242,047242  	80,442383  	74,964701  	0,004966  	0,011865  	0,003964  	0,004143  	0,004445  	-0,000000  	-0,000000  	27,319334  	23,761297  	25,053949  	26,254364  	32,605138  	30,305545  	32,024594  	32,695427  	39,000411  	37,240143  	40,969151  	68,436028  	28,061225  	26,735037  	29,612536  	74,091948  	0,122451  	0,062047  	-4437,505655  	-27086,034163  	-0,102748  	-0,050006  	0,378627  	0,191853  	-4,406622  	16935,675817  	21741,391639  	3,153322  	-0,047957  
278,562000  	20,932697  	38,019097  	25,391447  	357,439972  	80,448070  	74,963266  	0,004973  	0,011834  	0,003962  	0,004141  	0,004452  	-0,000001  	-0,000000  	27,311885  	23,758774  	25,047939  	26,237892  	32,600856  	30,294813  	32,012926  	32,685064  	38,990763  	37,232450  	40,962421  	68,419726  	28,052059  	26,731460  	29,610144  	74,080811  	0,121066  	0,061345  	-4383,082884  	12479,491264  	-0,036459  	-0,050015  	0,384505  	0,194831  	-4,480850  	16868,856821  	21893,035679  	3,175316  	-0,047964  
279,558000  	20,936472  	38,010953  	25,392184  	1256,670793  	80,451945  	74,965918  	0,004963  	0,011866  	0,003966  	0,004142  	0,004463  	-0,000001  	-0,000000  	27,319345  	23,762444  	25,050954  	26,249502  	32,602457  	30,304473  	32,026457  	32,697977  	38,993284  	37,233369  	40,963966  	68,423128  	28,065977  	26,739869  	29,621479  	74,085008  	0,121616  	0,061624  	-4399,930596  	25526,820335  	-0,018526  	-0,050010  	0,393316  	0,199296  	-4,584555  	16937,863240  	21685,545452  	3,145222  	-0,047960  
280,556000  	20,973792  	38,010151  	25,392307  	1256,670793  	80,453820  	74,966666  	0,004975  	0,011839  	0,003963  	0,004151  	0,004470  	-0,000001  	-0,000000  	27,329485  	23,765247  	25,061732  	26,258720  	32,602057  	30,309352  	32,024069  	32,700380  	38,999115  	37,232971  	40,970342  	68,431129  	28,068621  	26,742129  	29,617175  	74,089889  	0,129375  	0,065555  	-4670,192919  	25525,756629  	-0,018525  	-0,050007  	0,398765  	0,202057  	-4,649023  	16880,559395  	21925,135409  	3,179972  	-0,047958  
281,564000  	21,004698  	38,010583  	25,392246  	956,927186  	80,458944  	74,964857  	0,004962  	0,011861  	0,003959  	0,004093  	0,004443  	-0,000001  	-0,000000  	27,323725  	23,756577  	25,051881  	26,259864  	32,591524  	30,300276  	32,015969  	32,694666  	38,991084  	37,229379  	40,966081  	68,425203  	28,060381  	26,737084  	29,605556  	74,088397  	0,082224  	0,041664  	-2962,811218  	22474,464402  	-0,022160  	-0,050012  	0,376999  	0,191028  	-4,400816  	16927,008187  	21653,805837  	3,140619  	-0,047962  
282,557000  	20,992483  	38,012866  	25,392983  	357,439972  	80,459194  	74,969723  	0,004975  	0,011840  	0,003961  	0,004167  	0,004452  	-0,000001  	-0,000000  	27,325513  	23,753235  	25,042939  	26,254877  	32,589241  	30,291446  	32,020352  	32,684762  	38,989834  	37,226521  	40,961524  	68,418708  	28,054666  	26,730957  	29,601797  	74,077933  	0,142225  	0,072066  	-5129,222653  	12477,916192  	-0,036455  	-0,050008  	0,384587  	0,194873  	-4,485624  	16883,066585  	21943,762573  	3,182674  	-0,047958  
283,564000  	20,984104  	38,012403  	25,392430  	1256,670793  	80,461100  	74,974309  	0,004959  	0,011851  	0,003964  	0,004138  	0,004483  	-0,000002  	-0,000000  	27,326372  	23,761938  	25,045216  	26,243079  	32,593261  	30,299326  	32,023159  	32,690073  	38,992083  	37,224176  	40,959026  	68,418773  	28,061687  	26,731189  	29,612887  	74,086804  	0,118105  	0,059845  	-4261,326284  	25531,064342  	-0,018529  	-0,050019  	0,409136  	0,207312  	-4,769628  	16906,461828  	21585,362660  	3,130692  	-0,047968  
284,558000  	20,987787  	38,011786  	25,391324  	57,696365  	80,457100  	74,981857  	0,004974  	0,011831  	0,003966  	0,004124  	0,004471  	-0,000001  	-0,000000  	27,327051  	23,761345  	25,058853  	26,263576  	32,597989  	30,299984  	32,028913  	32,694434  	39,000498  	37,226804  	40,963847  	68,436096  	28,058581  	26,729276  	29,607911  	74,086986  	0,107114  	0,054276  	-3863,809102  	1748,993115  	-0,053818  	-0,050009  	0,399291  	0,202324  	-4,645065  	16863,749768  	21922,085017  	3,179530  	-0,047959  
285,564000  	20,990825  	38,012681  	25,390802  	1256,670793  	80,454476  	74,976461  	0,004962  	0,011866  	0,003967  	0,004122  	0,004497  	-0,000001  	-0,000000  	27,332821  	23,762239  	25,061389  	26,259446  	32,594727  	30,298706  	32,025969  	32,691988  	38,994068  	37,234191  	40,964462  	68,431086  	28,058311  	26,728711  	29,615983  	74,078561  	0,105241  	0,053326  	-3795,747417  	25530,337752  	-0,018529  	-0,050017  	0,420211  	0,212924  	-4,890900  	16937,488294  	21646,914210  	3,139619  	-0,047966  
286,557000  	21,012370  	38,016814  	25,391170  	657,183579  	80,453101  	74,967103  	0,004973  	0,011850  	0,003966  	0,004131  	0,004468  	-0,000001  	-0,000000  	27,324733  	23,764100  	25,046950  	26,258072  	32,593361  	30,294166  	32,021876  	32,700075  	38,996644  	37,231299  	40,961628  	68,412175  	28,059417  	26,727829  	29,609371  	74,086296  	0,112964  	0,057240  	-4070,129672  	18439,196991  	-0,027563  	-0,050008  	0,396587  	0,200953  	-4,622654  	16903,286810  	21897,328823  	3,175939  	-0,047958  
287,558000  	21,021025  	38,021811  	25,392553  	-242,047242  	80,446789  	74,968756  	0,004961  	0,011841  	0,003965  	0,004118  	0,004471  	-0,000000  	-0,000000  	27,326872  	23,764167  	25,072002  	26,272498  	32,614342  	30,293545  	32,037524  	32,705254  	39,005208  	37,235544  	40,965165  	68,436033  	28,058627  	26,741315  	29,622131  	74,094701  	0,101957  	0,051663  	-3672,759709  	-27085,065148  	-0,102744  	-0,050004  	0,399161  	0,202258  	-4,645914  	16883,884392  	21625,971007  	3,136582  	-0,047955  
288,559000  	21,014212  	38,026685  	25,392246  	956,927186  	80,439852  	74,969754  	0,004973  	0,011907  	0,003962  	0,004131  	0,004473  	-0,000000  	-0,000000  	27,323059  	23,761007  	25,044462  	26,250518  	32,595571  	30,296573  	32,018110  	32,685825  	38,994634  	37,230645  	40,958054  	68,428812  	28,056066  	26,721508  	29,608552  	74,082544  	0,113125  	0,057321  	-4077,854595  	22471,672080  	-0,022157  	-0,050005  	0,400611  	0,202993  	-4,656037  	17026,709986  	21884,865994  	3,174131  	-0,047956  
289,558000  	20,984442  	38,031003  	25,393106  	956,927186  	80,435040  	74,968008  	0,004963  	0,011882  	0,003961  	0,004139  	0,004436  	0,000001  	-0,000000  	27,333042  	23,760216  	25,054596  	26,252605  	32,601567  	30,299633  	32,026556  	32,697059  	39,005330  	37,236769  	40,965196  	68,435633  	28,056928  	26,725465  	29,620573  	74,089155  	0,119230  	0,060414  	-4306,526612  	22466,529722  	-0,022152  	-0,049992  	0,371645  	0,188315  	-4,316962  	16972,676665  	21677,884165  	3,144111  	-0,047945  
290,560000  	20,963817  	38,034088  	25,393229  	357,439972  	80,435915  	74,971501  	0,004968  	0,011848  	0,003960  	0,004157  	0,004479  	0,000002  	-0,000000  	27,324430  	23,750430  	25,052309  	26,249805  	32,586820  	30,291229  	32,024361  	32,696273  	38,992254  	37,226865  	40,958119  	68,422733  	28,064173  	26,721500  	29,599513  	74,078232  	0,133897  	0,067847  	-4843,037518  	12469,745264  	-0,036431  	-0,049971  	0,405415  	0,205427  	-4,706965  	16898,703267  	21784,697324  	3,159603  	-0,047927  
291,556000  	20,972932  	38,034551  	25,393782  	357,439972  	80,442071  	74,966760  	0,004975  	0,011857  	0,003962  	0,004141  	0,004481  	0,000003  	-0,000000  	27,324167  	23,762941  	25,054395  	26,252884  	32,590705  	30,298789  	32,026904  	32,697574  	38,999149  	37,234455  	40,973750  	68,438829  	28,064453  	26,714595  	29,613545  	74,094023  	0,120735  	0,061177  	-4364,763882  	12468,749224  	-0,036428  	-0,049967  	0,407587  	0,206527  	-4,741617  	16919,484497  	21935,338689  	3,181452  	-0,047923  
292,561000  	20,970293  	38,038437  	25,395257  	-242,047242  	80,441508  	74,970441  	0,004965  	0,011837  	0,003966  	0,004099  	0,004497  	0,000002  	-0,000000  	27,325930  	23,755694  	25,048706  	26,256969  	32,598356  	30,291182  	32,018943  	32,687895  	38,999652  	37,229705  	40,963970  	68,429661  	28,066110  	26,723661  	29,622806  	74,096209  	0,087116  	0,044142  	-3150,594102  	-27072,808900  	-0,102697  	-0,049979  	0,419564  	0,212596  	-4,877180  	16875,023629  	21721,324012  	3,150412  	-0,047933  
293,558000  	20,961515  	38,043249  	25,394397  	1256,670793  	80,441352  	74,974433  	0,004978  	0,011866  	0,003965  	0,004080  	0,004511  	-0,000000  	-0,000000  	27,318880  	23,754358  	25,052668  	26,256844  	32,603188  	30,298364  	32,021595  	32,685472  	38,993892  	37,228332  	40,958219  	68,423530  	28,069435  	26,716158  	29,615140  	74,084783  	0,071274  	0,036115  	-2579,712077  	25523,834878  	-0,018524  	-0,050003  	0,430628  	0,218203  	-5,001999  	16938,504187  	21997,561043  	3,190476  	-0,047954  
294,558000  	20,984656  	38,041830  	25,396241  	657,183579  	80,441040  	74,973498  	0,004964  	0,011819  	0,003963  	0,004118  	0,004448  	0,000001  	-0,000000  	27,327000  	23,756242  	25,057313  	26,257282  	32,601480  	30,308004  	32,025444  	32,691513  	38,994543  	37,232761  	40,959535  	68,432241  	28,069497  	26,707156  	29,619501  	74,091234  	0,101954  	0,051661  	-3684,827043  	18434,246740  	-0,027556  	-0,049993  	0,381369  	0,193242  	-4,430324  	16837,998728  	21686,710532  	3,145391  	-0,047946  
295,564000  	21,019368  	38,041923  	25,396149  	657,183579  	80,432541  	74,969411  	0,004976  	0,011868  	0,003961  	0,004155  	0,004428  	0,000001  	-0,000000  	27,325883  	23,760423  	25,061765  	26,256974  	32,601540  	30,305099  	32,027109  	32,704003  	38,995031  	37,241924  	40,962161  	68,435187  	28,071152  	26,705939  	29,625085  	74,094303  	0,131973  	0,066872  	-4760,091219  	18430,807914  	-0,027551  	-0,049983  	0,365019  	0,184958  	-4,236962  	16942,035050  	21949,799808  	3,183549  	-0,047937  
296,556000  	21,041957  	38,037604  	25,396948  	1256,670793  	80,424104  	74,957371  	0,004959  	0,011885  	0,003959  	0,004158  	0,004458  	-0,000000  	-0,000000  	27,327484  	23,758335  	25,061002  	26,254221  	32,604153  	30,299792  	32,030169  	32,703098  	38,995735  	37,241388  	40,957014  	68,432768  	28,075733  	26,709641  	29,624147  	74,091742  	0,134376  	0,068089  	-4839,096588  	25524,830646  	-0,018525  	-0,050006  	0,388880  	0,197048  	-4,516896  	16979,585584  	21579,431341  	3,129832  	-0,047956  
297,558000  	21,063932  	38,037882  	25,396948  	1256,670793  	80,423885  	74,955749  	0,004975  	0,011861  	0,003954  	0,004161  	0,004500  	-0,000000  	-0,000000  	27,332195  	23,756438  	25,060439  	26,259244  	32,599610  	30,302204  	32,030405  	32,697072  	38,990426  	37,231090  	40,954021  	68,434951  	28,074857  	26,699119  	29,617623  	74,086057  	0,136930  	0,069383  	-4924,746063  	25524,598892  	-0,018525  	-0,050005  	0,422266  	0,213965  	-4,905938  	16927,264282  	21924,012695  	3,179809  	-0,047956  
298,561000  	21,054479  	38,034366  	25,397747  	1256,670793  	80,423323  	74,953253  	0,004961  	0,011866  	0,003957  	0,004189  	0,004434  	0,000000  	-0,000000  	27,322326  	23,753594  	25,060924  	26,256797  	32,595016  	30,298899  	32,026446  	32,693633  	38,982453  	37,221007  	40,951313  	68,426354  	28,071454  	26,685837  	29,612663  	74,084679  	0,159420  	0,080779  	-5735,626713  	25520,801389  	-0,018522  	-0,049997  	0,369748  	0,187354  	-4,297296  	16937,515177  	21641,653696  	3,138856  	-0,047949  
299,560000  	21,029343  	38,031589  	25,399037  	1256,670793  	80,422854  	74,954189  	0,004977  	0,011850  	0,003966  	0,004154  	0,004518  	-0,000001  	-0,000000  	27,321668  	23,758559  	25,060902  	26,260968  	32,600225  	30,307837  	32,026387  	32,699427  	38,989880  	37,227470  	40,960190  	68,428194  	28,078063  	26,687342  	29,616994  	74,091029  	0,131127  	0,066443  	-4723,914836  	25530,048425  	-0,018529  	-0,050017  	0,436509  	0,221182  	-5,071912  	16904,580022  	21969,048348  	3,186341  	-0,047966  
300,559000  	21,012094  	38,029307  	25,398976  	57,696365  	80,423667  	74,954875  	0,004960  	0,011850  	0,003964  	0,004119  	0,004466  	-0,000000  	-0,000000  	27,329981  	23,762798  	25,061802  	26,263084  	32,601449  	30,311720  	32,025644  	32,701860  	39,002025  	37,236022  	40,964805  	68,430806  	28,083395  	26,687818  	29,619452  	74,089128  	0,103252  	0,052318  	-3722,983022  	1748,289361  	-0,053809  	-0,050001  	0,395079  	0,200190  	-4,590634  	16905,055426  	21603,749747  	3,133359  	-0,047952  
301,556000  	20,996687  	38,037604  	25,399898  	57,696365  	80,421292  	74,955218  	0,004975  	0,011819  	0,003963  	0,004090  	0,004448  	0,000000  	-0,000000  	27,327077  	23,762822  	25,058861  	26,256967  	32,596375  	30,303242  	32,022570  	32,698014  	38,997956  	37,234929  	40,957852  	68,422559  	28,081170  	26,680772  	29,616496  	74,080349  	0,079252  	0,040158  	-2861,609044  	1748,194643  	-0,053808  	-0,049999  	0,381464  	0,193291  	-4,430225  	16836,327740  	21937,308734  	3,181738  	-0,047951  
302,565000  	20,971398  	38,043774  	25,401250  	1256,670793  	80,418917  	74,957464  	0,004964  	0,011863  	0,003967  	0,004074  	0,004462  	-0,000002  	-0,000000  	27,321901  	23,761766  	25,053175  	26,257977  	32,594595  	30,303643  	32,020660  	32,696454  	38,989994  	37,233485  	40,957597  	68,418636  	28,077600  	26,673126  	29,616550  	74,082282  	0,066682  	0,033788  	-2412,185003  	25531,922328  	-0,018530  	-0,050021  	0,391824  	0,198540  	-4,546699  	16932,298469  	21688,511111  	3,145653  	-0,047970  
