06/22/2020 16:08:53
Tempo T_f_e T_f_s AR AR T_q_e T_q_s Corrente_P_f Corrente_P_q Corrente_P_RESERVA Corrente_eletromag_f Corrente_eletromag_q AR AR T_1 T_2 T_3 T_4 T_5 T_6 T_7 T_8 T_9 T_10 T_11 T_12 T_13 T_14 T_15 T_16 Velocidade_f_(m/s) Vazao_f_(L/s) q_f_(W) AR AR AR Velocidade_q_(m/s) Vazao_q_(L/s) q_q_(W) DeltaP_q_(Pa) DeltaP_f_(Pa) DeltaP_f_(Psi) AR
0,006000  	25,393505  	32,621336  	25,126286  	57,696365  	80,419823  	74,421109  	0,010097  	0,012039  	0,003961  	0,004413  	0,004497  	-0,000001  	-0,000000  	28,086017  	26,868213  	27,968144  	27,736953  	31,125216  	29,511453  	30,965243  	30,413827  	33,504348  	32,596482  	35,547010  	67,095732  	27,582266  	26,535952  	29,725768  	73,562453  	0,341541  	0,173062  	-5229,174486  	1764,058335  	-0,053841  	-0,050010  	0,420186  	0,212911  	-5,354983  	17312,572701  	132300,071825  	19,188503  	-0,047960  
2,559000  	25,381827  	32,599902  	25,127330  	1256,670793  	80,419636  	74,413624  	0,010094  	0,012019  	0,003961  	0,004383  	0,004449  	0,000001  	-0,000000  	28,095118  	26,861631  	27,981664  	27,746501  	31,138916  	29,520100  	30,966833  	30,418063  	33,513184  	32,602249  	35,550709  	67,102799  	27,585551  	26,544547  	29,730149  	73,570803  	0,316619  	0,160433  	-4841,062621  	25526,085313  	-0,018522  	-0,049989  	0,381954  	0,193539  	-4,873667  	17267,625818  	132235,180378  	19,179091  	-0,047942  
3,561000  	25,380075  	32,577082  	25,127699  	357,439972  	80,417949  	74,413655  	0,010096  	0,011996  	0,003962  	0,004367  	0,004505  	0,000001  	-0,000000  	28,085164  	26,859273  	27,960360  	27,725026  	31,139626  	29,512043  	30,953851  	30,411412  	33,506534  	32,579031  	35,548984  	67,092185  	27,575538  	26,552122  	29,727597  	73,558605  	0,304039  	0,154059  	-4635,138093  	12486,947636  	-0,036453  	-0,049989  	0,426534  	0,216128  	-5,440935  	17218,351486  	132274,962577  	19,184861  	-0,047942  
4,562000  	25,418244  	32,562731  	25,127883  	956,927186  	80,415886  	74,414590  	0,010093  	0,012002  	0,003958  	0,004385  	0,004429  	-0,000000  	-0,000000  	28,087377  	26,862410  	27,965340  	27,734664  	31,136207  	29,512802  	30,960664  	30,415867  	33,507736  	32,588478  	35,543527  	67,090973  	27,567905  	26,559774  	29,726078  	73,564536  	0,318397  	0,161334  	-4818,598320  	22481,212293  	-0,022161  	-0,050005  	0,366111  	0,185511  	-4,667843  	17231,176070  	132210,304146  	19,175483  	-0,047955  
5,562000  	25,441262  	32,550444  	25,129174  	956,927186  	80,411949  	74,412314  	0,010083  	0,011988  	0,003959  	0,004393  	0,004452  	0,000000  	-0,000000  	28,091602  	26,867634  	27,971281  	27,735830  	31,139956  	29,526833  	30,966693  	30,414607  	33,503926  	32,596179  	35,550040  	67,095774  	27,563257  	26,561258  	29,729899  	73,564500  	0,325155  	0,164758  	-4896,555263  	22479,066022  	-0,022159  	-0,049999  	0,384468  	0,194813  	-4,900531  	17200,684434  	131987,011192  	19,143098  	-0,047951  
6,561000  	25,446179  	32,547241  	25,129358  	357,439972  	80,411074  	74,411690  	0,010099  	0,012054  	0,003962  	0,004351  	0,004477  	-0,000000  	-0,000000  	28,105254  	26,866197  	27,976964  	27,743245  	31,148778  	29,532088  	30,979061  	30,418588  	33,514449  	32,594179  	35,563639  	67,104559  	27,571363  	26,583263  	29,742397  	73,577895  	0,290686  	0,147293  	-4372,487852  	12489,545426  	-0,036461  	-0,050001  	0,403763  	0,204590  	-5,146253  	17343,202289  	132333,788546  	19,193393  	-0,047952  
7,562000  	25,447008  	32,556849  	25,129635  	1256,670793  	80,408169  	74,414185  	0,010087  	0,011986  	0,003958  	0,004384  	0,004451  	-0,000001  	-0,000000  	28,101337  	26,873153  	27,971156  	27,742671  	31,140501  	29,532411  	30,968338  	30,415317  	33,510840  	32,596174  	35,553616  	67,101189  	27,569134  	26,585703  	29,741780  	73,560996  	0,318035  	0,161151  	-4789,781906  	25535,283975  	-0,018529  	-0,050009  	0,383120  	0,194130  	-4,878752  	17196,645624  	132077,908646  	19,156281  	-0,047960  
8,562000  	25,459486  	32,567566  	25,129143  	57,696365  	80,405481  	74,416430  	0,010101  	0,011990  	0,003961  	0,004394  	0,004460  	-0,000001  	-0,000000  	28,101820  	26,873305  	27,966923  	27,745505  	31,132593  	29,515696  	30,967113  	30,417207  	33,506299  	32,588607  	35,543859  	67,102855  	27,562396  	26,574095  	29,737316  	73,555518  	0,325873  	0,165122  	-4906,608597  	1763,963211  	-0,053843  	-0,050012  	0,390414  	0,197826  	-4,967548  	17206,649620  	132378,901871  	19,199936  	-0,047962  
9,562000  	25,482842  	32,575727  	25,129727  	57,696365  	80,406263  	74,406138  	0,010094  	0,011977  	0,003965  	0,004370  	0,004420  	-0,000000  	-0,000000  	28,095570  	26,872942  	27,976969  	27,742099  	31,145324  	29,519890  	30,970990  	30,411965  	33,503342  	32,593928  	35,550661  	67,099268  	27,562337  	26,582778  	29,734749  	73,560884  	0,306454  	0,155282  	-4604,339972  	1763,639971  	-0,053834  	-0,050003  	0,359215  	0,182017  	-4,579013  	17178,000881  	132233,146783  	19,178796  	-0,047954  
10,564000  	25,462313  	32,579299  	25,129727  	1256,670793  	80,406763  	74,411191  	0,010095  	0,012010  	0,003965  	0,004410  	0,004477  	-0,000000  	-0,000000  	28,103295  	26,877729  	27,983441  	27,744597  	31,147667  	29,529736  	30,976786  	30,418789  	33,515345  	32,597294  	35,561606  	67,102118  	27,571818  	26,593963  	29,738112  	73,567669  	0,338696  	0,171620  	-5106,065838  	25533,323492  	-0,018527  	-0,050005  	0,403664  	0,204539  	-5,141721  	17249,826473  	132243,590140  	19,180311  	-0,047956  
11,647000  	25,433825  	32,586043  	25,128805  	1256,670793  	80,407169  	74,413436  	0,010082  	0,011998  	0,003964  	0,004416  	0,004461  	-0,000002  	-0,000000  	28,100838  	26,874716  	27,975702  	27,738486  	31,140640  	29,522349  	30,977638  	30,417926  	33,513331  	32,598603  	35,555630  	67,098676  	27,567205  	26,593934  	29,731083  	73,561546  	0,343544  	0,174076  	-5204,797117  	25541,233836  	-0,018533  	-0,050022  	0,391530  	0,198391  	-4,985635  	17223,687753  	131975,784054  	19,141469  	-0,047971  
12,563000  	25,412251  	32,589308  	25,128928  	57,696365  	80,411543  	74,414123  	0,010088  	0,012020  	0,003961  	0,004359  	0,004478  	0,000001  	-0,000000  	28,094996  	26,864668  	27,967553  	27,736334  	31,134405  	29,513924  	30,974051  	30,413870  	33,506340  	32,593292  	35,548631  	67,091203  	27,556563  	26,595480  	29,721198  	73,555690  	0,297385  	0,150687  	-4521,131091  	1763,351651  	-0,053824  	-0,049992  	0,404756  	0,205093  	-5,157229  	17270,276618  	132105,531643  	19,160287  	-0,047945  
13,562000  	25,424943  	32,582933  	25,130219  	1256,670793  	80,414199  	74,403394  	0,010093  	0,012007  	0,003961  	0,004374  	0,004477  	-0,000000  	-0,000000  	28,101508  	26,872449  	27,977986  	27,745767  	31,138597  	29,520905  	30,971591  	30,420434  	33,516363  	32,598294  	35,553998  	67,099539  	27,559053  	26,611818  	29,732427  	73,563688  	0,309278  	0,156713  	-4689,438276  	25531,714641  	-0,018526  	-0,050002  	0,404226  	0,204824  	-5,161956  	17242,159879  	132215,628210  	19,176256  	-0,047953  
14,564000  	25,433978  	32,573386  	25,130649  	1256,670793  	80,412824  	74,401772  	0,010095  	0,012000  	0,003959  	0,004431  	0,004452  	-0,000001  	-0,000000  	28,102635  	26,877777  	27,979561  	27,748226  	31,145561  	29,527764  	30,970293  	30,423657  	33,520565  	32,603050  	35,559600  	67,105355  	27,569336  	26,620673  	29,741807  	73,566813  	0,355909  	0,180342  	-5382,471313  	25535,269805  	-0,018529  	-0,050010  	0,384507  	0,194833  	-4,910349  	17228,184280  	132252,585973  	19,181616  	-0,047960  
15,564000  	25,442368  	32,569044  	25,130741  	357,439972  	80,414324  	74,408259  	0,010092  	0,012007  	0,003961  	0,004378  	0,004476  	-0,000000  	-0,000000  	28,097989  	26,871145  	27,973909  	27,742103  	31,145118  	29,525016  	30,968256  	30,422039  	33,512215  	32,596488  	35,559847  	67,104254  	27,573276  	26,609924  	29,738465  	73,564022  	0,313204  	0,158703  	-4728,197876  	12489,998581  	-0,036462  	-0,050003  	0,403293  	0,204352  	-5,145991  	17242,020512  	132191,090911  	19,172697  	-0,047954  
16,561000  	25,439049  	32,567320  	25,130987  	956,927186  	80,412449  	74,413811  	0,010098  	0,012026  	0,003962  	0,004371  	0,004425  	0,000000  	-0,000000  	28,098528  	26,871483  	27,981281  	27,739280  	31,146156  	29,521788  	30,969784  	30,426566  	33,510871  	32,595088  	35,558879  	67,104863  	27,571491  	26,611398  	29,740045  	73,567190  	0,306855  	0,155485  	-4633,374676  	22479,001054  	-0,022159  	-0,049999  	0,362496  	0,183679  	-4,619705  	17282,889676  	132321,473999  	19,191607  	-0,047951  
17,564000  	25,455060  	32,570676  	25,130249  	57,696365  	80,407262  	74,409974  	0,010092  	0,012028  	0,003961  	0,004395  	0,004494  	0,000000  	-0,000000  	28,095837  	26,863926  	27,974029  	27,740254  	31,146851  	29,521995  	30,974615  	30,426023  	33,512554  	32,598008  	35,553427  	67,099355  	27,571492  	26,620022  	29,735803  	73,563782  	0,327055  	0,165721  	-4929,615575  	1763,436719  	-0,053829  	-0,049997  	0,417852  	0,211729  	-5,323966  	17288,602303  	132186,762461  	19,172069  	-0,047949  
18,564000  	25,449528  	32,573078  	25,129942  	1256,670793  	80,411262  	74,407043  	0,010093  	0,011992  	0,003958  	0,004371  	0,004470  	-0,000001  	-0,000000  	28,094685  	26,856141  	27,963692  	27,740369  	31,141536  	29,525328  	30,970677  	30,416738  	33,509594  	32,597097  	35,548233  	67,097415  	27,571855  	26,610214  	29,726465  	73,557690  	0,307352  	0,155737  	-4637,804459  	25536,287350  	-0,018530  	-0,050012  	0,398383  	0,201864  	-5,081771  	17210,788887  	132214,632596  	19,176111  	-0,047961  
19,563000  	25,434040  	32,573633  	25,130680  	1256,670793  	80,414105  	74,411191  	0,010094  	0,011964  	0,003959  	0,004399  	0,004422  	-0,000001  	-0,000000  	28,101299  	26,866861  	27,973892  	27,739711  	31,140633  	29,524895  	30,962703  	30,416863  	33,507685  	32,589756  	35,552834  	67,092422  	27,573923  	26,612367  	29,729346  	73,563084  	0,329644  	0,167033  	-4985,387315  	25533,975032  	-0,018528  	-0,050007  	0,360609  	0,182723  	-4,598926  	17150,694875  	132232,066436  	19,178640  	-0,047957  
20,565000  	25,409577  	32,575912  	25,130741  	57,696365  	80,417605  	74,406076  	0,010100  	0,012056  	0,003963  	0,004381  	0,004480  	0,000002  	-0,000000  	28,103519  	26,866099  	27,972314  	27,742882  	31,138180  	29,517906  	30,970202  	30,419475  	33,513750  	32,597309  	35,553190  	67,095244  	27,581737  	26,613279  	29,736262  	73,567085  	0,314938  	0,159582  	-4780,836899  	1762,746939  	-0,053808  	-0,049976  	0,406029  	0,205738  	-5,185613  	17348,002311  	132365,358694  	19,197972  	-0,047931  
21,566000  	25,383179  	32,575850  	25,130249  	-242,047242  	80,418855  	74,409850  	0,010092  	0,011972  	0,003963  	0,004392  	0,004490  	-0,000001  	-0,000000  	28,104712  	26,869983  	27,973158  	27,735711  	31,144295  	29,512483  	30,979116  	30,416305  	33,514781  	32,606192  	35,549858  	67,103094  	27,585550  	26,625884  	29,737220  	73,565781  	0,324410  	0,164381  	-4942,732420  	-27084,496688  	-0,102844  	-0,050014  	0,414551  	0,210056  	-5,292227  	17167,447907  	132178,550409  	19,170878  	-0,047963  
22,565000  	25,366339  	32,565811  	25,130741  	357,439972  	80,414543  	74,410037  	0,010099  	0,012025  	0,003963  	0,004384  	0,004481  	0,000001  	-0,000000  	28,100228  	26,871941  	27,971444  	27,744413  	31,138807  	29,516274  	30,973067  	30,415072  	33,510733  	32,599465  	35,537559  	67,099203  	27,574778  	26,616723  	29,732937  	73,553802  	0,317547  	0,160903  	-4842,734566  	12487,706637  	-0,036456  	-0,049993  	0,406953  	0,206206  	-5,191345  	17280,459598  	132335,822141  	19,193688  	-0,047945  
23,563000  	25,383579  	32,553338  	25,131571  	1256,670793  	80,407606  	74,406980  	0,010097  	0,012033  	0,003962  	0,004338  	0,004450  	0,000000  	-0,000000  	28,099294  	26,862081  	27,974748  	27,736620  	31,139184  	29,515561  	30,977695  	30,420049  	33,513032  	32,597919  	35,553246  	67,099080  	27,582300  	26,613695  	29,741160  	73,566970  	0,280629  	0,142197  	-4262,062536  	25530,709842  	-0,018525  	-0,050000  	0,382448  	0,193789  	-4,875586  	17298,195980  	132296,746050  	19,188021  	-0,047951  
24,564000  	25,403677  	32,538680  	25,131263  	57,696365  	80,405169  	74,408353  	0,010095  	0,012004  	0,003961  	0,004397  	0,004508  	0,000002  	-0,000000  	28,089564  	26,870374  	27,968799  	27,736965  	31,130978  	29,514187  	30,969808  	30,407982  	33,511525  	32,593809  	35,547844  	67,093728  	27,587846  	26,592807  	29,737712  	73,558168  	0,328530  	0,166469  	-4965,365305  	1762,814898  	-0,053811  	-0,049979  	0,428415  	0,217081  	-5,458123  	17236,474842  	132251,992841  	19,181530  	-0,047934  
25,565000  	25,431643  	32,529318  	25,131079  	1256,670793  	80,408887  	74,411815  	0,010090  	0,012021  	0,003957  	0,004385  	0,004486  	-0,000001  	-0,000000  	28,098873  	26,861439  	27,975587  	27,741352  	31,146011  	29,519137  	30,969899  	30,414093  	33,506416  	32,591883  	35,539798  	67,091930  	27,573785  	26,576826  	29,738284  	73,568813  	0,318789  	0,161533  	-4792,922266  	25536,809516  	-0,018530  	-0,050013  	0,410811  	0,208161  	-5,234069  	17272,336701  	132135,350641  	19,164612  	-0,047962  
26,565000  	25,425496  	32,533814  	25,131940  	1256,670793  	80,413074  	74,405826  	0,010091  	0,011997  	0,003960  	0,004336  	0,004454  	0,000001  	-0,000000  	28,102527  	26,874381  	27,976863  	27,735782  	31,138037  	29,514849  	30,975745  	30,419772  	33,505928  	32,607225  	35,546191  	67,096049  	27,589724  	26,572438  	29,739641  	73,575076  	0,279085  	0,141414  	-4202,274759  	25527,592459  	-0,018523  	-0,049993  	0,385759  	0,195467  	-4,923226  	17220,709404  	132163,037187  	19,168628  	-0,047945  
27,565000  	25,405859  	32,545547  	25,133507  	357,439972  	80,410200  	74,406762  	0,010095  	0,012006  	0,003959  	0,004404  	0,004495  	-0,000000  	-0,000000  	28,088342  	26,863633  	27,969819  	27,734718  	31,128721  	29,516760  	30,965038  	30,405860  	33,499150  	32,589906  	35,549042  	67,091679  	27,574880  	26,567944  	29,720923  	73,557955  	0,333674  	0,169075  	-5046,419054  	12489,601610  	-0,036461  	-0,050002  	0,418411  	0,212012  	-5,336558  	17239,697259  	132254,697240  	19,181922  	-0,047953  
28,565000  	25,401864  	32,556141  	25,133322  	-242,047242  	80,402013  	74,412813  	0,010095  	0,012001  	0,003957  	0,004394  	0,004469  	-0,000001  	-0,000000  	28,086672  	26,857541  	27,970298  	27,737626  	31,139544  	29,512006  	30,968218  	30,399508  	33,499186  	32,591041  	35,538786  	67,085061  	27,564104  	26,540133  	29,733757  	73,556714  	0,325857  	0,165114  	-4938,258674  	-27085,006604  	-0,102845  	-0,050015  	0,397474  	0,201403  	-5,057497  	17230,366044  	132252,515362  	19,181606  	-0,047964  
29,560000  	25,356413  	32,552414  	25,134582  	1256,670793  	80,395295  	74,413436  	0,010091  	0,012019  	0,003960  	0,004400  	0,004453  	-0,000000  	-0,000000  	28,100284  	26,873315  	27,967425  	27,735277  	31,138799  	29,515540  	30,973132  	30,420636  	33,514203  	32,596636  	35,551489  	67,101988  	27,584294  	26,532722  	29,743270  	73,569733  	0,330840  	0,167639  	-5043,028674  	25532,322952  	-0,018527  	-0,050003  	0,385123  	0,195145  	-4,894334  	17267,687365  	132158,242705  	19,167933  	-0,047954  
30,565000  	25,302573  	32,544531  	25,134582  	1256,670793  	80,394295  	74,402832  	0,010092  	0,012016  	0,003957  	0,004411  	0,004518  	-0,000000  	-0,000000  	28,098470  	26,869472  	27,980586  	27,737546  	31,135116  	29,521555  	30,969744  	30,417098  	33,512542  	32,591126  	35,548166  	67,095361  	27,581185  	26,514500  	29,728648  	73,558815  	0,339700  	0,172129  	-5211,176427  	25532,251907  	-0,018527  	-0,050003  	0,436204  	0,221028  	-5,552388  	17261,720765  	132193,364583  	19,173027  	-0,047954  
31,600000  	25,289020  	32,537879  	25,135227  	357,439972  	80,392827  	74,400649  	0,010095  	0,012018  	0,003957  	0,004399  	0,004411  	-0,000000  	-0,000000  	28,101770  	26,873439  	27,978808  	27,739108  	31,139893  	29,531438  	30,968879  	30,411799  	33,514892  	32,600376  	35,550230  	67,097815  	27,589394  	26,500081  	29,736566  	73,558099  	0,330294  	0,167362  	-5071,710021  	12489,234881  	-0,036461  	-0,050001  	0,351694  	0,178206  	-4,477210  	17267,079669  	132243,350063  	19,180276  	-0,047952  
32,585000  	25,335178  	32,514721  	25,134797  	-242,047242  	80,391827  	74,396595  	0,010093  	0,012038  	0,003962  	0,004382  	0,004467  	0,000001  	-0,000000  	28,091111  	26,868294  	27,967531  	27,736663  	31,131438  	29,515943  	30,967204  	30,400731  	33,506896  	32,589002  	35,543124  	67,093535  	27,583598  	26,500801  	29,736145  	73,558333  	0,316286  	0,160264  	-4810,165235  	-27070,207129  	-0,102788  	-0,049984  	0,396108  	0,200711  	-5,045174  	17309,548368  	132203,384275  	19,174480  	-0,047938  
33,566000  	25,379215  	32,487067  	25,136303  	1256,670793  	80,391639  	74,396096  	0,010090  	0,012019  	0,003962  	0,004402  	0,004483  	-0,000001  	-0,000000  	28,084315  	26,864051  	27,962406  	27,731067  	31,124861  	29,514319  	30,963730  	30,400419  	33,500909  	32,589651  	35,549714  	67,087008  	27,592032  	26,499091  	29,725953  	73,554935  	0,332386  	0,168422  	-5004,523101  	25535,340820  	-0,018529  	-0,050010  	0,408608  	0,207045  	-5,204657  	17267,552243  	132151,499361  	19,166955  	-0,047960  
34,589000  	25,390954  	32,481277  	25,136364  	1256,670793  	80,391139  	74,386365  	0,010090  	0,012033  	0,003961  	0,004342  	0,004486  	-0,000001  	-0,000001  	28,085070  	26,862872  	27,963984  	27,734523  	31,125884  	29,513034  	30,958152  	30,399185  	33,506324  	32,595071  	35,548486  	67,086180  	27,593832  	26,496526  	29,729898  	73,557115  	0,283744  	0,143775  	-4261,613935  	25533,753402  	-0,018528  	-0,050007  	0,410905  	0,208209  	-5,241969  	17298,769012  	132148,625496  	19,166538  	-0,047957  
35,565000  	25,402755  	32,494673  	25,136917  	357,439972  	80,391952  	74,394380  	0,010091  	0,012019  	0,003960  	0,004430  	0,004485  	-0,000001  	-0,000000  	28,087037  	26,859242  	27,957986  	27,729398  	31,126609  	29,511829  	30,953022  	30,394963  	33,502800  	32,585755  	35,537334  	67,084677  	27,582624  	26,495671  	29,725427  	73,552750  	0,355381  	0,180074  	-5338,742401  	12490,676863  	-0,036465  	-0,050008  	0,410000  	0,207750  	-5,224160  	17268,458482  	132159,824390  	19,168162  	-0,047958  
36,566000  	25,411421  	32,510748  	25,136979  	-242,047242  	80,391952  	74,395503  	0,010097  	0,012025  	0,003957  	0,004381  	0,004442  	0,000000  	-0,000000  	28,095037  	26,864451  	27,966680  	27,730805  	31,131534  	29,513203  	30,959018  	30,402755  	33,501857  	32,589720  	35,540239  	67,095838  	27,588790  	26,497347  	29,735990  	73,556526  	0,315345  	0,159787  	-4742,243125  	-27076,754306  	-0,102812  	-0,049998  	0,375941  	0,190492  	-4,789289  	17280,490018  	132288,533999  	19,186830  	-0,047949  
37,565000  	25,450266  	32,522851  	25,137839  	956,927186  	80,392327  	74,396033  	0,010092  	0,012041  	0,003959  	0,004420  	0,004485  	0,000000  	-0,000000  	28,087531  	26,859920  	27,965710  	27,727157  	31,130127  	29,506258  	30,963863  	30,407130  	33,500508  	32,590349  	35,542313  	67,095426  	27,599853  	26,494408  	29,736615  	73,555927  	0,346855  	0,175754  	-5196,451785  	22478,887552  	-0,022159  	-0,050000  	0,410271  	0,207887  	-5,226496  	17316,235857  	132179,143541  	19,170964  	-0,047951  
38,561000  	25,459486  	32,529811  	25,137839  	357,439972  	80,395389  	74,393913  	0,010094  	0,012007  	0,003959  	0,004367  	0,004476  	-0,000001  	-0,000000  	28,081309  	26,851389  	27,955264  	27,720463  	31,122776  	29,501074  	30,958631  	30,400435  	33,490262  	32,583466  	35,535619  	67,091478  	27,597325  	26,487879  	29,724043  	73,556207  	0,303623  	0,153848  	-4547,300415  	12491,672491  	-0,036468  	-0,050012  	0,402999  	0,204202  	-5,138291  	17242,983346  	132238,075426  	19,179511  	-0,047962  
39,562000  	25,446394  	32,542837  	25,138853  	357,439972  	80,398701  	74,394474  	0,010084  	0,011992  	0,003962  	0,004415  	0,004499  	-0,000000  	-0,000000  	28,076570  	26,848366  	27,950432  	27,717618  	31,115702  	29,500861  	30,947775  	30,394292  	33,482005  	32,574404  	35,523917  	67,085781  	27,582957  	26,483060  	29,717282  	73,552752  	0,342758  	0,173678  	-5152,395375  	12489,396721  	-0,036461  	-0,050002  	0,421497  	0,213576  	-5,376610  	17209,884064  	132003,640067  	19,145509  	-0,047954  
40,563000  	25,441723  	32,558358  	25,139529  	956,927186  	80,397326  	74,393601  	0,010093  	0,012009  	0,003962  	0,004352  	0,004465  	0,000001  	-0,000000  	28,077493  	26,855038  	27,958116  	27,721659  	31,120171  	29,502445  	30,950898  	30,400196  	33,490088  	32,577768  	35,525297  	67,091864  	27,584900  	26,492081  	29,725283  	73,554748  	0,292176  	0,148048  	-4404,534638  	22473,493652  	-0,022153  	-0,049986  	0,394673  	0,199984  	-5,034017  	17246,805678  	132198,102577  	19,173714  	-0,047940  
41,565000  	25,400788  	32,566026  	25,139990  	1256,670793  	80,397170  	74,394100  	0,010094  	0,012017  	0,003959  	0,004398  	0,004431  	-0,000001  	-0,000000  	28,085228  	26,864550  	27,967908  	27,727644  	31,124797  	29,502828  	30,959759  	30,409681  	33,499528  	32,585914  	35,539085  	67,103055  	27,595791  	26,506152  	29,739689  	73,561831  	0,329446  	0,166933  	-5000,303041  	25536,666507  	-0,018530  	-0,050013  	0,367219  	0,186073  	-4,683343  	17263,911725  	132224,087400  	19,177483  	-0,047963  
42,565000  	25,370487  	32,567012  	25,139068  	657,183579  	80,404044  	74,393726  	0,010094  	0,012014  	0,003964  	0,004367  	0,004451  	-0,000001  	-0,000000  	28,085722  	26,862945  	27,963011  	27,726758  	31,120740  	29,498158  	30,953206  	30,403657  	33,496267  	32,582761  	35,540738  	67,096346  	27,590351  	26,509220  	29,742472  	73,563290  	0,303850  	0,153963  	-4631,954387  	18449,518977  	-0,027568  	-0,050006  	0,383365  	0,194254  	-4,895162  	17256,730440  	132239,056918  	19,179654  	-0,047957  
43,565000  	25,360807  	32,561930  	25,138884  	657,183579  	80,410293  	74,394474  	0,010094  	0,012012  	0,003961  	0,004392  	0,004446  	-0,000000  	-0,000000  	28,087388  	26,858755  	27,956486  	27,720480  	31,121499  	29,497590  	30,949885  	30,395935  	33,494361  	32,585250  	35,532748  	67,094531  	27,585173  	26,514153  	29,737111  	73,564081  	0,323995  	0,164171  	-4942,208405  	18449,378216  	-0,027568  	-0,050006  	0,379301  	0,192195  	-4,847704  	17253,960081  	132225,810307  	19,177732  	-0,047957  
44,562000  	25,351711  	32,545362  	25,139068  	1256,670793  	80,411668  	74,399963  	0,010092  	0,012024  	0,003960  	0,004400  	0,004463  	0,000000  	-0,000000  	28,087900  	26,854404  	27,960818  	27,715610  	31,120388  	29,502070  	30,957148  	30,397246  	33,495449  	32,587438  	35,529463  	67,100984  	27,586723  	26,526760  	29,736012  	73,555277  	0,330512  	0,167473  	-5036,395134  	25530,418269  	-0,018525  	-0,049999  	0,392914  	0,199092  	-5,018250  	17279,895763  	132177,095824  	19,170667  	-0,047951  
45,562000  	25,396763  	32,528794  	25,138362  	-242,047242  	80,416480  	74,398716  	0,010099  	0,012011  	0,003961  	0,004357  	0,004444  	-0,000001  	-0,000000  	28,080375  	26,840792  	27,961436  	27,719136  	31,119380  	29,497835  	30,955066  	30,386058  	33,492961  	32,575550  	35,529152  	67,095411  	27,587459  	26,537474  	29,732457  	73,550479  	0,296264  	0,150119  	-4475,833536  	-27081,369443  	-0,102829  	-0,050007  	0,377712  	0,191390  	-4,828961  	17251,796003  	132336,415273  	19,193774  	-0,047958  
46,564000  	25,482381  	32,518139  	25,138239  	357,439972  	80,411356  	74,398965  	0,010086  	0,012010  	0,003962  	0,004409  	0,004454  	0,000001  	-0,000000  	28,078738  	26,844348  	27,960085  	27,719828  	31,119024  	29,495759  	30,953048  	30,394954  	33,494967  	32,574644  	35,530289  	67,093301  	27,585346  	26,544204  	29,731506  	73,553956  	0,337975  	0,171254  	-5037,033300  	12487,144690  	-0,036455  	-0,049992  	0,385755  	0,195465  	-4,927379  	17248,688899  	132062,458974  	19,154040  	-0,047945  
47,566000  	25,543415  	32,517770  	25,138423  	1256,670793  	80,401138  	74,399682  	0,010088  	0,012025  	0,003961  	0,004332  	0,004457  	0,000001  	-0,000000  	28,072389  	26,852728  	27,953861  	27,720827  	31,117259  	29,496420  	30,946607  	30,392141  	33,494578  	32,574612  	35,525119  	67,092719  	27,573096  	26,539856  	29,733564  	73,550761  	0,275757  	0,139728  	-4073,881113  	25527,113158  	-0,018523  	-0,049992  	0,388461  	0,196836  	-4,952925  	17282,493506  	132105,107978  	19,160226  	-0,047945  
48,563000  	25,535117  	32,538279  	25,137931  	1256,670793  	80,392702  	74,398872  	0,010093  	0,012021  	0,003964  	0,004348  	0,004497  	0,000000  	-0,000000  	28,078756  	26,849450  	27,958501  	27,727861  	31,124711  	29,500536  	30,950607  	30,382304  	33,490884  	32,580332  	35,533636  	67,093152  	27,578253  	26,554083  	29,731583  	73,549833  	0,288929  	0,146403  	-4286,118550  	25527,949843  	-0,018524  	-0,049994  	0,420150  	0,212893  	-5,350156  	17271,817436  	132203,652596  	19,174519  	-0,047946  
49,563000  	25,506874  	32,585027  	25,137040  	57,696365  	80,393827  	74,404392  	0,010094  	0,012014  	0,003961  	0,004398  	0,004507  	0,000000  	-0,000000  	28,077032  	26,855046  	27,956747  	27,732981  	31,121998  	29,497574  	30,946191  	30,396912  	33,491802  	32,573309  	35,533827  	67,097640  	27,579854  	26,552701  	29,728083  	73,554505  	0,329233  	0,166825  	-4936,308085  	1763,040155  	-0,053828  	-0,049997  	0,428031  	0,216887  	-5,446516  	17258,284699  	132225,379580  	19,177670  	-0,047949  
50,563000  	25,464280  	32,611758  	25,137901  	1256,670793  	80,389327  	74,402146  	0,010089  	0,012032  	0,003961  	0,004381  	0,004460  	-0,000000  	-0,000000  	28,078879  	26,856269  	27,958433  	27,727489  	31,127202  	29,499106  	30,948528  	30,390773  	33,495438  	32,585320  	35,535642  	67,103988  	27,582198  	26,568184  	29,746973  	73,552935  	0,315220  	0,159724  	-4772,511882  	25530,923508  	-0,018526  	-0,050000  	0,390799  	0,198021  	-4,970885  	17296,049589  	132120,790666  	19,162501  	-0,047952  
51,564000  	25,444550  	32,617856  	25,136334  	1256,670793  	80,388296  	74,399870  	0,010096  	0,012006  	0,003960  	0,004405  	0,004481  	0,000000  	-0,000000  	28,082398  	26,854736  	27,958041  	27,717001  	31,118977  	29,505836  	30,957662  	30,400341  	33,503523  	32,581037  	35,537666  	67,097525  	27,585645  	26,582580  	29,736158  	73,550971  	0,334802  	0,169646  	-5087,303136  	25530,308712  	-0,018525  	-0,049999  	0,407314  	0,206389  	-5,182025  	17240,949439  	132272,067529  	19,184441  	-0,047951  
52,564000  	25,449528  	32,612189  	25,137010  	1256,670793  	80,390483  	74,397624  	0,010093  	0,012004  	0,003960  	0,004363  	0,004441  	-0,000001  	-0,000000  	28,081414  	26,849329  	27,954309  	27,719895  	31,124723  	29,500884  	30,954918  	30,397500  	33,496076  	32,579960  	35,540904  	67,105645  	27,592221  	26,582308  	29,740296  	73,568106  	0,300867  	0,152452  	-4564,883661  	25535,157128  	-0,018529  	-0,050010  	0,375305  	0,190170  	-4,778328  	17236,000145  	132203,398397  	19,174482  	-0,047960  
53,562000  	25,451034  	32,596206  	25,135504  	1256,670793  	80,390296  	74,402177  	0,010096  	0,011986  	0,003964  	0,004387  	0,004476  	-0,000001  	-0,000000  	28,092502  	26,846845  	27,953771  	27,724188  	31,115931  	29,495879  	30,959554  	30,392143  	33,497829  	32,581256  	35,536601  	67,102769  	27,600541  	26,593399  	29,733902  	73,561876  	0,320043  	0,162168  	-4843,966666  	25538,273957  	-0,018531  	-0,050016  	0,403103  	0,204255  	-5,128184  	17196,963975  	132267,774385  	19,183819  	-0,047965  
54,561000  	25,433394  	32,586844  	25,135197  	1256,670793  	80,388921  	74,397063  	0,010081  	0,012034  	0,003958  	0,004378  	0,004505  	-0,000001  	-0,000000  	28,069904  	26,844778  	27,947562  	27,719523  	31,114804  	29,494480  	30,950449  	30,384406  	33,489676  	32,570237  	35,531823  	67,092065  	27,589322  	26,582833  	29,725572  	73,538722  	0,312508  	0,158350  	-4735,403419  	25535,735639  	-0,018529  	-0,050011  	0,426313  	0,216016  	-5,426841  	17300,011995  	131952,863745  	19,138145  	-0,047961  
55,564000  	25,410161  	32,581209  	25,135381  	357,439972  	80,395701  	74,395410  	0,010088  	0,012022  	0,003961  	0,004397  	0,004498  	-0,000000  	-0,000000  	28,075027  	26,850340  	27,956496  	27,729582  	31,128774  	29,497942  	30,959916  	30,394311  	33,491323  	32,584408  	35,526533  	67,104964  	27,598120  	26,600142  	29,736584  	73,551297  	0,328467  	0,166437  	-4989,491141  	12489,047952  	-0,036460  	-0,050000  	0,420782  	0,213213  	-5,363974  	17275,514550  	132090,915180  	19,158168  	-0,047952  
56,561000  	25,405552  	32,576712  	25,134951  	-242,047242  	80,400826  	74,394536  	0,010099  	0,012008  	0,003961  	0,004424  	0,004485  	0,000001  	-0,000000  	28,082803  	26,855454  	27,954179  	27,725534  	31,124667  	29,499221  	30,957102  	30,389668  	33,490812  	32,575726  	35,533881  	67,100362  	27,597865  	26,599813  	29,739747  	73,542582  	0,350315  	0,177507  	-5321,452899  	-27073,638744  	-0,102801  	-0,049991  	0,410344  	0,207925  	-5,236145  	17244,587834  	132346,547942  	19,195244  	-0,047944  
57,561000  	25,384685  	32,566273  	25,134428  	956,927186  	80,400451  	74,392852  	0,010097  	0,011992  	0,003962  	0,004373  	0,004479  	-0,000001  	-0,000000  	28,086796  	26,853483  	27,958508  	27,724785  	31,128102  	29,505441  	30,950350  	30,401175  	33,487184  	32,579294  	35,529739  	67,098988  	27,596922  	26,591601  	29,739054  	73,544216  	0,309062  	0,156604  	-4701,629973  	22482,257418  	-0,022162  	-0,050008  	0,405712  	0,205577  	-5,178160  	17209,567835  	132291,287825  	19,187229  	-0,047958  
58,560000  	25,354261  	32,558019  	25,134183  	357,439972  	80,398826  	74,401897  	0,010084  	0,012035  	0,003961  	0,004397  	0,004474  	0,000001  	-0,000000  	28,085812  	26,856956  	27,971106  	27,735913  	31,132297  	29,507619  	30,963571  	30,408383  	33,497043  	32,589675  	35,538104  	67,110380  	27,602147  	26,591599  	29,744048  	73,553056  	0,328507  	0,166457  	-5012,869514  	12485,246497  	-0,036449  	-0,049983  	0,401447  	0,203416  	-5,114638  	17303,071699  	132010,256311  	19,146469  	-0,047937  
59,563000  	25,346794  	32,549612  	25,135197  	1256,670793  	80,395170  	74,402552  	0,010091  	0,012001  	0,003962  	0,004415  	0,004463  	-0,000000  	-0,000000  	28,083740  	26,848039  	27,962490  	27,734850  	31,132797  	29,501131  	30,960441  	30,406286  	33,498806  	32,581244  	35,544039  	67,099761  	27,604141  	26,586151  	29,735521  	73,555926  	0,343016  	0,173809  	-5233,592806  	25533,032184  	-0,018527  	-0,050005  	0,392854  	0,199062  	-5,001556  	17230,655390  	132156,964647  	19,167747  	-0,047956  
60,572000  	25,361299  	32,535877  	25,135627  	57,696365  	80,389983  	74,401678  	0,010093  	0,012028  	0,003958  	0,004367  	0,004436  	0,000002  	-0,000000  	28,085233  	26,857546  	27,965340  	27,732676  	31,134868  	29,502842  	30,962810  	30,402961  	33,498565  	32,577211  	35,546327  	67,102112  	27,613791  	26,579006  	29,739695  	73,552153  	0,304133  	0,154106  	-4622,127587  	1762,626194  	-0,053813  	-0,049981  	0,371261  	0,188121  	-4,723246  	17288,443128  	132211,433921  	19,175647  	-0,047935  
61,561000  	25,365908  	32,518108  	25,134674  	956,927186  	80,386578  	74,399059  	0,010103  	0,011978  	0,003958  	0,004434  	0,004467  	-0,000001  	-0,000000  	28,076972  	26,853715  	27,962946  	27,724567  	31,123326  	29,501547  	30,955379  	30,403877  	33,496486  	32,575963  	35,535591  	67,096305  	27,613863  	26,577253  	29,728000  	73,543433  	0,358478  	0,181644  	-5431,065317  	22485,199912  	-0,022165  	-0,050015  	0,396502  	0,200911  	-5,043708  	17180,062379  	132414,037871  	19,205032  	-0,047964  
62,585000  	25,382688  	32,511518  	25,134428  	357,439972  	80,384765  	74,393944  	0,010096  	0,012021  	0,003961  	0,004337  	0,004479  	-0,000000  	-0,000000  	28,078035  	26,855221  	27,958708  	27,725187  	31,118661  	29,503049  	30,954310  	30,395022  	33,500617  	32,580904  	35,536246  	67,091287  	27,612093  	26,577767  	29,722267  	73,542143  	0,279769  	0,141761  	-4224,745778  	12490,044856  	-0,036463  	-0,050004  	0,405271  	0,205354  	-5,158090  	17272,902658  	132277,914115  	19,185289  	-0,047955  
63,577000  	25,419289  	32,511980  	25,134521  	357,439972  	80,387327  	74,384806  	0,010099  	0,012020  	0,003958  	0,004395  	0,004473  	-0,000001  	-0,000000  	28,080926  	26,858972  	27,956322  	27,729454  	31,121180  	29,512386  	30,958790  	30,398177  	33,503845  	32,590620  	35,537358  	67,094285  	27,613131  	26,574356  	29,727821  	73,545031  	0,326860  	0,165623  	-4910,824966  	12490,642038  	-0,036465  	-0,050007  	0,400583  	0,202978  	-5,108369  	17271,188516  	132346,569125  	19,195247  	-0,047957  
64,565000  	25,425927  	32,513951  	25,135197  	956,927186  	80,393139  	74,389609  	0,010097  	0,012039  	0,003962  	0,004359  	0,004492  	-0,000000  	-0,000000  	28,079935  	26,854443  	27,956912  	27,725848  	31,123622  	29,508272  	30,955526  	30,405503  	33,499636  	32,591904  	35,531921  	67,092304  	27,621072  	26,565372  	29,725716  	73,543176  	0,297614  	0,150803  	-4468,473120  	22479,152556  	-0,022159  	-0,050000  	0,416227  	0,210905  	-5,308763  	17310,618027  	132289,353086  	19,186948  	-0,047951  
65,566000  	25,396701  	32,527101  	25,134889  	956,927186  	80,398326  	74,392416  	0,010089  	0,012058  	0,003957  	0,004393  	0,004432  	-0,000001  	-0,000000  	28,080543  	26,848917  	27,960734  	27,726146  	31,125322  	29,501953  	30,954930  	30,400468  	33,501068  	32,587557  	35,529917  	67,095768  	27,628699  	26,552821  	29,731665  	73,544579  	0,325275  	0,164819  	-4912,990508  	22482,467647  	-0,022162  	-0,050008  	0,368423  	0,186682  	-4,700909  	17353,036498  	132122,796017  	19,162791  	-0,047959  
66,594000  	25,386744  	32,538310  	25,134828  	357,439972  	80,399951  	74,394848  	0,010088  	0,012011  	0,003959  	0,004385  	0,004472  	-0,000000  	-0,000000  	28,077001  	26,844266  	27,962302  	27,725506  	31,124794  	29,500951  	30,954701  	30,393110  	33,496038  	32,580434  	35,526913  	67,097982  	27,628985  	26,544927  	29,731731  	73,540132  	0,318704  	0,161490  	-4828,037181  	12489,370985  	-0,036461  	-0,050001  	0,400000  	0,202683  	-5,103141  	17250,381818  	132104,528968  	19,160142  	-0,047953  
67,562000  	25,413941  	32,541082  	25,136026  	357,439972  	80,393452  	74,398154  	0,010095  	0,011977  	0,003960  	0,004379  	0,004455  	0,000000  	-0,000000  	28,074572  	26,845556  	27,956259  	27,724237  	31,122144  	29,501631  	30,951206  	30,393533  	33,487573  	32,575278  	35,523449  	67,092479  	27,628348  	26,550342  	29,723122  	73,532826  	0,313653  	0,158930  	-4735,279429  	12488,745923  	-0,036459  	-0,049999  	0,386952  	0,196071  	-4,928615  	17177,983902  	132247,226603  	19,180839  	-0,047950  
68,561000  	25,444857  	32,537509  	25,136272  	-242,047242  	80,388327  	74,399714  	0,010088  	0,012007  	0,003961  	0,004382  	0,004489  	-0,000000  	-0,000000  	28,079963  	26,850087  	27,952892  	27,725931  	31,122530  	29,505086  	30,954527  	30,394709  	33,492790  	32,579327  	35,527666  	67,093694  	27,628860  	26,562370  	29,729419  	73,538175  	0,315902  	0,160070  	-4746,150507  	-27078,288289  	-0,102819  	-0,050001  	0,413549  	0,209548  	-5,261509  	17243,318676  	132097,051270  	19,159057  	-0,047952  
69,563000  	25,466708  	32,536093  	25,136579  	-242,047242  	80,387359  	74,403487  	0,010090  	0,012027  	0,003961  	0,004350  	0,004483  	-0,000001  	-0,000000  	28,082643  	26,852190  	27,956198  	27,727361  	31,125964  	29,502056  	30,955658  	30,394840  	33,498468  	32,582756  	35,536333  	67,099130  	27,629060  	26,573847  	29,739071  	73,542827  	0,290521  	0,147209  	-4350,499529  	-27080,995372  	-0,102829  	-0,050007  	0,409178  	0,207333  	-5,201779  	17284,880429  	132133,952544  	19,164410  	-0,047957  
70,562000  	25,466953  	32,550505  	25,136334  	-242,047242  	80,383047  	74,401117  	0,010096  	0,012003  	0,003960  	0,004384  	0,004467  	-0,000001  	-0,000000  	28,082100  	26,860341  	27,956723  	27,734806  	31,124066  	29,498574  	30,954676  	30,400431  	33,499357  	32,581960  	35,542206  	67,102093  	27,633799  	26,586771  	29,742330  	73,542638  	0,317818  	0,161041  	-4768,813616  	-27081,446338  	-0,102831  	-0,050007  	0,395790  	0,200550  	-5,029949  	17233,363494  	132271,022487  	19,184290  	-0,047958  
71,562000  	25,469350  	32,567412  	25,137071  	657,183579  	80,378860  	74,393507  	0,010095  	0,012051  	0,003961  	0,004394  	0,004530  	-0,000000  	-0,000000  	28,080642  	26,860567  	27,961947  	27,728519  	31,120780  	29,499884  	30,961214  	30,403973  	33,494494  	32,584294  	35,538704  	67,099619  	27,640285  	26,592913  	29,733914  	73,543701  	0,325479  	0,164922  	-4893,754153  	18448,918977  	-0,027567  	-0,050004  	0,445661  	0,225820  	-5,666973  	17337,982751  	132244,945870  	19,180508  	-0,047955  
72,560000  	25,477464  	32,576220  	25,137194  	1256,670793  	80,375735  	74,389016  	0,010095  	0,012002  	0,003962  	0,004380  	0,004521  	-0,000000  	-0,000000  	28,076040  	26,854744  	27,954990  	27,723493  	31,123090  	29,494516  	30,949853  	30,399069  	33,489111  	32,577532  	35,533500  	67,092688  	27,637803  	26,595625  	29,724659  	73,535917  	0,314262  	0,159239  	-4725,561594  	25533,236677  	-0,018527  	-0,050006  	0,438505  	0,222194  	-5,577244  	17231,730000  	132243,491285  	19,180297  	-0,047956  
73,560000  	25,463235  	32,582440  	25,138454  	956,927186  	80,371392  	74,391137  	0,010087  	0,011995  	0,003961  	0,004379  	0,004435  	0,000000  	-0,000000  	28,071700  	26,848031  	27,942912  	27,716548  	31,114690  	29,498946  	30,954680  	30,380254  	33,484236  	32,566872  	35,524477  	67,091687  	27,621598  	26,596143  	29,728923  	73,530531  	0,313679  	0,158943  	-4730,387914  	22478,135736  	-0,022158  	-0,049998  	0,370877  	0,187926  	-4,712014  	17216,072095  	132085,753521  	19,157419  	-0,047950  
74,562000  	25,436252  	32,585766  	25,137901  	-242,047242  	80,369517  	74,388268  	0,010099  	0,012041  	0,003961  	0,004374  	0,004491  	-0,000000  	-0,000000  	28,081799  	26,856263  	27,955280  	27,725899  	31,119059  	29,500947  	30,950954  	30,393585  	33,495587  	32,579662  	35,532341  	67,100366  	27,635926  	26,610890  	29,742965  	73,540527  	0,309294  	0,156722  	-4684,128019  	-27078,351819  	-0,102818  	-0,050001  	0,414803  	0,210184  	-5,270962  	17315,781676  	132326,219054  	19,192295  	-0,047952  
75,563000  	25,428324  	32,588446  	25,139191  	-242,047242  	80,371642  	74,387613  	0,010098  	0,012031  	0,003961  	0,004337  	0,004469  	0,000001  	-0,000000  	28,082642  	26,849453  	27,959311  	27,723029  	31,125279  	29,499556  	30,951822  	30,404629  	33,490316  	32,578894  	35,531724  	67,095004  	27,625779  	26,629863  	29,742455  	73,545722  	0,279756  	0,141754  	-4243,074277  	-27073,572036  	-0,102799  	-0,049991  	0,397503  	0,201418  	-5,053476  	17294,080059  	132304,718025  	19,189177  	-0,047944  
76,560000  	25,423222  	32,582964  	25,138147  	956,927186  	80,374642  	74,386739  	0,010091  	0,012013  	0,003962  	0,004412  	0,004503  	0,000001  	-0,000000  	28,081753  	26,849613  	27,959076  	27,718267  	31,122789  	29,502821  	30,959339  	30,396518  	33,487044  	32,575399  	35,541569  	67,088946  	27,624395  	26,628939  	29,742949  	73,544252  	0,340090  	0,172326  	-5157,893095  	22475,060533  	-0,022155  	-0,049990  	0,424927  	0,215313  	-5,405613  	17255,558201  	132154,683914  	19,167416  	-0,047943  
77,570000  	25,406228  	32,571077  	25,139806  	956,927186  	80,376923  	74,385430  	0,010087  	0,012002  	0,003963  	0,004394  	0,004464  	0,000001  	-0,000000  	28,083366  	26,840360  	27,955488  	27,723264  	31,118900  	29,496954  	30,957737  	30,393371  	33,486056  	32,580657  	35,526334  	67,087981  	27,613491  	26,630691  	29,724103  	73,530345  	0,326030  	0,165202  	-4948,187988  	22474,257172  	-0,022154  	-0,049988  	0,393550  	0,199415  	-5,009463  	17231,087639  	132081,841675  	19,156852  	-0,047941  
78,559000  	25,411514  	32,564794  	25,140482  	357,439972  	80,382359  	74,384057  	0,010090  	0,012028  	0,003961  	0,004352  	0,004497  	-0,000000  	-0,000000  	28,078434  	26,844043  	27,952650  	27,723297  	31,118712  	29,505258  	30,951717  	30,400893  	33,494655  	32,577392  	35,536940  	67,092576  	27,608936  	26,635196  	29,736310  	73,535581  	0,291626  	0,147769  	-4418,888538  	12489,320857  	-0,036461  	-0,050002  	0,419854  	0,212743  	-5,350361  	17287,809963  	132148,611374  	19,166536  	-0,047954  
79,560000  	25,437697  	32,557219  	25,140943  	1256,670793  	80,384922  	74,382061  	0,010089  	0,012002  	0,003963  	0,004400  	0,004492  	0,000000  	-0,000000  	28,086186  	26,853646  	27,956343  	27,719398  	31,124687  	29,504272  	30,944998  	30,391497  	33,502219  	32,587939  	35,531251  	67,095732  	27,605045  	26,640745  	29,733576  	73,545223  	0,330664  	0,167550  	-4986,760915  	25527,981272  	-0,018524  	-0,049994  	0,415858  	0,210718  	-5,303463  	17230,811028  	132113,249418  	19,161407  	-0,047946  
80,562000  	25,441139  	32,551429  	25,141066  	1256,670793  	80,386796  	74,385866  	0,010086  	0,011995  	0,003962  	0,004319  	0,004490  	0,000001  	-0,000000  	28,085214  	26,856431  	27,958513  	27,721127  	31,128391  	29,505726  	30,955699  	30,397187  	33,496689  	32,575809  	35,537010  	67,093209  	27,604441  	26,639919  	29,729446  	73,537762  	0,264721  	0,134136  	-3987,096069  	25523,783786  	-0,018521  	-0,049985  	0,414185  	0,209871  	-5,280431  	17216,409547  	132051,111797  	19,152395  	-0,047939  
81,561000  	25,447623  	32,555402  	25,142448  	57,696365  	80,391358  	74,384494  	0,010098  	0,012059  	0,003962  	0,004403  	0,004497  	0,000001  	-0,000000  	28,074392  	26,850201  	27,955885  	27,717633  	31,115920  	29,503472  	30,955521  	30,405268  	33,487860  	32,575126  	35,533422  	67,090380  	27,603100  	26,645771  	29,730495  	73,538024  	0,333114  	0,168792  	-5015,425770  	1762,471469  	-0,053819  	-0,049988  	0,419949  	0,212791  	-5,359206  	17355,798367  	132318,367118  	19,191157  	-0,047942  
82,562000  	25,465386  	32,562854  	25,143002  	657,183579  	80,391296  	74,382061  	0,010086  	0,012020  	0,003961  	0,004358  	0,004483  	-0,000000  	-0,000000  	28,074644  	26,850436  	27,947404  	27,712113  	31,109023  	29,497385  	30,951204  	30,390252  	33,485757  	32,574156  	35,530651  	67,089527  	27,603769  	26,640177  	29,725927  	73,531747  	0,296868  	0,150425  	-4463,201501  	18448,449388  	-0,027567  	-0,050004  	0,408963  	0,207224  	-5,221063  	17269,950486  	132061,145611  	19,153850  	-0,047955  
83,563000  	25,461145  	32,567843  	25,143555  	-242,047242  	80,390796  	74,388081  	0,010086  	0,012010  	0,003963  	0,004358  	0,004471  	-0,000001  	-0,000000  	28,084097  	26,860425  	27,955885  	27,720431  	31,122625  	29,505668  	30,956035  	30,401165  	33,496857  	32,587052  	35,535530  	67,092108  	27,612992  	26,653111  	29,741525  	73,541629  	0,296706  	0,150343  	-4466,578986  	-27081,286829  	-0,102827  	-0,050007  	0,399323  	0,202340  	-5,092471  	17248,512745  	132059,302666  	19,153583  	-0,047957  
84,560000  	25,477556  	32,574680  	25,144231  	-242,047242  	80,389421  	74,390887  	0,010095  	0,012025  	0,003961  	0,004377  	0,004509  	0,000000  	-0,000000  	28,085212  	26,859441  	27,965454  	27,733756  	31,127211  	29,508214  	30,956780  	30,405314  	33,498651  	32,591193  	35,544528  	67,095091  	27,624082  	26,655700  	29,748074  	73,548655  	0,311945  	0,158065  	-4689,650708  	-27075,135985  	-0,102803  	-0,049994  	0,429022  	0,217389  	-5,467410  	17281,788182  	132249,768597  	19,181207  	-0,047946  
85,560000  	25,489142  	32,580223  	25,144077  	1256,670793  	80,389702  	74,388330  	0,010097  	0,012006  	0,003961  	0,004378  	0,004460  	-0,000001  	-0,000000  	28,084056  	26,849506  	27,956462  	27,719784  	31,117650  	29,497652  	30,950837  	30,399537  	33,491170  	32,586472  	35,537445  	67,091056  	27,617618  	26,641629  	29,740153  	73,546101  	0,312722  	0,158459  	-4697,327708  	25534,886933  	-0,018529  	-0,050010  	0,390232  	0,197733  	-4,975417  	17241,364709  	132284,092571  	19,186186  	-0,047960  
86,560000  	25,471993  	32,586690  	25,144937  	657,183579  	80,385203  	74,399246  	0,010102  	0,012014  	0,003963  	0,004390  	0,004488  	-0,000000  	-0,000000  	28,079206  	26,849679  	27,956699  	27,717481  	31,121134  	29,496667  	30,951065  	30,396965  	33,491516  	32,581432  	35,531615  	67,088457  	27,614339  	26,634203  	29,735558  	73,531689  	0,322463  	0,163394  	-4859,769465  	18448,758852  	-0,027567  	-0,050005  	0,413150  	0,209346  	-5,254100  	17258,704922  	132405,310360  	19,203767  	-0,047956  
87,560000  	25,457334  	32,597038  	25,145951  	657,183579  	80,387421  	74,402614  	0,010097  	0,012019  	0,003959  	0,004372  	0,004475  	-0,000001  	-0,000000  	28,078682  	26,858383  	27,950998  	27,718561  	31,126586  	29,495252  	30,959974  	30,403495  	33,489973  	32,579228  	35,531186  	67,092380  	27,617220  	26,631107  	29,732141  	73,532128  	0,307662  	0,155895  	-4653,016358  	18451,281056  	-0,027571  	-0,050013  	0,402470  	0,203935  	-5,117303  	17267,454616  	132288,957664  	19,186891  	-0,047962  
88,559000  	25,454507  	32,598331  	25,145890  	1256,670793  	80,388546  	74,393071  	0,010087  	0,011986  	0,003960  	0,004344  	0,004479  	-0,000000  	-0,000000  	28,084113  	26,855126  	27,957043  	27,720117  	31,122926  	29,504131  	30,959959  	30,404900  	33,495620  	32,580263  	35,536347  	67,091564  	27,616897  	26,629163  	29,738212  	73,540764  	0,285104  	0,144464  	-4314,340542  	25532,134102  	-0,018527  	-0,050004  	0,405886  	0,205666  	-5,169931  	17198,157436  	132080,605984  	19,156672  	-0,047955  
89,560000  	25,441446  	32,588754  	25,146781  	57,696365  	80,389640  	74,390201  	0,010100  	0,012035  	0,003964  	0,004416  	0,004465  	-0,000000  	-0,000000  	28,084386  	26,852029  	27,956933  	27,724452  	31,120780  	29,506333  	30,954121  	30,405809  	33,501661  	32,583671  	35,541029  	67,086777  	27,616645  	26,626700  	29,732752  	73,541781  	0,343704  	0,174158  	-5203,650444  	1762,693749  	-0,053833  	-0,050003  	0,394804  	0,200050  	-5,032092  	17302,289971  	132366,078926  	19,198077  	-0,047954  
90,561000  	25,426265  	32,585181  	25,147273  	657,183579  	80,387890  	74,393382  	0,010094  	0,012001  	0,003961  	0,004417  	0,004423  	-0,000001  	-0,000000  	28,084308  	26,857808  	27,955251  	27,728788  	31,120828  	29,506898  	30,953346  	30,402570  	33,499512  	32,582564  	35,535585  	67,088569  	27,621542  	26,620049  	29,727021  	73,536715  	0,344393  	0,174507  	-5222,553544  	18449,864556  	-0,027569  	-0,050009  	0,361607  	0,183229  	-4,605191  	17228,707790  	132218,939863  	19,176736  	-0,047959  
91,559000  	25,406996  	32,582779  	25,146812  	-242,047242  	80,386296  	74,396876  	0,010099  	0,012024  	0,003960  	0,004412  	0,004461  	0,000002  	-0,000000  	28,085484  	26,857254  	27,961202  	27,731492  	31,123275  	29,506934  	30,951757  	30,402385  	33,504434  	32,578807  	35,534515  	67,089509  	27,632024  	26,616133  	29,733000  	73,533823  	0,340781  	0,172676  	-5179,949501  	-27066,415128  	-0,102769  	-0,049976  	0,391752  	0,198504  	-4,984861  	17278,529685  	132337,700392  	19,193961  	-0,047931  
92,564000  	25,372823  	32,574649  	25,147488  	956,927186  	80,389921  	74,393008  	0,010104  	0,012021  	0,003962  	0,004349  	0,004485  	-0,000001  	-0,000000  	28,080195  	26,854501  	27,958416  	27,725503  	31,122369  	29,505731  	30,953749  	30,402800  	33,500016  	32,576913  	35,536535  	67,086330  	27,634721  	26,612310  	29,731724  	73,533332  	0,289032  	0,146455  	-4409,308206  	22482,483684  	-0,022162  	-0,050009  	0,410034  	0,207767  	-5,224018  	17271,859883  	132435,270579  	19,208112  	-0,047960  
93,560000  	25,316063  	32,565626  	25,148164  	956,927186  	80,393045  	74,396751  	0,010102  	0,011992  	0,003968  	0,004370  	0,004480  	-0,000000  	-0,000000  	28,081264  	26,858942  	27,956372  	27,723440  	31,127661  	29,507809  	30,962017  	30,403781  	33,494880  	32,581583  	35,534136  	67,089208  	27,633206  	26,609725  	29,730193  	73,538911  	0,306635  	0,155374  	-4708,879137  	22480,830845  	-0,022161  	-0,050005  	0,406196  	0,205823  	-5,174592  	17209,407952  	132400,635916  	19,203089  	-0,047956  
94,565000  	25,285394  	32,553369  	25,146627  	357,439972  	80,394233  	74,392197  	0,010094  	0,011997  	0,003961  	0,004339  	0,004493  	0,000000  	-0,000000  	28,090664  	26,864853  	27,964035  	27,730588  	31,138822  	29,511224  	30,964052  	30,407662  	33,505065  	32,589414  	35,533130  	67,091573  	27,638599  	26,608693  	29,735465  	73,546304  	0,281174  	0,142473  	-4328,850144  	12487,876205  	-0,036458  	-0,049997  	0,416638  	0,211113  	-5,312680  	17220,354974  	132228,048674  	19,178057  	-0,047949  
95,560000  	25,280785  	32,530919  	25,147642  	357,439972  	80,392233  	74,385991  	0,010095  	0,012022  	0,003965  	0,004350  	0,004444  	0,000000  	-0,000000  	28,086928  	26,865921  	27,965187  	27,730527  	31,131303  	29,510884  	30,960023  	30,406802  	33,503740  	32,590424  	35,536317  	67,086796  	27,639269  	26,595517  	29,732496  	73,542229  	0,290172  	0,147032  	-4456,423147  	12487,484441  	-0,036457  	-0,049996  	0,378219  	0,191646  	-4,826165  	17274,340189  	132239,706539  	19,179748  	-0,047948  
96,566000  	25,316862  	32,502218  	25,146658  	956,927186  	80,389358  	74,387114  	0,010097  	0,012006  	0,003965  	0,004368  	0,004497  	-0,000001  	-0,000000  	28,080473  	26,861079  	27,967775  	27,731348  	31,124417  	29,505025  	30,961586  	30,407768  	33,497162  	32,589190  	35,540245  	67,087567  	27,635790  	26,578032  	29,733213  	73,535123  	0,304414  	0,154249  	-4633,363990  	22481,468896  	-0,022161  	-0,050007  	0,420119  	0,212877  	-5,357253  	17241,271327  	132298,906745  	19,188334  	-0,047957  
97,561000  	25,379768  	32,473856  	25,144538  	956,927186  	80,387640  	74,384400  	0,010091  	0,012009  	0,003961  	0,004356  	0,004514  	-0,000000  	-0,000000  	28,087543  	26,860191  	27,970676  	27,733753  	31,133639  	29,506197  	30,965912  	30,403649  	33,495572  	32,589532  	35,535991  	67,091861  	27,634173  	26,570545  	29,734134  	73,535699  	0,295168  	0,149564  	-4435,560327  	22481,033222  	-0,022161  	-0,050006  	0,433503  	0,219659  	-5,528841  	17247,281081  	132154,076660  	19,167328  	-0,047956  
98,562000  	25,411053  	32,468005  	25,144661  	357,439972  	80,388202  	74,388268  	0,010090  	0,012015  	0,003965  	0,004387  	0,004440  	-0,000000  	-0,000000  	28,091514  	26,861182  	27,963489  	27,733355  	31,125702  	29,510549  	30,960019  	30,395487  	33,502700  	32,587652  	35,542919  	67,095537  	27,624366  	26,570345  	29,725559  	73,540499  	0,320199  	0,162247  	-4786,504661  	12489,316049  	-0,036462  	-0,050003  	0,374370  	0,189696  	-4,772042  	17260,326388  	132149,246872  	19,166628  	-0,047954  
99,563000  	25,423683  	32,481308  	25,144477  	357,439972  	80,387546  	74,386864  	0,010089  	0,011995  	0,003962  	0,004407  	0,004485  	-0,000001  	-0,000000  	28,086004  	26,866175  	27,960026  	27,733389  	31,121662  	29,510016  	30,962937  	30,396227  	33,500253  	32,584002  	35,541216  	67,093993  	27,621712  	26,574884  	29,724306  	73,543575  	0,336161  	0,170335  	-5025,587837  	12490,410809  	-0,036465  	-0,050008  	0,410731  	0,208121  	-5,236181  	17216,973381  	132122,746589  	19,162784  	-0,047959  
100,564000  	25,433763  	32,505513  	25,145337  	956,927186  	80,391108  	74,386303  	0,010092  	0,012039  	0,003964  	0,004330  	0,004474  	0,000000  	-0,000000  	28,081037  	26,855122  	27,952803  	27,727858  	31,120112  	29,502740  	30,961873  	30,394896  	33,498267  	32,587621  	35,533342  	67,089174  	27,617828  	26,573060  	29,718557  	73,539333  	0,273871  	0,138772  	-4102,547045  	22477,449911  	-0,022157  	-0,049997  	0,401941  	0,203667  	-5,127645  	17310,700091  	132189,134988  	19,172413  	-0,047949  
101,564000  	25,427217  	32,526238  	25,143309  	57,696365  	80,396545  	74,383496  	0,010093  	0,011999  	0,003963  	0,004328  	0,004502  	0,000001  	-0,000000  	28,076282  	26,851688  	27,951980  	27,717730  	31,120612  	29,504496  	30,957544  	30,401372  	33,490199  	32,581057  	35,538329  	67,092908  	27,615618  	26,575740  	29,726381  	73,534472  	0,272172  	0,137911  	-4092,820174  	1762,458092  	-0,053820  	-0,049990  	0,423895  	0,214791  	-5,415131  	17224,705768  	132206,385239  	19,174915  	-0,047942  
102,561000  	25,423222  	32,539357  	25,143493  	1256,670793  	80,402982  	74,393913  	0,010094  	0,011994  	0,003961  	0,004420  	0,004421  	-0,000000  	-0,000000  	28,084184  	26,862196  	27,960260  	27,726510  	31,125565  	29,500940  	30,959405  	30,398875  	33,504587  	32,581845  	35,537376  	67,095682  	27,611215  	26,585170  	29,733212  	73,534075  	0,347203  	0,175930  	-5233,695189  	25531,675204  	-0,018526  	-0,050003  	0,359655  	0,182240  	-4,591454  	17214,210097  	132223,056481  	19,177333  	-0,047954  
103,563000  	25,447285  	32,546379  	25,142479  	1256,670793  	80,403044  	74,396532  	0,010095  	0,012006  	0,003964  	0,004402  	0,004464  	0,000001  	-0,000000  	28,083318  	26,861072  	27,960987  	27,719166  	31,123465  	29,503163  	30,952286  	30,392449  	33,490592  	32,576239  	35,534303  	67,090268  	27,608341  	26,590593  	29,729516  	73,519653  	0,332198  	0,168327  	-4995,517992  	25525,979635  	-0,018522  	-0,049990  	0,393688  	0,199485  	-5,023793  	17240,872327  	132250,072224  	19,181251  	-0,047943  
104,563000  	25,449006  	32,545455  	25,143094  	1256,670793  	80,396045  	74,400836  	0,010091  	0,012018  	0,003958  	0,004369  	0,004468  	0,000002  	-0,000000  	28,078117  	26,859844  	27,957833  	27,720428  	31,128466  	29,495984  	30,953924  	30,400097  	33,492946  	32,588048  	35,532314  	67,094982  	27,611638  	26,610034  	29,738318  	73,530377  	0,305513  	0,154806  	-4592,527698  	25521,631620  	-0,018519  	-0,049980  	0,396591  	0,200956  	-5,051315  	17266,106931  	132160,664660  	19,168284  	-0,047935  
105,560000  	25,440954  	32,552969  	25,141557  	1256,670793  	80,392108  	74,399215  	0,010083  	0,011997  	0,003963  	0,004383  	0,004446  	-0,000001  	-0,000000  	28,078777  	26,852906  	27,953230  	27,713984  	31,118373  	29,499859  	30,946325  	30,389539  	33,483334  	32,575679  	35,536512  	67,097756  	27,597230  	26,609432  	29,724169  	73,542546  	0,317068  	0,160661  	-4776,678922  	25535,359344  	-0,018529  	-0,050010  	0,379479  	0,192285  	-4,831489  	17221,335494  	132000,850935  	19,145105  	-0,047960  
106,562000  	25,414156  	32,564302  	25,141312  	1256,670793  	80,392608  	74,397343  	0,010102  	0,012031  	0,003964  	0,004390  	0,004483  	0,000001  	-0,000000  	28,092134  	26,860973  	27,969139  	27,732105  	31,127850  	29,503496  	30,961628  	30,405411  	33,494986  	32,589320  	35,545403  	67,101099  	27,599119  	26,619945  	29,730463  	73,547390  	0,322980  	0,163656  	-4891,836322  	25526,181991  	-0,018522  	-0,049990  	0,408764  	0,207124  	-5,206405  	17293,468825  	132399,103659  	19,202866  	-0,047943  
107,560000  	25,367414  	32,568921  	25,141588  	1256,670793  	80,390296  	74,395254  	0,010098  	0,012004  	0,003960  	0,004354  	0,004468  	-0,000000  	-0,000000  	28,073104  	26,853775  	27,958161  	27,724180  	31,126555  	29,502893  	30,953704  	30,395936  	33,490838  	32,577667  	35,528392  	67,087903  	27,591000  	26,625526  	29,732685  	73,538179  	0,293343  	0,148639  	-4474,883679  	25532,320257  	-0,018527  	-0,050004  	0,397106  	0,201216  	-5,057724  	17235,915959  	132311,821485  	19,190207  	-0,047955  
108,562000  	25,351127  	32,565225  	25,141895  	1256,670793  	80,390983  	74,391761  	0,010095  	0,012046  	0,003962  	0,004413  	0,004480  	-0,000000  	-0,000000  	28,066419  	26,845903  	27,952705  	27,712502  	31,116529  	29,491385  	30,948194  	30,382139  	33,478967  	32,572179  	35,526665  	67,082590  	27,588450  	26,618257  	29,727586  	73,528289  	0,340938  	0,172756  	-5210,026997  	25531,248370  	-0,018526  	-0,050001  	0,406130  	0,205789  	-5,176264  	17326,759118  	132244,479838  	19,180440  	-0,047953  
109,563000  	25,366062  	32,543915  	25,139837  	1256,670793  	80,390983  	74,396065  	0,010098  	0,012004  	0,003962  	0,004342  	0,004470  	0,000001  	-0,000000  	28,081505  	26,853933  	27,959420  	27,724133  	31,124407  	29,509620  	30,959991  	30,399248  	33,496026  	32,587329  	35,533732  	67,095190  	27,597862  	26,621846  	29,740368  	73,541523  	0,283951  	0,143880  	-4317,375884  	25524,133959  	-0,018521  	-0,049986  	0,398237  	0,201789  	-5,072028  	17236,226528  	132314,186951  	19,190550  	-0,047939  
110,560000  	25,357580  	32,526793  	25,139837  	1256,670793  	80,390796  	74,396876  	0,010098  	0,012041  	0,003957  	0,004378  	0,004512  	0,000001  	-0,000000  	28,081900  	26,848987  	27,956356  	27,725853  	31,123186  	29,506009  	30,955724  	30,395824  	33,487999  	32,579112  	35,524475  	67,094104  	27,583860  	26,619955  	29,740724  	73,538539  	0,313150  	0,158675  	-4755,608519  	25525,762379  	-0,018522  	-0,049989  	0,432159  	0,218978  	-5,503149  	17316,346218  	132309,194758  	19,189826  	-0,047942  
111,563000  	25,335639  	32,520141  	25,140574  	357,439972  	80,388171  	74,388798  	0,010088  	0,011987  	0,003965  	0,004360  	0,004443  	-0,000002  	-0,000000  	28,075117  	26,851333  	27,954472  	27,728735  	31,117492  	29,500834  	30,954401  	30,396964  	33,490078  	32,578500  	35,531280  	67,088692  	27,567743  	26,608319  	29,730656  	73,537527  	0,298143  	0,151071  	-4537,371085  	12492,973526  	-0,036472  	-0,050019  	0,377321  	0,191191  	-4,809199  	17198,684484  	132101,344415  	19,159680  	-0,047968  
112,563000  	25,353585  	32,516445  	25,139837  	956,927186  	80,390733  	74,393663  	0,010089  	0,012021  	0,003962  	0,004437  	0,004459  	-0,000001  	-0,000000  	28,073777  	26,855020  	27,963612  	27,724350  	31,119670  	29,502362  	30,959559  	30,396500  	33,492417  	32,579796  	35,532604  	67,093538  	27,572667  	26,605509  	29,737057  	73,534904  	0,361044  	0,182944  	-5478,092133  	22486,070285  	-0,022166  	-0,050018  	0,389677  	0,197452  	-4,964792  	17272,198042  	132124,660145  	19,163062  	-0,047967  
113,562000  	25,361729  	32,503788  	25,138823  	57,696365  	80,385203  	74,392322  	0,010098  	0,012025  	0,003958  	0,004407  	0,004459  	0,000000  	-0,000000  	28,073852  	26,853456  	27,955790  	27,718459  	31,119513  	29,496493  	30,952478  	30,391386  	33,486594  	32,572814  	35,531540  	67,089323  	27,561258  	26,606591  	29,740296  	73,539814  	0,336530  	0,170522  	-5091,319517  	1763,034303  	-0,053830  	-0,050000  	0,389753  	0,197491  	-4,962292  	17281,269624  	132306,222038  	19,189395  	-0,047951  
114,562000  	25,387912  	32,497753  	25,138024  	657,183579  	80,382516  	74,388829  	0,010100  	0,011995  	0,003965  	0,004399  	0,004457  	-0,000001  	-0,000000  	28,072928  	26,849951  	27,952681  	27,726024  	31,117220  	29,489910  	30,947519  	30,391222  	33,483648  	32,573017  	35,522694  	67,091327  	27,552493  	26,599292  	29,735076  	73,543892  	0,329724  	0,167073  	-4965,828537  	18452,355696  	-0,027572  	-0,050015  	0,388011  	0,196608  	-4,940766  	17217,175003  	132351,596623  	19,195976  	-0,047964  
115,561000  	25,412251  	32,500894  	25,138577  	-242,047242  	80,380922  	74,385336  	0,010094  	0,012003  	0,003961  	0,004372  	0,004482  	0,000000  	-0,000000  	28,080265  	26,855087  	27,958061  	27,723509  	31,118649  	29,490320  	30,950654  	30,395735  	33,489741  	32,579939  	35,523234  	67,089572  	27,555135  	26,599864  	29,732862  	73,539427  	0,308267  	0,156201  	-4628,830267  	-27077,572683  	-0,102815  	-0,049999  	0,407955  	0,206714  	-5,196377  	17234,907141  	132231,741625  	19,178593  	-0,047951  
116,562000  	25,457488  	32,508161  	25,138392  	956,927186  	80,381547  	74,387706  	0,010098  	0,012018  	0,003963  	0,004404  	0,004473  	0,000000  	-0,000000  	28,083293  	26,856681  	27,958184  	27,722804  	31,118734  	29,489797  	30,957893  	30,395399  	33,491620  	32,578431  	35,524179  	67,095659  	27,554891  	26,598385  	29,737285  	73,542519  	0,333578  	0,169026  	-4982,052453  	22477,698478  	-0,022157  	-0,049997  	0,400596  	0,202985  	-5,101146  	17266,467728  	132318,240018  	19,191138  	-0,047949  
117,563000  	25,457765  	32,522112  	25,139253  	1256,670793  	80,374423  	74,383340  	0,010090  	0,012005  	0,003965  	0,004378  	0,004472  	-0,000000  	-0,000000  	28,077643  	26,847627  	27,957572  	27,720701  	31,122729  	29,494408  	30,958406  	30,396339  	33,490599  	32,571583  	35,528370  	67,102742  	27,548225  	26,596200  	29,737678  	73,547412  	0,312617  	0,158405  	-4678,051679  	25532,152892  	-0,018527  	-0,050003  	0,399911  	0,202638  	-5,090077  	17238,636090  	132151,640583  	19,166975  	-0,047954  
118,561000  	25,463972  	32,541698  	25,138700  	1256,670793  	80,374798  	74,387270  	0,010110  	0,012012  	0,003959  	0,004376  	0,004500  	-0,000000  	-0,000000  	28,076691  	26,842363  	27,952498  	27,709773  	31,121523  	29,495663  	30,951071  	30,396454  	33,490714  	32,569499  	35,529134  	67,096182  	27,544467  	26,596749  	29,732274  	73,542469  	0,311537  	0,157858  	-4670,717596  	25533,154227  	-0,018527  	-0,050005  	0,421887  	0,213773  	-5,366613  	17254,112889  	132569,388985  	19,227564  	-0,047956  
119,566000  	25,449590  	32,559528  	25,139714  	1256,670793  	80,382484  	74,382092  	0,010099  	0,012060  	0,003963  	0,004373  	0,004498  	-0,000001  	-0,000000  	28,074544  	26,844514  	27,946059  	27,707897  	31,114369  	29,489999  	30,944645  	30,390251  	33,486991  	32,567303  	35,521371  	67,085363  	27,540299  	26,592863  	29,729988  	73,534603  	0,308639  	0,156390  	-4648,336900  	25536,310899  	-0,018530  	-0,050012  	0,420874  	0,213260  	-5,365227  	17357,530196  	132345,319311  	19,195066  	-0,047962  
120,562000  	25,406627  	32,569568  	25,139591  	1256,670793  	80,387421  	74,388517  	0,010098  	0,011987  	0,003964  	0,004397  	0,004471  	-0,000000  	-0,000000  	28,066138  	26,844904  	27,948408  	27,710726  	31,115079  	29,486180  	30,945785  	30,388170  	33,485356  	32,565794  	35,520864  	67,085188  	27,534063  	26,585314  	29,727678  	73,533838  	0,327915  	0,166157  	-4975,474803  	25531,508144  	-0,018526  	-0,050002  	0,399147  	0,202251  	-5,086993  	17199,103292  	132319,892314  	19,191378  	-0,047953  
121,562000  	25,360469  	32,570800  	25,139621  	956,927186  	80,393514  	74,391667  	0,010101  	0,011984  	0,003961  	0,004356  	0,004462  	0,000001  	-0,000000  	28,064167  	26,842323  	27,949270  	27,703719  	31,110434  	29,483219  	30,947811  	30,388562  	33,484373  	32,568356  	35,518893  	67,087233  	27,526527  	26,581474  	29,723051  	73,533330  	0,295177  	0,149568  	-4508,375364  	22474,576709  	-0,022154  	-0,049989  	0,391921  	0,198589  	-4,997359  	17192,599739  	132378,266373  	19,199844  	-0,047942  
122,561000  	25,359301  	32,559775  	25,139806  	357,439972  	80,394577  	74,382311  	0,010097  	0,012021  	0,003963  	0,004381  	0,004478  	0,000000  	-0,000000  	28,067535  	26,836558  	27,943421  	27,698457  	31,100199  	29,484451  	30,938618  	30,380082  	33,476870  	32,565024  	35,511127  	67,079905  	27,515021  	26,580645  	29,724428  	73,525794  	0,315597  	0,159916  	-4813,678423  	12487,861166  	-0,036457  	-0,049996  	0,404553  	0,204990  	-5,167377  	17273,327834  	132296,484790  	19,187983  	-0,047948  
123,560000  	25,382257  	32,539727  	25,140359  	357,439972  	80,390702  	74,385617  	0,010100  	0,012024  	0,003961  	0,004337  	0,004456  	0,000000  	-0,000000  	28,071389  	26,833628  	27,940750  	27,702117  	31,105627  	29,486371  	30,934278  	30,377004  	33,476154  	32,567550  	35,518483  	67,082325  	27,518768  	26,576436  	29,727323  	73,530368  	0,279914  	0,141835  	-4243,917390  	12487,708248  	-0,036457  	-0,049995  	0,387700  	0,196450  	-4,946193  	17278,654196  	132361,475093  	19,197409  	-0,047947  
124,563000  	25,440155  	32,522974  	25,140420  	956,927186  	80,387702  	74,392728  	0,010102  	0,012022  	0,003961  	0,004350  	0,004485  	-0,000001  	-0,000001  	28,073485  	26,843076  	27,947950  	27,711196  	31,108072  	29,492653  	30,944020  	30,387768  	33,476616  	32,579170  	35,525701  	67,080534  	27,519524  	26,590901  	29,732486  	73,537763  	0,289921  	0,146905  	-4349,771966  	22481,599353  	-0,022161  	-0,050007  	0,410711  	0,208111  	-5,230955  	17275,942554  	132394,415093  	19,202186  	-0,047957  
125,561000  	25,484993  	32,516107  	25,140482  	-242,047242  	80,381922  	74,393663  	0,010095  	0,012008  	0,003963  	0,004418  	0,004461  	-0,000001  	-0,000000  	28,076879  	26,840691  	27,944333  	27,711388  	31,113813  	29,482115  	30,947827  	30,387822  	33,490820  	32,568607  	35,527218  	67,083401  	27,511793  	26,599184  	29,734756  	73,536796  	0,345444  	0,175039  	-5144,956875  	-27083,612476  	-0,102837  	-0,050012  	0,391739  	0,198497  	-4,983726  	17244,217132  	132252,656584  	19,181626  	-0,047961  
126,560000  	25,470979  	32,527747  	25,141650  	-242,047242  	80,383984  	74,397967  	0,010093  	0,012024  	0,003961  	0,004357  	0,004435  	-0,000000  	-0,000000  	28,077046  	26,840416  	27,944067  	27,714620  	31,117328  	29,490147  	30,948471  	30,385317  	33,481293  	32,571530  	35,526076  	67,083393  	27,517823  	26,597295  	29,723431  	73,539903  	0,295887  	0,149928  	-4422,951750  	-27080,579063  	-0,102825  	-0,050005  	0,370713  	0,187843  	-4,714475  	17280,330843  	132217,400545  	19,176513  	-0,047956  
127,561000  	25,449866  	32,553246  	25,141373  	657,183579  	80,385703  	74,396096  	0,010096  	0,011996  	0,003962  	0,004408  	0,004519  	-0,000001  	-0,000000  	28,068117  	26,833244  	27,942376  	27,710250  	31,107743  	29,488753  	30,947520  	30,388779  	33,478348  	32,568582  	35,522267  	67,079362  	27,512300  	26,585080  	29,722576  	73,536627  	0,336966  	0,170743  	-5070,282498  	18450,492262  	-0,027570  	-0,050010  	0,437368  	0,221618  	-5,565477  	17217,835051  	132274,411812  	19,184781  	-0,047960  
128,564000  	25,429522  	32,569198  	25,141004  	1256,670793  	80,387390  	74,388611  	0,010100  	0,012003  	0,003962  	0,004371  	0,004469  	0,000000  	-0,000000  	28,083166  	26,849490  	27,954189  	27,722728  	31,120200  	29,502790  	30,959831  	30,389843  	33,498245  	32,580637  	35,525140  	67,092624  	27,523921  	26,596619  	29,742458  	73,551310  	0,307036  	0,155578  	-4643,538806  	25530,291970  	-0,018525  	-0,049999  	0,397762  	0,201549  	-5,069243  	17233,555211  	132356,023929  	19,196618  	-0,047951  
129,560000  	25,398022  	32,572185  	25,141895  	1256,670793  	80,390671  	74,385679  	0,010094  	0,012015  	0,003962  	0,004351  	0,004473  	-0,000001  	-0,000000  	28,074824  	26,836220  	27,948118  	27,705816  	31,106048  	29,483269  	30,948429  	30,379537  	33,481882  	32,555374  	35,518722  	67,088525  	27,515548  	26,580187  	29,729281  	73,532312  	0,291081  	0,147493  	-4423,514631  	25534,366852  	-0,018528  	-0,050008  	0,400857  	0,203117  	-5,113965  	17259,541123  	132233,655182  	19,178870  	-0,047959  
130,565000  	25,386591  	32,567874  	25,142018  	1256,670793  	80,389358  	74,387925  	0,010098  	0,011966  	0,003963  	0,004366  	0,004438  	0,000001  	-0,000000  	28,068480  	26,833847  	27,943285  	27,704956  	31,109374  	29,482225  	30,944084  	30,389255  	33,481906  	32,564632  	35,517672  	67,085776  	27,519571  	26,584214  	29,729107  	73,537513  	0,303480  	0,153775  	-4616,511087  	25527,589331  	-0,018523  	-0,049993  	0,373014  	0,189009  	-4,755939  	17153,322330  	132305,692456  	19,189318  	-0,047946  
131,562000  	25,338927  	32,557342  	25,140175  	357,439972  	80,389202  	74,391075  	0,010095  	0,012014  	0,003965  	0,004365  	0,004508  	-0,000001  	-0,000000  	28,070383  	26,845654  	27,935156  	27,720523  	31,114342  	29,495840  	30,943000  	30,386193  	33,488235  	32,566615  	35,522378  	67,090166  	27,512577  	26,575140  	29,722587  	73,535187  	0,302470  	0,153264  	-4624,947777  	12492,195999  	-0,036470  	-0,050015  	0,428319  	0,217033  	-5,458084  	17258,504007  	132254,344185  	19,181871  	-0,047965  
132,561000  	25,317231  	32,549212  	25,140543  	956,927186  	80,390827  	74,387706  	0,010100  	0,012028  	0,003961  	0,004393  	0,004476  	-0,000001  	-0,000001  	28,070454  	26,842851  	27,951715  	27,718533  	31,112138  	29,494367  	30,939548  	30,391038  	33,489112  	32,570351  	35,520853  	67,092541  	27,508169  	26,571613  	29,732958  	73,528323  	0,324845  	0,164602  	-4976,425885  	22481,515823  	-0,022161  	-0,050006  	0,403287  	0,204349  	-5,143371  	17286,825906  	132348,087260  	19,195467  	-0,047957  
133,564000  	25,314680  	32,527131  	25,141588  	1256,670793  	80,388827  	74,384712  	0,010097  	0,011996  	0,003965  	0,004363  	0,004453  	0,000001  	-0,000000  	28,078260  	26,834235  	27,954131  	27,717213  	31,114400  	29,499141  	30,954150  	30,393173  	33,490445  	32,580231  	35,521079  	67,085712  	27,512723  	26,580021  	29,745089  	73,544583  	0,300800  	0,152418  	-4595,625619  	25527,511660  	-0,018523  	-0,049993  	0,385338  	0,195254  	-4,915271  	17219,179198  	132284,565664  	19,186254  	-0,047946  
134,560000  	25,340248  	32,504651  	25,140052  	657,183579  	80,382203  	74,383714  	0,010089  	0,011989  	0,003963  	0,004421  	0,004461  	-0,000001  	-0,000000  	28,061880  	26,847623  	27,953761  	27,718205  	31,118123  	29,486366  	30,949925  	30,388379  	33,488832  	32,564638  	35,516826  	67,086433  	27,496269  	26,575641  	29,731095  	73,538877  	0,347480  	0,176071  	-5273,426998  	18450,268800  	-0,027569  	-0,050009  	0,391478  	0,198365  	-4,988912  	17203,074187  	132111,674795  	19,161178  	-0,047959  
135,562000  	25,380352  	32,488114  	25,140236  	657,183579  	80,379860  	74,380876  	0,010095  	0,012024  	0,003962  	0,004369  	0,004485  	-0,000001  	-0,000000  	28,059219  	26,841090  	27,947486  	27,722199  	31,114921  	29,492914  	30,942096  	30,388067  	33,487422  	32,568916  	35,517691  	67,094995  	27,496589  	26,567890  	29,726647  	73,546464  	0,305309  	0,154702  	-4596,789594  	18450,974233  	-0,027570  	-0,050011  	0,410351  	0,207928  	-5,229844  	17278,521196  	132256,144764  	19,182132  	-0,047961  
136,561000  	25,414464  	32,484049  	25,140175  	1256,670793  	80,377110  	74,379941  	0,010100  	0,011973  	0,003957  	0,004415  	0,004446  	-0,000000  	-0,000000  	28,060801  	26,842416  	27,939423  	27,710895  	31,118550  	29,489900  	30,942573  	30,383658  	33,482001  	32,571551  	35,520279  	67,083091  	27,485610  	26,571089  	29,732371  	73,549286  	0,342705  	0,173651  	-5132,107838  	25532,732506  	-0,018527  	-0,050005  	0,379237  	0,192162  	-4,831840  	17168,269959  	132348,913408  	19,195587  	-0,047955  
137,559000  	25,448576  	32,498061  	25,139837  	1256,670793  	80,370861  	74,378911  	0,010099  	0,012036  	0,003961  	0,004432  	0,004489  	-0,000001  	-0,000000  	28,074232  	26,844110  	27,956912  	27,717307  	31,121704  	29,495467  	30,958977  	30,391587  	33,492680  	32,576926  	35,524397  	67,086251  	27,490154  	26,581396  	29,734858  	73,544719  	0,356748  	0,180767  	-5327,205816  	25539,109444  	-0,018532  	-0,050019  	0,413719  	0,209634  	-5,266588  	17304,599783  	132328,923453  	19,192688  	-0,047967  
138,560000  	25,446425  	32,512411  	25,139960  	1256,670793  	80,368924  	74,379597  	0,010098  	0,011990  	0,003959  	0,004399  	0,004487  	-0,000002  	-0,000001  	28,053845  	26,834144  	27,949966  	27,712071  	31,104926  	29,479076  	30,942554  	30,375679  	33,482694  	32,557149  	35,513151  	67,078127  	27,472086  	26,563367  	29,723386  	73,534454  	0,329608  	0,167015  	-4933,461814  	25541,762159  	-0,018534  	-0,050024  	0,411835  	0,208680  	-5,240317  	17206,641838  	132323,246334  	19,191864  	-0,047972  
139,562000  	25,451126  	32,529687  	25,140420  	1256,670793  	80,371517  	74,377944  	0,010087  	0,012048  	0,003960  	0,004382  	0,004446  	0,000002  	-0,000000  	28,058914  	26,834429  	27,947078  	27,711990  	31,101093  	29,481924  	30,940187  	30,379600  	33,480124  	32,558167  	35,516488  	67,083369  	27,486751  	26,568611  	29,720752  	73,532800  	0,316500  	0,160373  	-4745,682757  	25521,568653  	-0,018519  	-0,049980  	0,379820  	0,192457  	-4,836363  	17331,451608  	132084,157714  	19,157187  	-0,047934  
140,561000  	25,470057  	32,544962  	25,139499  	57,696365  	80,374329  	74,376822  	0,010101  	0,012048  	0,003964  	0,004358  	0,004464  	-0,000000  	-0,000000  	28,069690  	26,841681  	27,939552  	27,714181  	31,105112  	29,491436  	30,942492  	30,385458  	33,485378  	32,568996  	35,523064  	67,084801  	27,496028  	26,564851  	29,719134  	73,536736  	0,296573  	0,150276  	-4444,599870  	1763,156756  	-0,053835  	-0,050005  	0,393901  	0,199592  	-5,018953  	17331,173582  	132386,075942  	19,200977  	-0,047956  
141,560000  	25,480568  	32,555556  	25,140144  	-242,047242  	80,378641  	74,374046  	0,010101  	0,012000  	0,003964  	0,004330  	0,004464  	-0,000001  	-0,000000  	28,071596  	26,845993  	27,943040  	27,713639  	31,113763  	29,493836  	30,940402  	30,388965  	33,486377  	32,569335  	35,522253  	67,086371  	27,501313  	26,557786  	29,726916  	73,535109  	0,274194  	0,138936  	-4109,253146  	-27083,591582  	-0,102837  	-0,050012  	0,393947  	0,199616  	-5,025475  	17227,246914  	132370,612148  	19,198734  	-0,047961  
142,560000  	25,459301  	32,563686  	25,141803  	357,439972  	80,383890  	74,380783  	0,010085  	0,011965  	0,003963  	0,004382  	0,004519  	0,000001  	-0,000000  	28,063844  	26,844238  	27,947116  	27,708329  	31,114268  	29,488410  	30,940525  	30,382309  	33,485782  	32,566724  	35,515269  	67,083697  	27,496026  	26,554484  	29,733268  	73,528929  	0,315912  	0,160075  	-4754,149715  	12486,254242  	-0,036453  	-0,049989  	0,437315  	0,221591  	-5,577332  	17151,822544  	132043,662344  	19,151314  	-0,047942  
143,565000  	25,439756  	32,573664  	25,141158  	1256,670793  	80,388546  	74,385866  	0,010095  	0,012071  	0,003965  	0,004397  	0,004440  	0,000001  	-0,000000  	28,058822  	26,835038  	27,944133  	27,706164  	31,106092  	29,482825  	30,940453  	30,377993  	33,475199  	32,562893  	35,512182  	67,078269  	27,485570  	26,548174  	29,726968  	73,524661  	0,328045  	0,166223  	-4957,254886  	25527,174115  	-0,018523  	-0,049992  	0,374397  	0,189710  	-4,774565  	17379,786451  	132249,062487  	19,181105  	-0,047945  
144,561000  	25,426357  	32,576743  	25,141035  	57,696365  	80,387421  	74,389422  	0,010092  	0,012047  	0,003963  	0,004356  	0,004489  	-0,000000  	-0,000000  	28,062213  	26,832464  	27,942893  	27,713317  	31,105737  	29,485109  	30,942844  	30,386119  	33,475723  	32,564957  	35,514007  	67,086187  	27,485311  	26,548688  	29,725717  	73,527416  	0,294673  	0,149313  	-4463,249136  	1763,060412  	-0,053835  	-0,050005  	0,413679  	0,209614  	-5,271401  	17329,039217  	132182,709393  	19,171481  	-0,047955  
145,560000  	25,447070  	32,574526  	25,141158  	57,696365  	80,387452  	74,391574  	0,010086  	0,012000  	0,003964  	0,004371  	0,004484  	-0,000000  	-0,000000  	28,063159  	26,839324  	27,940752  	27,713678  	31,109757  	29,483913  	30,942723  	30,386177  	33,484421  	32,566856  	35,512853  	67,095571  	27,487396  	26,552526  	29,731077  	73,531923  	0,307314  	0,155718  	-4639,774434  	1762,936208  	-0,053831  	-0,050001  	0,409668  	0,207582  	-5,218448  	17228,235924  	132045,943077  	19,151645  	-0,047952  
146,560000  	25,433302  	32,566026  	25,140605  	657,183579  	80,390952  	74,391075  	0,010105  	0,012021  	0,003960  	0,004373  	0,004422  	0,000001  	-0,000000  	28,058921  	26,838784  	27,939633  	27,701258  	31,106605  	29,479111  	30,937304  	30,377809  	33,479738  	32,561729  	35,512954  	67,090331  	27,482233  	26,551081  	29,726752  	73,528371  	0,309142  	0,156644  	-4670,828445  	18444,680970  	-0,027561  	-0,049992  	0,360103  	0,182467  	-4,590137  	17273,449514  	132468,669550  	19,212956  	-0,047945  
147,561000  	25,436068  	32,566026  	25,140513  	-242,047242  	80,390640  	74,390981  	0,010092  	0,012007  	0,003958  	0,004392  	0,004474  	0,000000  	-0,000000  	28,063956  	26,838409  	27,947641  	27,698004  	31,106719  	29,484938  	30,938774  	30,380429  	33,479961  	32,563519  	35,516470  	67,083620  	27,479369  	26,558717  	29,723618  	73,526284  	0,324237  	0,164293  	-4896,999095  	-27077,537492  	-0,102814  	-0,049999  	0,401370  	0,203377  	-5,115967  	17243,482096  	132176,071966  	19,170518  	-0,047951  
148,566000  	25,445287  	32,570338  	25,140513  	956,927186  	80,385890  	74,389609  	0,010093  	0,012038  	0,003961  	0,004431  	0,004486  	-0,000001  	-0,000000  	28,075064  	26,847393  	27,954604  	27,707765  	31,113440  	29,490298  	30,945448  	30,384584  	33,484032  	32,567446  	35,517260  	67,085900  	27,485614  	26,569758  	29,729556  	73,535793  	0,356118  	0,180448  	-5374,799184  	22481,510367  	-0,022161  	-0,050006  	0,410903  	0,208207  	-5,234528  	17308,901763  	132199,811361  	19,173962  	-0,047957  
149,562000  	25,450758  	32,567504  	25,141189  	57,696365  	80,385453  	74,390201  	0,010101  	0,012033  	0,003962  	0,004427  	0,004504  	-0,000000  	-0,000000  	28,067596  	26,846944  	27,950467  	27,713448  	31,112188  	29,490264  	30,948377  	30,380944  	33,482873  	32,567505  	35,518380  	67,087616  	27,485215  	26,565811  	29,726136  	73,536631  	0,352421  	0,178574  	-5312,802416  	1762,998752  	-0,053833  	-0,050003  	0,425407  	0,215557  	-5,418371  	17298,781746  	132389,684161  	19,201500  	-0,047954  
150,563000  	25,457826  	32,569475  	25,141066  	657,183579  	80,380828  	74,390887  	0,010096  	0,011981  	0,003961  	0,004432  	0,004426  	-0,000000  	-0,000000  	28,065805  	26,848632  	27,948700  	27,717588  	31,113012  	29,494153  	30,944334  	30,384248  	33,481939  	32,569098  	35,516506  	67,078308  	27,484431  	26,570168  	29,725023  	73,526740  	0,356391  	0,180586  	-5368,809031  	18447,908918  	-0,027566  	-0,050002  	0,363919  	0,184401  	-4,631100  	17185,933474  	132280,964507  	19,185732  	-0,047953  
151,560000  	25,474052  	32,575111  	25,141803  	-242,047242  	80,378172  	74,387831  	0,010094  	0,012180  	0,003963  	0,004385  	0,004481  	0,000001  	-0,000000  	28,069643  	26,849795  	27,951551  	27,723624  	31,115965  	29,499925  	30,951621  	30,392086  	33,488436  	32,573687  	35,527450  	67,088421  	27,490396  	26,574912  	29,734575  	73,531922  	0,318837  	0,161557  	-4795,923592  	-27073,469562  	-0,102798  	-0,049991  	0,407482  	0,206474  	-5,185807  	17615,289612  	132237,637638  	19,179448  	-0,047943  
152,561000  	25,486407  	32,576281  	25,141803  	-242,047242  	80,380985  	74,393133  	0,010107  	0,011982  	0,003960  	0,004453  	0,004485  	0,000000  	-0,000000  	28,070032  	26,847163  	27,940729  	27,714898  	31,111046  	29,495057  	30,946393  	30,391864  	33,481222  	32,567089  	35,526816  	67,085901  	27,497453  	26,576226  	29,732726  	73,525000  	0,373454  	0,189232  	-5608,604782  	-27075,466350  	-0,102806  	-0,049995  	0,410038  	0,207770  	-5,216178  	17187,874707  	132499,745422  	19,217463  	-0,047947  
153,562000  	25,480998  	32,581024  	25,141404  	-242,047242  	80,380828  	74,400306  	0,010097  	0,012025  	0,003963  	0,004403  	0,004439  	0,000001  	-0,000000  	28,061332  	26,844338  	27,940412  	27,709390  	31,112574  	29,487196  	30,937194  	30,381991  	33,477282  	32,566114  	35,516681  	67,075264  	27,487075  	26,570482  	29,720662  	73,521702  	0,333357  	0,168914  	-5013,590601  	-27069,511327  	-0,102783  	-0,049983  	0,374194  	0,189607  	-4,754377  	17281,259720  	132292,975427  	19,187474  	-0,047936  
154,560000  	25,442214  	32,590324  	25,142326  	357,439972  	80,381828  	74,402864  	0,010099  	0,012021  	0,003958  	0,004357  	0,004490  	-0,000001  	-0,000000  	28,070286  	26,842637  	27,946677  	27,710117  	31,110546  	29,492353  	30,939298  	30,384607  	33,481702  	32,568486  	35,522217  	67,080244  	27,493868  	26,561657  	29,723381  	73,516314  	0,295742  	0,149855  	-4478,012104  	12490,214637  	-0,036464  	-0,050007  	0,414369  	0,209964  	-5,263450  	17272,679813  	132333,068314  	19,193289  	-0,047957  
155,563000  	25,402939  	32,596791  	25,142418  	357,439972  	80,383672  	74,396158  	0,010093  	0,012035  	0,003963  	0,004354  	0,004472  	-0,000001  	-0,000000  	28,075258  	26,848803  	27,958328  	27,721053  	31,115191  	29,497842  	30,942448  	30,396378  	33,486593  	32,575295  	35,527277  	67,091002  	27,510398  	26,561518  	29,723876  	73,534957  	0,293424  	0,148680  	-4471,349458  	12491,893700  	-0,036469  	-0,050014  	0,400356  	0,202863  	-5,092715  	17303,402784  	132215,352828  	19,176216  	-0,047964  
156,562000  	25,408410  	32,595128  	25,143278  	956,927186  	80,382672  	74,395098  	0,010099  	0,012010  	0,003961  	0,004339  	0,004490  	0,000001  	-0,000000  	28,074974  	26,856697  	27,950977  	27,716791  	31,107641  	29,494912  	30,944368  	30,392568  	33,485210  	32,574351  	35,528848  	67,083298  	27,506900  	26,554257  	29,731848  	73,533918  	0,281190  	0,142481  	-4280,668199  	22474,220152  	-0,022154  	-0,049989  	0,414661  	0,210112  	-5,274740  	17249,471335  	132346,738591  	19,195272  	-0,047942  
157,561000  	25,413357  	32,574310  	25,143616  	1256,670793  	80,385203  	74,396158  	0,010095  	0,012007  	0,003961  	0,004344  	0,004469  	-0,000000  	-0,000000  	28,073594  	26,857849  	27,946722  	27,721049  	31,117159  	29,496750  	30,941845  	30,398421  	33,487385  	32,571032  	35,532335  	67,091643  	27,506041  	26,559386  	29,729843  	73,533530  	0,285477  	0,144653  	-4330,352540  	25531,789005  	-0,018526  	-0,050003  	0,397386  	0,201358  	-5,056227  	17243,547181  	132244,931748  	19,180506  	-0,047954  
158,561000  	25,434009  	32,560391  	25,143862  	1256,670793  	80,388827  	74,392041  	0,010097  	0,012050  	0,003961  	0,004409  	0,004508  	-0,000000  	-0,000000  	28,072328  	26,837571  	27,941333  	27,709033  	31,107163  	29,482697  	30,941022  	30,382250  	33,485100  	32,565447  	35,521032  	67,075616  	27,494432  	26,546661  	29,711865  	73,527612  	0,337786  	0,171159  	-5099,081895  	25532,674702  	-0,018527  	-0,050005  	0,428868  	0,217311  	-5,463853  	17335,408355  	132288,710526  	19,186855  	-0,047955  
159,560000  	25,425527  	32,556048  	25,144231  	357,439972  	80,387952  	74,387394  	0,010099  	0,011997  	0,003962  	0,004397  	0,004459  	-0,000001  	-0,000000  	28,073308  	26,830981  	27,951125  	27,722148  	31,115466  	29,490327  	30,943495  	30,394102  	33,486337  	32,572868  	35,530679  	67,083633  	27,506049  	26,547223  	29,714529  	73,525339  	0,328653  	0,166531  	-4964,090912  	12491,659538  	-0,036469  	-0,050014  	0,389440  	0,197332  	-4,964648  	17221,403409  	132328,909330  	19,192686  	-0,047963  
160,562000  	25,403523  	32,557342  	25,144108  	956,927186  	80,390452  	74,384587  	0,010083  	0,012018  	0,003961  	0,004365  	0,004486  	0,000001  	-0,000000  	28,070080  	26,847625  	27,956122  	27,720171  	31,126191  	29,500866  	30,952515  	30,396885  	33,487537  	32,569178  	35,533849  	67,081510  	27,494626  	26,542128  	29,720564  	73,521696  	0,302620  	0,153340  	-4585,814793  	22474,806967  	-0,022155  	-0,049990  	0,411181  	0,208349  	-5,246442  	17265,944218  	131989,150703  	19,143408  	-0,047943  
161,563000  	25,395656  	32,561468  	25,143340  	956,927186  	80,394358  	74,388954  	0,010105  	0,012000  	0,003964  	0,004350  	0,004507  	-0,000001  	-0,000000  	28,078567  	26,845761  	27,961214  	27,733160  	31,119737  	29,508432  	30,949529  	30,401442  	33,494305  	32,579442  	35,540084  	67,092004  	27,494446  	26,545652  	29,728458  	73,535484  	0,290251  	0,147072  	-4405,755826  	22483,118443  	-0,022163  	-0,050011  	0,428164  	0,216954  	-5,462718  	17226,735431  	132464,722399  	19,212384  	-0,047961  
162,559000  	25,398914  	32,555802  	25,143954  	-242,047242  	80,389671  	74,381469  	0,010091  	0,011986  	0,003963  	0,004350  	0,004454  	0,000000  	-0,000000  	28,073359  	26,844489  	27,956534  	27,723178  	31,110154  	29,492978  	30,951749  	30,391228  	33,485293  	32,576724  	35,523650  	67,080978  	27,486430  	26,537960  	29,721708  	73,520279  	0,289823  	0,146856  	-4393,791770  	-27077,253946  	-0,102812  	-0,049998  	0,386167  	0,195674  	-4,929198  	17197,773293  	132170,705535  	19,169740  	-0,047950  
163,562000  	25,390247  	32,547672  	25,144046  	-242,047242  	80,382078  	74,388767  	0,010102  	0,012023  	0,003961  	0,004390  	0,004497  	-0,000001  	-0,000000  	28,056279  	26,837925  	27,951981  	27,718799  	31,107761  	29,491640  	30,939283  	30,382169  	33,484443  	32,566282  	35,524978  	67,070035  	27,479446  	26,545979  	29,711819  	73,519360  	0,322314  	0,163319  	-4886,728448  	-27085,435364  	-0,102843  	-0,050015  	0,420013  	0,212824  	-5,347932  	17276,422910  	132409,907132  	19,204433  	-0,047965  
164,564000  	25,378016  	32,542129  	25,144845  	956,927186  	80,379579  	74,388268  	0,010093  	0,012006  	0,003961  	0,004425  	0,004472  	-0,000000  	-0,000000  	28,056609  	26,829469  	27,944007  	27,718553  	31,106471  	29,487450  	30,936971  	30,379005  	33,480849  	32,570765  	35,519065  	67,071653  	27,483871  	26,553171  	29,708353  	73,516949  	0,351002  	0,177856  	-5326,656508  	22480,335502  	-0,022160  	-0,050004  	0,400032  	0,202699  	-5,091816  	17240,115360  	132205,636763  	19,174806  	-0,047955  
165,562000  	25,380198  	32,538556  	25,145306  	57,696365  	80,376079  	74,385336  	0,010088  	0,012013  	0,003960  	0,004414  	0,004470  	-0,000000  	-0,000000  	28,072827  	26,844167  	27,951121  	27,721243  	31,121114  	29,493099  	30,948896  	30,387104  	33,483414  	32,575173  	35,529994  	67,081251  	27,486148  	26,565483  	29,711672  	73,518421  	0,342127  	0,173358  	-5187,795084  	1762,790855  	-0,053834  	-0,050004  	0,398717  	0,202033  	-5,074592  	17255,465526  	132100,715978  	19,159589  	-0,047955  
166,563000  	25,398883  	32,532828  	25,145798  	1256,670793  	80,368705  	74,387332  	0,010099  	0,011985  	0,003961  	0,004408  	0,004443  	-0,000001  	-0,000000  	28,075072  	26,849731  	27,955638  	27,719429  	31,121654  	29,493136  	30,949006  	30,393960  	33,488200  	32,574613  	35,529835  	67,078156  	27,481274  	26,575861  	29,715333  	73,523491  	0,337036  	0,170779  	-5093,169649  	25534,275895  	-0,018528  	-0,050008  	0,377393  	0,191228  	-4,795690  	17196,078960  	132341,463954  	19,194507  	-0,047959  
167,562000  	25,421378  	32,525438  	25,145521  	1256,670793  	80,367361  	74,383652  	0,010108  	0,011995  	0,003959  	0,004417  	0,004467  	0,000000  	-0,000000  	28,079320  	26,856029  	27,956734  	27,719559  	31,124068  	29,497323  	30,950766  	30,399322  	33,489702  	32,577381  	35,527099  	67,080956  	27,485947  	26,594688  	29,720216  	73,526074  	0,344412  	0,174516  	-5182,811396  	25529,807201  	-0,018525  	-0,049999  	0,396195  	0,200755  	-5,036583  	17217,520237  	132534,330657  	19,222479  	-0,047950  
168,562000  	25,407856  	32,525622  	25,145706  	57,696365  	80,374985  	74,379847  	0,010110  	0,012006  	0,003964  	0,004364  	0,004532  	-0,000001  	-0,000000  	28,084825  	26,855351  	27,962035  	27,731892  	31,126748  	29,510042  	30,960403  	30,393504  	33,492871  	32,578061  	35,538068  	67,084312  	27,496851  	26,607223  	29,722279  	73,528443  	0,301348  	0,152695  	-4543,527600  	1763,196308  	-0,053847  	-0,050017  	0,447331  	0,226666  	-5,697499  	17241,163087  	132580,079481  	19,229115  	-0,047966  
169,559000  	25,413142  	32,532490  	25,145491  	1256,670793  	80,372923  	74,373859  	0,010100  	0,012043  	0,003961  	0,004394  	0,004462  	0,000002  	-0,000000  	28,076792  	26,850320  	27,962868  	27,729394  	31,123772  	29,505116  	30,957209  	30,388176  	33,490313  	32,574292  	35,537437  	67,079698  	27,497679  	26,602874  	29,720681  	73,528505  	0,325928  	0,165150  	-4915,215406  	25519,248780  	-0,018517  	-0,049975  	0,392401  	0,198832  	-5,001138  	17319,454737  	132363,452199  	19,197696  	-0,047930  
170,564000  	25,416707  	32,536863  	25,146351  	1256,670793  	80,372361  	74,373235  	0,010107  	0,011990  	0,003960  	0,004400  	0,004443  	0,000001  	-0,000000  	28,072419  	26,856110  	27,962481  	27,725583  	31,120303  	29,497441  	30,954058  	30,393847  	33,490586  	32,576544  	35,531570  	67,082867  	27,501266  	26,605691  	29,720402  	73,531779  	0,330507  	0,167470  	-4984,838152  	25526,917985  	-0,018523  	-0,049992  	0,377014  	0,191036  	-4,805085  	17206,716827  	132500,684547  	19,217600  	-0,047945  
171,567000  	25,422700  	32,534923  	25,144692  	1256,670793  	80,375860  	74,372830  	0,010106  	0,012021  	0,003962  	0,004328  	0,004469  	-0,000002  	-0,000000  	28,080012  	26,860470  	27,968671  	27,731296  	31,121494  	29,499659  	30,958833  	30,399721  	33,493394  	32,584118  	35,537568  	67,091275  	27,504899  	26,616705  	29,727426  	73,536215  	0,272647  	0,138152  	-4107,597096  	25540,939433  	-0,018533  	-0,050023  	0,397396  	0,201364  	-5,068155  	17273,661041  	132494,167158  	19,216654  	-0,047971  
172,560000  	25,429399  	32,535662  	25,143708  	57,696365  	80,377360  	74,380814  	0,010096  	0,011987  	0,003960  	0,004417  	0,004470  	-0,000000  	-0,000000  	28,079728  	26,851970  	27,962452  	27,723714  	31,120045  	29,498419  	30,953558  	30,396490  	33,487245  	32,581975  	35,536054  	67,091080  	27,496488  	26,619932  	29,729725  	73,534534  	0,344567  	0,174595  	-5186,764100  	1762,836341  	-0,053832  	-0,050002  	0,398226  	0,201784  	-5,073250  	17199,795174  	132269,130114  	19,184015  	-0,047953  
173,561000  	25,445165  	32,538187  	25,143002  	57,696365  	80,383547  	74,386927  	0,010087  	0,012016  	0,003959  	0,004388  	0,004473  	0,000000  	-0,000000  	28,074294  	26,844098  	27,949230  	27,718827  	31,114705  	29,499359  	30,952047  	30,391863  	33,484882  	32,572988  	35,532036  	67,087625  	27,497245  	26,623702  	29,726291  	73,533390  	0,321025  	0,162666  	-4823,375777  	1762,744183  	-0,053828  	-0,049998  	0,400973  	0,203176  	-5,108323  	17262,462168  	132069,421212  	19,155050  	-0,047950  
174,562000  	25,447685  	32,543915  	25,142817  	1256,670793  	80,390483  	74,381562  	0,010101  	0,012011  	0,003965  	0,004395  	0,004506  	0,000000  	-0,000000  	28,075510  	26,843769  	27,954180  	27,721569  	31,117219  	29,498957  	30,956196  	30,392175  	33,486438  	32,569049  	35,535559  	67,083268  	27,505433  	26,624306  	29,729466  	73,531543  	0,326896  	0,165641  	-4913,811002  	25528,290716  	-0,018524  	-0,049995  	0,426866  	0,216296  	-5,449344  	17250,676116  	132376,056250  	19,199524  	-0,047947  
175,562000  	25,432196  	32,552692  	25,141619  	1256,670793  	80,387859  	74,383090  	0,010085  	0,012004  	0,003962  	0,004390  	0,004424  	-0,000000  	-0,000000  	28,078849  	26,845029  	27,953024  	27,718140  	31,115517  	29,495649  	30,950076  	30,391371  	33,485518  	32,568979  	35,526404  	67,079163  	27,504226  	26,616538  	29,722575  	73,531183  	0,322508  	0,163417  	-4864,421968  	25533,274624  	-0,018527  	-0,050006  	0,362037  	0,183447  	-4,618550  	17237,089612  	132039,623398  	19,150728  	-0,047956  
176,563000  	25,453769  	32,561930  	25,140636  	1256,670793  	80,385296  	74,388517  	0,010095  	0,012025  	0,003961  	0,004410  	0,004457  	0,000001  	-0,000000  	28,090685  	26,852016  	27,958472  	27,729995  	31,124141  	29,496830  	30,968375  	30,403030  	33,491816  	32,579790  	35,535565  	67,086749  	27,509646  	26,622737  	29,729692  	73,542361  	0,338633  	0,171588  	-5098,788280  	25523,545327  	-0,018520  	-0,049984  	0,388018  	0,196612  	-4,943407  	17280,698715  	132253,489793  	19,181747  	-0,047938  
177,564000  	25,463266  	32,562023  	25,138700  	57,696365  	80,384953  	74,380845  	0,010104  	0,011995  	0,003958  	0,004402  	0,004457  	-0,000002  	-0,000000  	28,071788  	26,846185  	27,960175  	27,723001  	31,123095  	29,500642  	30,956695  	30,388114  	33,486947  	32,567616  	35,535928  	67,091226  	27,507038  	26,626115  	29,718483  	73,540900  	0,332189  	0,168323  	-4995,141316  	1763,875966  	-0,053856  	-0,050026  	0,388450  	0,196830  	-4,954952  	17217,707710  	132452,160714  	19,210562  	-0,047974  
178,560000  	25,447224  	32,564979  	25,138945  	657,183579  	80,381891  	74,378662  	0,010108  	0,012026  	0,003956  	0,004401  	0,004502  	-0,000000  	-0,000000  	28,078358  	26,844952  	27,951574  	27,717932  	31,112025  	29,496472  	30,947907  	30,384894  	33,489558  	32,568910  	35,522306  	67,078441  	27,502444  	26,619601  	29,725619  	73,528484  	0,331124  	0,167783  	-4992,459147  	18449,263480  	-0,027568  	-0,050006  	0,423755  	0,214720  	-5,404494  	17282,818223  	132535,276844  	19,222617  	-0,047956  
179,560000  	25,446947  	32,573386  	25,138024  	-242,047242  	80,379422  	74,385461  	0,010089  	0,012027  	0,003960  	0,004382  	0,004447  	-0,000002  	-0,000000  	28,077641  	26,856089  	27,954454  	27,720177  	31,118473  	29,498871  	30,951404  	30,396496  	33,493328  	32,580873  	35,523639  	67,084451  	27,513894  	26,623736  	29,730046  	73,544773  	0,316137  	0,160189  	-4772,312568  	-27088,451303  	-0,102856  	-0,050022  	0,379896  	0,192496  	-4,837655  	17286,192742  	132126,199464  	19,163285  	-0,047970  
180,563000  	25,463050  	32,573817  	25,137409  	956,927186  	80,383984  	74,389765  	0,010096  	0,011983  	0,003959  	0,004389  	0,004478  	0,000000  	-0,000000  	28,072822  	26,855390  	27,960110  	27,727583  	31,120498  	29,499020  	30,954029  	30,387783  	33,485610  	32,578058  	35,529627  	67,082870  	27,511257  	26,618849  	29,727726  	73,528998  	0,321691  	0,163003  	-4845,470377  	22476,868740  	-0,022157  	-0,049995  	0,405229  	0,205333  	-5,160480  	17189,853434  	132280,244275  	19,185627  	-0,047947  
181,562000  	25,427463  	32,572894  	25,136395  	1256,670793  	80,386734  	74,383465  	0,010094  	0,012043  	0,003964  	0,004386  	0,004471  	0,000001  	-0,000000  	28,064287  	26,841245  	27,944555  	27,720556  	31,118612  	29,496477  	30,952049  	30,381718  	33,483435  	32,574169  	35,521877  	67,084551  	27,496885  	26,592627  	29,721780  	73,530812  	0,319734  	0,162012  	-4839,475267  	25522,244976  	-0,018519  	-0,049981  	0,399199  	0,202277  	-5,091360  	17319,464641  	132229,256120  	19,178232  	-0,047935  
182,561000  	25,413081  	32,575912  	25,135289  	1256,670793  	80,385234  	74,384525  	0,010099  	0,012003  	0,003960  	0,004363  	0,004499  	0,000001  	-0,000000  	28,062567  	26,852565  	27,952097  	27,729646  	31,113803  	29,496303  	30,950114  	30,398276  	33,491817  	32,576841  	35,522778  	67,080705  	27,497793  	26,594199  	29,726434  	73,535132  	0,300870  	0,152453  	-4565,045041  	25523,726020  	-0,018520  	-0,049985  	0,421231  	0,213441  	-5,370063  	17233,719339  	132326,960469  	19,192403  	-0,047938  
183,562000  	25,397500  	32,573602  	25,134090  	1256,670793  	80,390483  	74,389921  	0,010097  	0,012006  	0,003963  	0,004409  	0,004497  	-0,000000  	-0,000000  	28,088889  	26,856813  	27,960595  	27,730323  	31,132595  	29,512024  	30,960997  	30,402394  	33,501186  	32,584615  	35,536072  	67,093293  	27,513259  	26,591715  	29,731075  	73,536745  	0,338073  	0,171304  	-5139,021288  	25531,005852  	-0,018526  	-0,050000  	0,420056  	0,212846  	-5,354959  	17239,852897  	132300,368391  	19,188546  	-0,047952  
184,561000  	25,389326  	32,563624  	25,134889  	1256,670793  	80,394295  	74,389733  	0,010096  	0,012007  	0,003960  	0,004331  	0,004481  	-0,000002  	-0,000000  	28,087269  	26,853644  	27,969093  	27,720050  	31,123676  	29,507099  	30,959822  	30,399197  	33,495581  	32,586481  	35,536376  	67,085636  	27,500311  	26,587157  	29,720138  	73,534035  	0,274514  	0,139098  	-4171,815325  	25540,419625  	-0,018533  	-0,050021  	0,407571  	0,206519  	-5,199253  	17241,796959  	132276,636057  	19,185104  	-0,047969  
185,561000  	25,376326  	32,552045  	25,133875  	-242,047242  	80,396545  	74,387893  	0,010104  	0,012045  	0,003957  	0,004392  	0,004452  	-0,000000  	-0,000000  	28,070979  	26,841507  	27,958762  	27,725867  	31,117292  	29,501469  	30,947603  	30,393470  	33,491244  	32,577394  	35,536890  	67,083749  	27,510014  	26,562257  	29,726101  	73,530091  	0,324282  	0,164316  	-4929,138420  	-27078,627211  	-0,102821  	-0,050002  	0,384076  	0,194614  	-4,902879  	17325,148263  	132435,602450  	19,208160  	-0,047953  
186,565000  	25,343752  	32,540589  	25,133076  	-242,047242  	80,397607  	74,391636  	0,010094  	0,012021  	0,003962  	0,004394  	0,004457  	-0,000001  	-0,000000  	28,083882  	26,851146  	27,954434  	27,732121  	31,127306  	29,499123  	30,955573  	30,401508  	33,489117  	32,582081  	35,537704  	67,080623  	27,515124  	26,569804  	29,732082  	73,524999  	0,325665  	0,165017  	-4964,731265  	-27082,909550  	-0,102837  	-0,050011  	0,388473  	0,196842  	-4,956797  	17272,891339  	132238,943941  	19,179637  	-0,047961  
187,559000  	25,335454  	32,532921  	25,132800  	657,183579  	80,394077  	74,402365  	0,010098  	0,012004  	0,003963  	0,004373  	0,004498  	-0,000000  	-0,000000  	28,080746  	26,856986  	27,959103  	27,732815  	31,125961  	29,498030  	30,955390  	30,399115  	33,492251  	32,568316  	35,533726  	67,086370  	27,512165  	26,561204  	29,719264  	73,534258  	0,308497  	0,156318  	-4703,414372  	18448,333221  	-0,027566  	-0,050002  	0,420657  	0,213150  	-5,354716  	17235,792156  	132306,702192  	19,189465  	-0,047953  
188,563000  	25,363727  	32,519556  	25,131571  	1256,670793  	80,391139  	74,392821  	0,010103  	0,011998  	0,003961  	0,004314  	0,004445  	0,000001  	-0,000000  	28,071198  	26,850338  	27,955978  	27,718757  	31,125011  	29,487834  	30,949684  	30,399486  	33,485518  	32,577590  	35,532065  	67,080406  	27,506368  	26,554185  	29,717631  	73,525435  	0,261305  	0,132405  	-3960,867229  	25527,148219  	-0,018523  	-0,049992  	0,378896  	0,191989  	-4,828433  	17223,169902  	132411,990154  	19,204736  	-0,047944  
189,564000  	25,371840  	32,502095  	25,130710  	1256,670793  	80,387702  	74,388112  	0,010087  	0,012005  	0,003965  	0,004382  	0,004476  	0,000000  	-0,000000  	28,077823  	26,856022  	27,954971  	27,720686  	31,119870  	29,492686  	30,946090  	30,394709  	33,493953  	32,580619  	35,533298  	67,081919  	27,501130  	26,564697  	29,719853  	73,522311  	0,315756  	0,159996  	-4769,120466  	25530,131966  	-0,018525  	-0,049998  	0,403081  	0,204244  	-5,137715  	17238,595765  	132067,973688  	19,154840  	-0,047950  
190,562000  	25,373376  	32,502095  	25,131079  	1256,670793  	80,380266  	74,394724  	0,010097  	0,012018  	0,003959  	0,004376  	0,004478  	-0,000001  	-0,000000  	28,078872  	26,859337  	27,959045  	27,725312  	31,124647  	29,499246  	30,955227  	30,395524  	33,490372  	32,576595  	35,528878  	67,081079  	27,512859  	26,576933  	29,722023  	73,527379  	0,311640  	0,157910  	-4705,944132  	25535,411040  	-0,018529  	-0,050010  	0,404983  	0,205208  	-5,149882  	17265,872766  	132283,880738  	19,186155  	-0,047960  
191,561000  	25,370518  	32,506344  	25,131724  	357,439972  	80,377423  	74,398497  	0,010097  	0,012017  	0,003958  	0,004399  	0,004527  	-0,000001  	-0,000000  	28,072538  	26,846512  	27,961189  	27,728414  	31,124409  	29,500858  	30,955278  	30,390310  	33,488743  	32,571695  	35,528543  	67,083706  	27,519010  	26,583541  	29,720601  	73,530782  	0,329928  	0,167177  	-4987,078911  	12491,121953  	-0,036466  	-0,050009  	0,443518  	0,224734  	-5,633675  	17263,456130  	132296,357690  	19,187964  	-0,047959  
192,561000  	25,376787  	32,512134  	25,131417  	956,927186  	80,378422  	74,383028  	0,010107  	0,011971  	0,003963  	0,004339  	0,004416  	0,000000  	-0,000000  	28,073664  	26,844250  	27,954380  	27,719615  	31,117400  	29,498161  	30,955373  	30,392255  	33,488339  	32,564548  	35,524249  	67,076772  	27,512106  	26,588276  	29,713271  	73,526504  	0,281112  	0,142441  	-4248,895767  	22477,406591  	-0,022157  	-0,049995  	0,355413  	0,180090  	-4,526966  	17165,404802  	132512,285924  	19,219282  	-0,047947  
193,565000  	25,463849  	32,515429  	25,131079  	57,696365  	80,377048  	74,379379  	0,010096  	0,012025  	0,003956  	0,004378  	0,004517  	0,000000  	-0,000000  	28,071375  	26,844804  	27,952393  	27,717104  	31,117951  	29,494855  	30,950641  	30,394074  	33,489549  	32,566968  	35,528303  	67,077254  	27,513485  	26,600462  	29,716053  	73,522018  	0,312793  	0,158495  	-4672,230511  	1763,462026  	-0,053831  	-0,049999  	0,435442  	0,220642  	-5,548407  	17280,366923  	132269,624391  	19,184087  	-0,047951  
194,562000  	25,496302  	32,515306  	25,131694  	1256,670793  	80,380547  	74,382124  	0,010095  	0,011993  	0,003965  	0,004373  	0,004455  	-0,000001  	-0,000000  	28,073965  	26,851689  	27,954694  	27,725590  	31,122080  	29,502017  	30,952948  	30,397526  	33,496396  	32,575745  	35,527568  	67,080941  	27,518267  	26,613374  	29,728320  	73,527312  	0,308466  	0,156302  	-4586,298773  	25535,937050  	-0,018529  	-0,050011  	0,386984  	0,196087  	-4,931576  	17212,297162  	132250,481767  	19,181311  	-0,047961  
195,563000  	25,495657  	32,528887  	25,131970  	357,439972  	80,376704  	74,384432  	0,010103  	0,012042  	0,003962  	0,004381  	0,004505  	0,000000  	-0,000000  	28,077737  	26,852242  	27,957804  	27,725276  	31,118649  	29,502871  	30,959958  	30,398994  	33,499525  	32,575396  	35,528201  	67,084402  	27,517865  	26,616702  	29,730031  	73,531969  	0,315113  	0,159670  	-4694,614921  	12488,786643  	-0,036459  	-0,049998  	0,426295  	0,216007  	-5,426973  	17319,091109  	132415,054669  	19,205180  	-0,047950  
196,560000  	25,494981  	32,556787  	25,132646  	956,927186  	80,377641  	74,385367  	0,010100  	0,012029  	0,003961  	0,004415  	0,004431  	0,000001  	-0,000000  	28,077657  	26,845752  	27,958141  	27,723405  	31,119866  	29,498492  	30,953933  	30,394153  	33,492612  	32,574962  	35,532616  	67,081958  	27,515023  	26,613415  	29,724880  	73,524265  	0,342577  	0,173586  	-5124,523799  	22476,502145  	-0,022156  	-0,049993  	0,367665  	0,186299  	-4,680584  	17289,049409  	132363,353344  	19,197681  	-0,047946  
197,562000  	25,499652  	32,580346  	25,132831  	57,696365  	80,381984  	74,385586  	0,010113  	0,012034  	0,003966  	0,004410  	0,004508  	-0,000000  	-0,000000  	28,069799  	26,845005  	27,956126  	27,720497  	31,121104  	29,494458  	30,942363  	30,386755  	33,484329  	32,573652  	35,526474  	67,077190  	27,511900  	26,607296  	29,723206  	73,516341  	0,338925  	0,171736  	-5083,449004  	1763,518366  	-0,053835  	-0,050004  	0,428907  	0,217330  	-5,463994  	17299,901633  	132639,131404  	19,237680  	-0,047955  
198,562000  	25,473960  	32,590016  	25,133261  	1256,670793  	80,386609  	74,391885  	0,010093  	0,011977  	0,003963  	0,004363  	0,004432  	0,000001  	-0,000000  	28,061053  	26,844188  	27,950172  	27,713364  	31,116471  	29,486660  	30,939843  	30,384285  	33,479376  	32,566039  	35,517169  	67,076414  	27,513311  	26,603789  	29,718681  	73,517284  	0,300761  	0,152398  	-4533,573788  	25525,947387  	-0,018522  	-0,049989  	0,368397  	0,186670  	-4,691832  	17178,713279  	132216,362564  	19,176362  	-0,047942  
199,561000  	25,433579  	32,596576  	25,133537  	1256,670793  	80,386328  	74,389453  	0,010102  	0,012031  	0,003965  	0,004419  	0,004463  	0,000002  	-0,000000  	28,059660  	26,840251  	27,943686  	27,712288  	31,114655  	29,484525  	30,939995  	30,383487  	33,478334  	32,563814  	35,519497  	67,073456  	27,515768  	26,605639  	29,710495  	73,516988  	0,346454  	0,175551  	-5256,802055  	25521,528009  	-0,018519  	-0,049980  	0,393161  	0,199218  	-5,009016  	17293,952011  	132396,378077  	19,202471  	-0,047934  
200,563000  	25,382319  	32,600887  	25,133906  	1256,670793  	80,385015  	74,390576  	0,010099  	0,011989  	0,003959  	0,004367  	0,004469  	-0,000000  	-0,000000  	28,056431  	26,838566  	27,948318  	27,709558  	31,109292  	29,484608  	30,939857  	30,375843  	33,484332  	32,568351  	35,526873  	67,075959  	27,512007  	26,608803  	29,708285  	73,517913  	0,304012  	0,154045  	-4648,613877  	25531,107177  	-0,018526  	-0,050001  	0,397554  	0,201443  	-5,062921  	17203,275102  	132345,347556  	19,195070  	-0,047952  
201,559000  	25,333825  	32,587984  	25,134859  	1256,670793  	80,386140  	74,390794  	0,010097  	0,011993  	0,003960  	0,004365  	0,004491  	-0,000000  	-0,000000  	28,067798  	26,840367  	27,950091  	27,713642  	31,115215  	29,488793  	30,944422  	30,379384  	33,487121  	32,577125  	35,526384  	67,079968  	27,510493  	26,618204  	29,712497  	73,524970  	0,302237  	0,153146  	-4644,278038  	25531,839109  	-0,018526  	-0,050002  	0,415417  	0,210495  	-5,291208  	17211,854301  	132301,272211  	19,188677  	-0,047953  
202,562000  	25,307643  	32,563162  	25,134982  	657,183579  	80,386203  	74,387737  	0,010109  	0,012014  	0,003965  	0,004368  	0,004454  	-0,000001  	-0,000000  	28,072386  	26,838494  	27,951164  	27,715267  	31,121789  	29,497895  	30,941731  	30,386513  	33,484454  	32,568629  	35,529442  	67,079688  	27,506781  	26,620293  	29,711879  	73,520556  	0,304923  	0,154507  	-4686,429514  	18451,775809  	-0,027571  	-0,050013  	0,386164  	0,195672  	-4,921171  	17257,212210  	132552,816599  	19,225161  	-0,047962  
203,560000  	25,332443  	32,534337  	25,134889  	-242,047242  	80,387234  	74,379442  	0,010106  	0,012028  	0,003961  	0,004432  	0,004462  	0,000001  	-0,000000  	28,067695  	26,838864  	27,946171  	27,714745  	31,123214  	29,491364  	30,941420  	30,385203  	33,486791  	32,569750  	35,527163  	67,073404  	27,509666  	26,620086  	29,719544  	73,516291  	0,356236  	0,180507  	-5434,603215  	-27073,809981  	-0,102802  	-0,049992  	0,392176  	0,198718  	-5,005548  	17288,230186  	132478,675120  	19,214407  	-0,047944  
204,560000  	25,363112  	32,507053  	25,135688  	-242,047242  	80,388984  	74,379941  	0,010100  	0,011993  	0,003961  	0,004404  	0,004516  	-0,000001  	-0,000000  	28,064818  	26,839889  	27,942531  	27,716074  	31,118631  	29,482794  	30,941010  	30,383151  	33,485440  	32,570559  	35,522936  	67,072304  	27,517373  	26,634985  	29,714633  	73,516696  	0,334144  	0,169313  	-5056,548557  	-27085,882572  	-0,102848  	-0,050017  	0,434915  	0,220375  	-5,552208  	17211,811147  	132353,234797  	19,196214  	-0,047966  
205,563000  	25,369289  	32,489068  	25,134490  	956,927186  	80,388827  	74,390513  	0,010095  	0,011970  	0,003961  	0,004389  	0,004458  	-0,000001  	-0,000000  	28,062103  	26,859524  	27,945905  	27,720305  	31,117179  	29,492569  	30,947138  	30,388417  	33,481685  	32,578206  	35,527920  	67,079181  	27,522064  	26,654658  	29,712508  	73,525178  	0,321491  	0,162902  	-4848,614520  	22484,161390  	-0,022164  	-0,050012  	0,388823  	0,197020  	-4,954936  	17162,655667  	132247,141870  	19,180826  	-0,047962  
206,560000  	25,394919  	32,492456  	25,133507  	357,439972  	80,388015  	74,386895  	0,010098  	0,012000  	0,003964  	0,004325  	0,004490  	0,000001  	-0,000000  	28,081704  	26,864650  	27,962123  	27,728759  	31,128009  	29,511353  	30,964740  	30,387615  	33,492033  	32,589296  	35,532513  	67,090457  	27,537295  	26,674397  	29,718558  	73,538109  	0,269863  	0,136742  	-4057,264893  	12487,216404  	-0,036454  	-0,049992  	0,414425  	0,209992  	-5,283659  	17227,675627  	132323,020379  	19,191832  	-0,047944  
207,560000  	25,426265  	32,497445  	25,132493  	357,439972  	80,386171  	74,387363  	0,010094  	0,012008  	0,003958  	0,004400  	0,004443  	-0,000001  	-0,000000  	28,072329  	26,858471  	27,954503  	27,722491  	31,124118  	29,497894  	30,951556  	30,398024  	33,482989  	32,583734  	35,535671  	67,083539  	27,528079  	26,677315  	29,722451  	73,525648  	0,330573  	0,167504  	-4951,542667  	12490,575985  	-0,036464  	-0,050006  	0,377483  	0,191273  	-4,810818  	17244,205813  	132225,697329  	19,177716  	-0,047957  
208,561000  	25,423990  	32,508469  	25,131694  	956,927186  	80,386921  	74,379566  	0,010084  	0,012048  	0,003962  	0,004386  	0,004469  	0,000001  	-0,000000  	28,067154  	26,848868  	27,954564  	27,719459  	31,127041  	29,500884  	30,945514  	30,389492  	33,488321  	32,581816  	35,523528  	67,083456  	27,533296  	26,684083  	29,722366  	73,530720  	0,319436  	0,161861  	-4793,729273  	22475,030917  	-0,022155  	-0,049989  	0,397681  	0,201508  	-5,075448  	17330,619652  	132019,167411  	19,147761  	-0,047942  
209,564000  	25,406412  	32,523590  	25,131018  	-242,047242  	80,386921  	74,379161  	0,010100  	0,011988  	0,003962  	0,004389  	0,004475  	-0,000002  	-0,000000  	28,061031  	26,832146  	27,950694  	27,702474  	31,114239  	29,482366  	30,930691  	30,381041  	33,473717  	32,560787  	35,522610  	67,067552  	27,517644  	26,679012  	29,710191  	73,511697  	0,321473  	0,162893  	-4846,556803  	-27088,292019  	-0,102859  	-0,050022  	0,402340  	0,203869  	-5,135255  	17200,587514  	132358,813061  	19,197023  	-0,047970  
210,559000  	25,395656  	32,537325  	25,130956  	-242,047242  	80,385546  	74,370428  	0,010095  	0,012014  	0,003962  	0,004411  	0,004459  	0,000000  	-0,000000  	28,054652  	26,835486  	27,942325  	27,710227  	31,101051  	29,476216  	30,937101  	30,381284  	33,473080  	32,571582  	35,524877  	67,066980  	27,515510  	26,688152  	29,704975  	73,513703  	0,339223  	0,171887  	-5131,770037  	-27077,485972  	-0,102818  	-0,050000  	0,389490  	0,197358  	-4,977325  	17256,938429  	132241,041085  	19,179941  	-0,047951  
211,562000  	25,375835  	32,541297  	25,130311  	657,183579  	80,387296  	74,377508  	0,010097  	0,012002  	0,003961  	0,004406  	0,004440  	-0,000001  	-0,000000  	28,058702  	26,836556  	27,945995  	27,709489  	31,111260  	29,483016  	30,936185  	30,379603  	33,475999  	32,561916  	35,513111  	67,071602  	27,529086  	26,705387  	29,718395  	73,520281  	0,335695  	0,170099  	-5095,316598  	18451,824431  	-0,027571  	-0,050012  	0,374666  	0,189846  	-4,783645  	17231,028921  	132297,826398  	19,188177  	-0,047962  
212,559000  	25,366738  	32,536986  	25,129451  	1256,670793  	80,384859  	74,387426  	0,010116  	0,011989  	0,003959  	0,004329  	0,004462  	0,000001  	-0,000000  	28,063269  	26,843064  	27,954632  	27,711613  	31,113597  	29,491051  	30,943292  	30,386917  	33,482083  	32,574730  	35,518644  	67,080019  	27,539116  	26,717524  	29,724766  	73,530625  	0,273419  	0,138543  	-4152,835416  	25527,430054  	-0,018523  	-0,049992  	0,392117  	0,198689  	-4,996179  	17204,394989  	132710,540241  	19,248037  	-0,047945  
213,645000  	25,393013  	32,530519  	25,128498  	1256,670793  	80,381891  	74,381500  	0,010106  	0,012004  	0,003961  	0,004383  	0,004523  	-0,000000  	-0,000000  	28,059493  	26,846357  	27,938267  	27,711229  	31,117920  	29,483284  	30,950343  	30,381467  	33,473546  	32,570720  	35,517833  	67,077558  	27,542082  	26,716873  	29,712185  	73,529535  	0,317271  	0,160764  	-4796,880585  	25533,023054  	-0,018527  	-0,050004  	0,440387  	0,223147  	-5,613964  	17236,551246  	132484,500522  	19,215252  	-0,047955  
214,561000  	25,413050  	32,519925  	25,128068  	1256,670793  	80,385765  	74,385679  	0,010088  	0,012035  	0,003962  	0,004425  	0,004480  	-0,000001  	-0,000000  	28,074161  	26,845384  	27,950420  	27,707998  	31,119286  	29,487532  	30,950805  	30,386322  	33,471614  	32,576408  	35,531200  	67,084215  	27,548481  	26,722539  	29,713683  	73,531210  	0,350768  	0,177737  	-5280,562189  	25538,696356  	-0,018531  	-0,050017  	0,406720  	0,206088  	-5,184523  	17303,488385  	132104,677251  	19,160164  	-0,047966  
215,559000  	25,427064  	32,515398  	25,126224  	1256,670793  	80,385609  	74,386521  	0,010102  	0,011990  	0,003964  	0,004373  	0,004464  	0,000001  	-0,000000  	28,063460  	26,850558  	27,952009  	27,717180  	31,124476  	29,494007  	30,945161  	30,386788  	33,483739  	32,572531  	35,523235  	67,081180  	27,548841  	26,722025  	29,721392  	73,529261  	0,308581  	0,156360  	-4633,340719  	25527,220497  	-0,018523  	-0,049992  	0,393521  	0,199400  	-5,015450  	17206,853364  	132404,568945  	19,203659  	-0,047944  
216,565000  	25,457549  	32,520880  	25,126654  	1256,670793  	80,383547  	74,386272  	0,010094  	0,012002  	0,003961  	0,004396  	0,004501  	-0,000000  	-0,000000  	28,063125  	26,845967  	27,953992  	27,727501  	31,117371  	29,490916  	30,947028  	30,388325  	33,485491  	32,571976  	35,518953  	67,082839  	27,541489  	26,715220  	29,722156  	73,529254  	0,327555  	0,165974  	-4900,877046  	25533,514690  	-0,018527  	-0,050005  	0,423168  	0,214422  	-5,391671  	17231,748394  	132230,986088  	19,178483  	-0,047956  
217,560000  	25,483057  	32,532736  	25,125302  	1256,670793  	80,381547  	74,387114  	0,010108  	0,011987  	0,003959  	0,004380  	0,004488  	0,000001  	-0,000000  	28,060161  	26,847642  	27,951332  	27,720478  	31,115435  	29,492761  	30,944284  	30,387847  	33,486745  	32,566104  	35,524623  	67,080006  	27,544284  	26,718340  	29,724477  	73,535069  	0,314116  	0,159165  	-4690,716290  	25525,283511  	-0,018521  	-0,049987  	0,412591  	0,209063  	-5,254418  	17199,694009  	132540,043082  	19,223308  	-0,047940  
218,564000  	25,461483  	32,550166  	25,124995  	657,183579  	80,382922  	74,385430  	0,010094  	0,012015  	0,003961  	0,004385  	0,004462  	-0,000001  	-0,000000  	28,051999  	26,835197  	27,941981  	27,704278  	31,104570  	29,485860  	30,929318  	30,376461  	33,479712  	32,556426  	35,524223  	67,066356  	27,531142  	26,695902  	29,711288  	73,528089  	0,318424  	0,161348  	-4781,365313  	18451,435763  	-0,027570  	-0,050010  	0,392265  	0,198763  	-4,998103  	17259,936586  	132221,587773  	19,177120  	-0,047960  
219,561000  	25,419811  	32,567443  	25,123889  	657,183579  	80,380047  	74,388299  	0,010083  	0,012006  	0,003963  	0,004374  	0,004448  	-0,000001  	-0,000000  	28,058377  	26,841831  	27,942884  	27,708743  	31,102691  	29,486606  	30,936118  	30,376095  	33,478991  	32,562355  	35,523158  	67,070014  	27,525927  	26,690158  	29,707021  	73,524763  	0,309670  	0,156912  	-4688,598836  	18450,693842  	-0,027569  	-0,050008  	0,380871  	0,192990  	-4,848277  	17239,773663  	131998,238331  	19,144726  	-0,047958  
220,564000  	25,403400  	32,574464  	25,123582  	1256,670793  	80,377797  	74,385991  	0,010099  	0,012049  	0,003962  	0,004427  	0,004495  	0,000001  	-0,000000  	28,062255  	26,846837  	27,940386  	27,710625  	31,109465  	29,488623  	30,941894  	30,375383  	33,480972  	32,566097  	35,520226  	67,074252  	27,534313  	26,689044  	29,709530  	73,522661  	0,352928  	0,178831  	-5361,060754  	25524,247394  	-0,018521  	-0,049985  	0,418669  	0,212143  	-5,329481  	17332,568666  	132334,353433  	19,193475  	-0,047938  
221,644000  	25,421931  	32,565872  	25,124473  	1256,670793  	80,379735  	74,381375  	0,010100  	0,011998  	0,003962  	0,004398  	0,004431  	0,000000  	-0,000000  	28,059559  	26,840260  	27,944717  	27,706389  	31,107876  	29,487354  	30,938756  	30,378190  	33,477610  	32,570308  	35,513554  	67,075405  	27,534384  	26,680981  	29,720375  	73,527661  	0,329186  	0,166801  	-4981,503163  	25530,414495  	-0,018525  	-0,049998  	0,367300  	0,186113  	-4,680681  	17222,761706  	132352,097961  	19,196049  	-0,047950  
222,562000  	25,439756  	32,553923  	25,122322  	1256,670793  	80,379797  	74,379379  	0,010094  	0,012029  	0,003958  	0,004413  	0,004495  	0,000001  	-0,000000  	28,059589  	26,841175  	27,952811  	27,705208  	31,105488  	29,489149  	30,945172  	30,385164  	33,477315  	32,571662  	35,512988  	67,077859  	27,530831  	26,675325  	29,724435  	73,535376  	0,341150  	0,172863  	-5141,027731  	25527,386203  	-0,018523  	-0,049992  	0,418019  	0,211813  	-5,328847  	17289,198680  	132222,738731  	19,177287  	-0,047944  
223,559000  	25,444366  	32,549027  	25,122783  	357,439972  	80,376798  	74,382779  	0,010104  	0,011988  	0,003959  	0,004373  	0,004491  	-0,000001  	-0,000000  	28,059428  	26,836730  	27,944729  	27,703741  	31,105429  	29,487251  	30,940772  	30,380047  	33,474245  	32,562295  	35,514874  	67,074191  	27,522910  	26,665657  	29,710459  	73,527952  	0,309096  	0,156621  	-4651,765370  	12492,435728  	-0,036469  	-0,050012  	0,414870  	0,210218  	-5,283073  	17201,259588  	132449,929409  	19,210238  	-0,047962  
224,561000  	25,432442  	32,549704  	25,122660  	-242,047242  	80,377423  	74,382467  	0,010108  	0,012032  	0,003964  	0,004356  	0,004453  	0,000001  	-0,000000  	28,062411  	26,834080  	27,946002  	27,710849  	31,108460  	29,489624  	30,940371  	30,382510  	33,480033  	32,562757  	35,519064  	67,075361  	27,517154  	26,655861  	29,717096  	73,526615  	0,295350  	0,149656  	-4452,769952  	-27069,384317  	-0,102790  	-0,049983  	0,385425  	0,195298  	-4,908872  	17296,988370  	132540,735069  	19,223408  	-0,047937  
225,561000  	25,449774  	32,558358  	25,122445  	956,927186  	80,381547  	74,379410  	0,010113  	0,012039  	0,003963  	0,004375  	0,004483  	0,000001  	-0,000000  	28,066984  	26,845484  	27,954811  	27,720682  	31,113335  	29,494412  	30,953795  	30,393338  	33,491542  	32,568175  	35,525992  	67,079656  	27,522727  	26,649278  	29,735278  	73,534047  	0,310353  	0,157258  	-4673,258743  	22476,058802  	-0,022156  	-0,049991  	0,408622  	0,207052  	-5,210549  	17310,724144  	132636,483494  	19,237296  	-0,047944  
226,561000  	25,460223  	32,556757  	25,120908  	-242,047242  	80,382984  	74,383839  	0,010096  	0,012016  	0,003965  	0,004348  	0,004491  	0,000000  	-0,000000  	28,063922  	26,842270  	27,938916  	27,714060  	31,106734  	29,483342  	30,937529  	30,384675  	33,477414  	32,563488  	35,519888  	67,072523  	27,512010  	26,636490  	29,722233  	73,522481  	0,288449  	0,146159  	-4336,064708  	-27076,488323  	-0,102818  	-0,049998  	0,414901  	0,210233  	-5,287983  	17261,399584  	132273,465626  	19,184644  	-0,047950  
227,561000  	25,452294  	32,556572  	25,120539  	657,183579  	80,380047  	74,386428  	0,010111  	0,012012  	0,003964  	0,004372  	0,004466  	-0,000000  	-0,000000  	28,061824  	26,833409  	27,936879  	27,704292  	31,104832  	29,486042  	30,935198  	30,381321  	33,479671  	32,565656  	35,516008  	67,071720  	27,496899  	26,624793  	29,715255  	73,520676  	0,307732  	0,155930  	-4630,973768  	18448,527453  	-0,027566  	-0,050001  	0,395176  	0,200239  	-5,031948  	17252,816140  	132594,547661  	19,231213  	-0,047952  
228,561000  	25,428324  	32,561992  	25,120109  	1256,670793  	80,385109  	74,386552  	0,010103  	0,012046  	0,003965  	0,004406  	0,004477  	0,000000  	-0,000000  	28,059947  	26,828049  	27,938922  	27,708213  	31,105438  	29,495910  	30,939822  	30,375043  	33,482418  	32,560765  	35,518855  	67,075963  	27,495129  	26,624182  	29,710953  	73,522929  	0,335942  	0,170224  	-5076,427406  	25530,176352  	-0,018525  	-0,049998  	0,404381  	0,204903  	-5,153400  	17325,970316  	132423,415003  	19,206393  	-0,047949  
229,563000  	25,398022  	32,568767  	25,119341  	1256,670793  	80,383890  	74,385586  	0,010107  	0,012022  	0,003961  	0,004404  	0,004492  	-0,000001  	-0,000000  	28,063263  	26,839263  	27,937368  	27,717628  	31,113428  	29,496309  	30,942460  	30,383856  	33,476798  	32,565749  	35,520057  	67,077857  	27,500067  	26,617757  	29,713502  	73,527677  	0,333853  	0,169166  	-5071,084065  	25535,569002  	-0,018529  	-0,050009  	0,415782  	0,210680  	-5,298472  	17275,437438  	132503,996200  	19,218080  	-0,047959  
230,564000  	25,342276  	32,565195  	25,118665  	1256,670793  	80,376454  	74,392696  	0,010099  	0,011996  	0,003962  	0,004415  	0,004513  	-0,000000  	-0,000000  	28,060957  	26,845354  	27,946235  	27,709785  	31,110490  	29,493271  	30,939903  	30,385690  	33,483569  	32,569630  	35,516625  	67,075459  	27,499407  	26,606115  	29,713835  	73,529613  	0,342512  	0,173553  	-5240,483569  	25534,126978  	-0,018528  	-0,050006  	0,432713  	0,219259  	-5,500864  	17218,698842  	132331,882051  	19,193117  	-0,047957  
231,562000  	25,332965  	32,556972  	25,118573  	1256,670793  	80,374860  	74,387207  	0,010096  	0,012002  	0,003962  	0,004337  	0,004510  	0,000000  	-0,000000  	28,062405  	26,845477  	27,947695  	27,716021  	31,108010  	29,486338  	30,945117  	30,392186  	33,486339  	32,561987  	35,523723  	67,073471  	27,498193  	26,598543  	29,709978  	73,528727  	0,280040  	0,141898  	-4285,300166  	25528,489234  	-0,018524  	-0,049994  	0,430266  	0,218019  	-5,473314  	17231,031751  	132267,435452  	19,183770  	-0,047946  
232,560000  	25,368982  	32,536832  	25,117835  	1256,670793  	80,371923  	74,382155  	0,010094  	0,012009  	0,003965  	0,004383  	0,004450  	0,000000  	-0,000000  	28,058388  	26,834898  	27,939000  	27,705962  	31,113120  	29,484697  	30,930010  	30,380500  	33,474431  	32,557105  	35,516101  	67,072751  	27,492004  	26,591815  	29,710048  	73,521833  	0,317153  	0,160704  	-4815,489372  	25530,996027  	-0,018525  	-0,049999  	0,382509  	0,193820  	-4,867521  	17246,355742  	132234,142397  	19,178941  	-0,047951  
233,563000  	25,415232  	32,506837  	25,118112  	956,927186  	80,367393  	74,383059  	0,010106  	0,012005  	0,003962  	0,004378  	0,004458  	-0,000000  	-0,000000  	28,064093  	26,844155  	27,945608  	27,716751  	31,105985  	29,492168  	30,945113  	30,397907  	33,477692  	32,562374  	35,517262  	67,065765  	27,498992  	26,589512  	29,718491  	73,525235  	0,312559  	0,158376  	-4695,242562  	22479,923536  	-0,022159  	-0,050000  	0,389180  	0,197200  	-4,947915  	17237,925106  	132479,649550  	19,214549  	-0,047952  
234,560000  	25,461022  	32,504558  	25,118358  	-242,047242  	80,364206  	74,381250  	0,010093  	0,012011  	0,003962  	0,004386  	0,004524  	-0,000000  	-0,000000  	28,067859  	26,841515  	27,961728  	27,706149  	31,111710  	29,497913  	30,951951  	30,389755  	33,479889  	32,562155  	35,515983  	67,072250  	27,505214  	26,576062  	29,709268  	73,528922  	0,319167  	0,161724  	-4762,000588  	-27080,075962  	-0,102832  	-0,050005  	0,441422  	0,223672  	-5,610809  	17251,106950  	132209,195554  	19,175323  	-0,047956  
235,565000  	25,474390  	32,514721  	25,117713  	657,183579  	80,365580  	74,372830  	0,010105  	0,012002  	0,003957  	0,004352  	0,004430  	-0,000000  	-0,000000  	28,057547  	26,845697  	27,954994  	27,710457  	31,113481  	29,492897  	30,943044  	30,398413  	33,473876  	32,568275  	35,504574  	67,078979  	27,501082  	26,569854  	29,715479  	73,521101  	0,291479  	0,147694  	-4346,900820  	18449,504129  	-0,027567  	-0,050004  	0,366456  	0,185686  	-4,665559  	17232,581058  	132464,129267  	19,212298  	-0,047955  
236,560000  	25,450174  	32,534984  	25,116668  	57,696365  	80,368955  	74,368401  	0,010102  	0,012027  	0,003963  	0,004391  	0,004483  	-0,000000  	-0,000000  	28,087194  	26,855926  	27,954869  	27,725792  	31,119961  	29,505967  	30,958077  	30,399169  	33,493302  	32,586838  	35,527159  	67,095320  	27,515664  	26,582680  	29,723417  	73,535065  	0,323014  	0,163674  	-4847,638119  	1764,434664  	-0,053837  	-0,050004  	0,408539  	0,207010  	-5,208102  	17286,132609  	132390,376148  	19,201601  	-0,047955  
237,562000  	25,399743  	32,561222  	25,118020  	57,696365  	80,369455  	74,374264  	0,010098  	0,012004  	0,003964  	0,004405  	0,004448  	-0,000000  	-0,000000  	28,078345  	26,845833  	27,945941  	27,718141  	31,111756  	29,497709  	30,948435  	30,391776  	33,487340  	32,578938  	35,525471  	67,076734  	27,505366  	26,565518  	29,716245  	73,529365  	0,334598  	0,169544  	-5075,843974  	1764,415838  	-0,053838  	-0,050006  	0,380812  	0,192960  	-4,850307  	17237,105884  	132311,129497  	19,190107  	-0,047957  
238,563000  	25,372208  	32,568120  	25,117098  	1256,670793  	80,365018  	74,372081  	0,010102  	0,012003  	0,003960  	0,004364  	0,004432  	0,000001  	-0,000000  	28,057395  	26,839209  	27,946849  	27,717080  	31,113102  	29,494078  	30,941654  	30,391599  	33,483997  	32,561924  	35,507065  	67,073001  	27,498456  	26,548081  	29,710047  	73,525188  	0,301633  	0,152840  	-4597,765070  	25526,155089  	-0,018522  	-0,049989  	0,368385  	0,186663  	-4,690256  	17234,616381  	132399,421408  	19,202913  	-0,047942  
239,566000  	25,377187  	32,555833  	25,116176  	357,439972  	80,362518  	74,373828  	0,010099  	0,012006  	0,003965  	0,004407  	0,004471  	0,000001  	-0,000000  	28,070600  	26,847621  	27,956396  	27,722874  	31,119786  	29,491472  	30,950198  	30,393440  	33,485393  	32,572446  	35,515980  	67,077873  	27,503903  	26,529349  	29,718817  	73,534915  	0,335991  	0,170249  	-5109,191405  	12488,107566  	-0,036455  	-0,049992  	0,398985  	0,202169  	-5,076261  	17241,365417  	132331,310102  	19,193034  	-0,047944  
240,560000  	25,393904  	32,536062  	25,116729  	956,927186  	80,359581  	74,372767  	0,010100  	0,011976  	0,003962  	0,004402  	0,004410  	0,000001  	-0,000001  	28,072071  	26,841726  	27,955820  	27,729366  	31,113708  	29,489487  	30,947298  	30,389415  	33,484491  	32,571250  	35,522749  	67,070644  	27,501630  	26,501166  	29,721031  	73,534566  	0,332736  	0,168600  	-5033,966959  	22475,437452  	-0,022155  	-0,049989  	0,351045  	0,177877  	-4,464919  	17175,903303  	132360,013446  	19,197197  	-0,047942  
241,561000  	25,427586  	32,521896  	25,114670  	1256,670793  	80,362425  	74,368245  	0,010099  	0,012034  	0,003958  	0,004403  	0,004494  	-0,000001  	-0,000000  	28,067055  	26,848309  	27,956330  	27,721492  	31,115767  	29,489889  	30,953196  	30,395348  	33,486142  	32,574396  	35,514060  	67,071367  	27,506939  	26,472557  	29,713332  	73,531154  	0,333162  	0,168816  	-5006,645982  	25538,749232  	-0,018531  	-0,050016  	0,417700  	0,211652  	-5,319242  	17301,200504  	132346,555003  	19,195245  	-0,047965  
242,560000  	25,451741  	32,521034  	25,115469  	1256,670793  	80,363424  	74,363380  	0,010097  	0,012022  	0,003962  	0,004414  	0,004444  	0,000000  	-0,000000  	28,060563  	26,842472  	27,952267  	27,713011  	31,108138  	29,482303  	30,940005  	30,388541  	33,479410  	32,566668  	35,514535  	67,065438  	27,492286  	26,439093  	29,701245  	73,533446  	0,342338  	0,173465  	-5126,395294  	25530,734292  	-0,018525  	-0,049998  	0,377900  	0,191485  	-4,817101  	17273,924918  	132283,951349  	19,186165  	-0,047950  
243,561000  	25,451926  	32,526207  	25,113994  	357,439972  	80,362800  	74,368619  	0,010118  	0,011997  	0,003960  	0,004403  	0,004411  	-0,000000  	-0,000000  	28,065661  	26,840742  	27,950961  	27,718764  	31,109625  	29,491924  	30,944163  	30,381382  	33,474312  	32,569179  	35,519431  	67,070337  	27,497651  	26,415753  	29,714140  	73,529445  	0,332875  	0,168670  	-4988,201509  	12490,326614  	-0,036461  	-0,050001  	0,351975  	0,178348  	-4,482252  	17220,023182  	132745,669180  	19,253132  	-0,047952  
244,560000  	25,435638  	32,535939  	25,112458  	-242,047242  	80,359987  	74,376915  	0,010094  	0,011992  	0,003961  	0,004422  	0,004475  	-0,000001  	-0,000001  	28,060567  	26,838368  	27,945158  	27,721500  	31,104207  	29,484778  	30,942165  	30,379264  	33,473299  	32,569118  	35,514558  	67,071793  	27,498411  	26,398602  	29,707918  	73,522594  	0,348871  	0,176775  	-5247,132652  	-27086,011186  	-0,102857  	-0,050018  	0,402487  	0,203943  	-5,116016  	17209,398756  	132228,126346  	19,178068  	-0,047967  
245,561000  	25,418612  	32,554601  	25,112274  	1256,670793  	80,365330  	74,370678  	0,010101  	0,012023  	0,003957  	0,004393  	0,004449  	0,000001  	-0,000000  	28,064856  	26,839845  	27,951000  	27,718563  	31,111379  	29,483522  	30,947764  	30,387130  	33,481115  	32,569520  	35,515639  	67,074735  	27,492349  	26,378684  	29,712367  	73,521559  	0,325374  	0,164869  	-4918,337710  	25527,206962  	-0,018523  	-0,049991  	0,381671  	0,193395  	-4,860802  	17276,647171  	132372,102038  	19,198950  	-0,047943  
246,647000  	25,394519  	32,558420  	25,111844  	657,183579  	80,367830  	74,368806  	0,010105  	0,012027  	0,003960  	0,004395  	0,004454  	0,000000  	-0,000000  	28,071330  	26,844392  	27,957759  	27,723134  	31,118650  	29,494232  	30,950385  	30,393525  	33,485514  	32,573025  	35,520524  	67,081048  	27,492098  	26,365072  	29,718602  	73,526954  	0,326748  	0,165566  	-4958,433673  	18447,819015  	-0,027564  	-0,049998  	0,385486  	0,195329  	-4,912970  	17285,622540  	132468,782528  	19,212973  	-0,047950  
247,563000  	25,369627  	32,553708  	25,112858  	657,183579  	80,366830  	74,370647  	0,010097  	0,012017  	0,003966  	0,004386  	0,004472  	0,000000  	-0,000000  	28,071949  	26,846172  	27,957466  	27,727672  	31,119340  	29,499940  	30,950278  	30,394609  	33,487209  	32,574657  	35,519823  	67,080558  	27,495423  	26,356026  	29,721295  	73,537160  	0,319725  	0,162007  	-4865,533986  	18447,763755  	-0,027564  	-0,049998  	0,400094  	0,202731  	-5,096740  	17263,840273  	132298,101780  	19,188217  	-0,047949  
248,562000  	25,362006  	32,546379  	25,113964  	57,696365  	80,367518  	74,369711  	0,010104  	0,012013  	0,003958  	0,004426  	0,004467  	-0,000001  	-0,000000  	28,070286  	26,846165  	27,951565  	27,718456  	31,113676  	29,497287  	30,947959  	30,385968  	33,485732  	32,574607  	35,516924  	67,074812  	27,495815  	26,343039  	29,718380  	73,536252  	0,352155  	0,178440  	-5359,268727  	1764,673353  	-0,053839  	-0,050007  	0,396354  	0,200835  	-5,050453  	17254,896739  	132445,036071  	19,209528  	-0,047957  
249,561000  	25,359393  	32,529164  	25,114425  	1256,670793  	80,369830  	74,370023  	0,010094  	0,012013  	0,003960  	0,004377  	0,004445  	0,000001  	-0,000000  	28,070373  	26,849623  	27,956165  	27,715751  	31,114694  	29,496767  	30,954312  	30,387005  	33,487846  	32,574910  	35,523031  	67,077459  	27,499299  	26,336805  	29,715565  	73,531074  	0,311717  	0,157949  	-4734,217585  	25527,000785  	-0,018523  	-0,049990  	0,378670  	0,191875  	-4,826736  	17254,841558  	132225,068892  	19,177625  	-0,047943  
250,568000  	25,354968  	32,515552  	25,115531  	1256,670793  	80,374017  	74,369898  	0,010098  	0,012008  	0,003963  	0,004399  	0,004452  	-0,000001  	-0,000000  	28,069478  	26,845669  	27,960727  	27,718400  	31,116950  	29,493742  	30,958887  	30,391832  	33,484568  	32,571098  	35,525008  	67,076084  	27,504182  	26,325199  	29,719537  	73,527427  	0,329669  	0,167046  	-5000,456541  	25534,939027  	-0,018528  	-0,050008  	0,384320  	0,194738  	-4,902270  	17245,783418  	132308,898192  	19,189783  	-0,047958  
251,562000  	25,360592  	32,510379  	25,116360  	1256,670793  	80,378547  	74,370615  	0,010107  	0,012036  	0,003960  	0,004332  	0,004514  	-0,000000  	-0,000000  	28,065396  	26,836747  	27,951915  	27,714141  	31,111878  	29,486524  	30,943174  	30,382159  	33,469650  	32,565676  	35,514989  	67,066125  	27,500162  	26,310310  	29,715636  	73,525612  	0,275646  	0,139672  	-4174,721358  	25533,694993  	-0,018527  	-0,050005  	0,433072  	0,219441  	-5,527653  	17306,207100  	132505,599068  	19,218312  	-0,047956  
252,562000  	25,393597  	32,505636  	25,116668  	1256,670793  	80,379672  	74,371801  	0,010100  	0,011990  	0,003961  	0,004380  	0,004455  	-0,000000  	-0,000000  	28,070180  	26,843379  	27,954900  	27,720513  	31,120359  	29,495343  	30,941046  	30,391232  	33,475110  	32,570261  	35,515931  	67,073569  	27,502583  	26,325635  	29,716582  	73,538922  	0,314584  	0,159402  	-4739,283932  	25532,910998  	-0,018527  	-0,050003  	0,386554  	0,195870  	-4,933855  	17204,975802  	132350,756353  	19,195854  	-0,047954  
253,561000  	25,408225  	32,502280  	25,117559  	-242,047242  	80,373985  	74,375138  	0,010106  	0,011997  	0,003958  	0,004383  	0,004474  	-0,000001  	-0,000000  	28,073564  	26,844270  	27,949246  	27,716524  	31,115676  	29,500588  	30,941062  	30,395808  	33,478043  	32,577218  	35,513876  	67,079366  	27,516787  	26,333570  	29,722545  	73,533955  	0,317030  	0,160641  	-4764,045529  	-27081,909402  	-0,102840  	-0,050009  	0,402035  	0,203714  	-5,123737  	17220,720016  	132486,258734  	19,215507  	-0,047959  
254,560000  	25,416584  	32,510102  	25,118112  	357,439972  	80,368861  	74,374202  	0,010094  	0,012007  	0,003962  	0,004419  	0,004424  	-0,000000  	-0,000000  	28,066994  	26,841726  	27,951682  	27,717746  	31,121737  	29,491380  	30,947831  	30,389481  	33,470636  	32,573762  	35,511041  	67,075296  	27,518845  	26,336239  	29,718646  	73,527096  	0,345883  	0,175261  	-5197,225843  	12490,077942  	-0,036461  	-0,050001  	0,361933  	0,183394  	-4,609438  	17242,411022  	132226,410500  	19,177819  	-0,047952  
255,563000  	25,438158  	32,521188  	25,118573  	357,439972  	80,375517  	74,367528  	0,010113  	0,012011  	0,003965  	0,004400  	0,004440  	-0,000000  	-0,000000  	28,059340  	26,835611  	27,940186  	27,708805  	31,105780  	29,488808  	30,943042  	30,381848  	33,473286  	32,561684  	35,511845  	67,061787  	27,515541  	26,332239  	29,709700  	73,516991  	0,330873  	0,167656  	-4964,341824  	12490,043028  	-0,036461  	-0,050001  	0,374390  	0,189706  	-4,778684  	17250,877738  	132646,136009  	19,238695  	-0,047952  
256,564000  	25,430782  	32,525684  	25,118327  	-242,047242  	80,375891  	74,370085  	0,010097  	0,012005  	0,003962  	0,004409  	0,004470  	0,000000  	-0,000000  	28,059224  	26,837264  	27,945077  	27,714249  	31,105997  	29,496594  	30,939367  	30,382249  	33,482838  	32,571720  	35,511998  	67,070717  	27,509068  	26,330220  	29,721317  	73,523908  	0,337625  	0,171077  	-5074,130631  	-27075,810168  	-0,102816  	-0,049997  	0,398779  	0,202064  	-5,088138  	17238,853983  	132292,700044  	19,187434  	-0,047948  
257,562000  	25,385023  	32,536955  	25,118327  	1256,670793  	80,374767  	74,372923  	0,010112  	0,012028  	0,003962  	0,004385  	0,004463  	-0,000000  	-0,000000  	28,060470  	26,840804  	27,941052  	27,718230  	31,114946  	29,498334  	30,937169  	30,373359  	33,482129  	32,566449  	35,512515  	67,064774  	27,512793  	26,336989  	29,718393  	73,527690  	0,318341  	0,161306  	-4822,782559  	25533,483555  	-0,018527  	-0,050005  	0,393238  	0,199257  	-5,014133  	17288,965223  	132627,078118  	19,235931  	-0,047955  
258,561000  	25,388834  	32,544038  	25,118143  	1256,670793  	80,374829  	74,375917  	0,010100  	0,012025  	0,003955  	0,004365  	0,004461  	-0,000001  	-0,000000  	28,046468  	26,824778  	27,940884  	27,693895  	31,101165  	29,479683  	30,933976  	30,376440  	33,461459  	32,556791  	35,503897  	67,062987  	27,499249  	26,336699  	29,702709  	73,517438  	0,302096  	0,153075  	-4578,777947  	25534,476706  	-0,018528  	-0,050007  	0,391704  	0,198480  	-4,992138  	17281,507326  	132353,877356  	19,196307  	-0,047957  
259,562000  	25,391876  	32,536000  	25,118327  	1256,670793  	80,372861  	74,373921  	0,010104  	0,012029  	0,003958  	0,004391  	0,004484  	0,000000  	-0,000000  	28,077451  	26,851358  	27,944930  	27,722118  	31,122023  	29,496752  	30,941058  	30,389666  	33,486554  	32,574075  	35,521811  	67,067215  	27,517547  	26,349581  	29,719317  	73,538990  	0,323353  	0,163846  	-4893,371681  	25530,335065  	-0,018525  	-0,049998  	0,409906  	0,207703  	-5,224139  	17290,283195  	132440,149794  	19,208820  	-0,047950  
260,563000  	25,378662  	32,524914  	25,117528  	1256,670793  	80,376048  	74,371738  	0,010096  	0,011998  	0,003961  	0,004368  	0,004472  	0,000001  	-0,000000  	28,057914  	26,832019  	27,939347  	27,702398  	31,099944  	29,484077  	30,942492  	30,376605  	33,476387  	32,557963  	35,501517  	67,063440  	27,503064  	26,347025  	29,705746  	73,516315  	0,304718  	0,154403  	-4612,738535  	25523,493724  	-0,018520  	-0,049983  	0,399761  	0,202562  	-5,099393  	17223,808019  	132281,374050  	19,185791  	-0,047937  
261,563000  	25,370549  	32,520880  	25,117774  	1256,670793  	80,375517  	74,372455  	0,010106  	0,012011  	0,003962  	0,004371  	0,004475  	-0,000001  	-0,000000  	28,065105  	26,834383  	27,950938  	27,710081  	31,112648  	29,492866  	30,940489  	30,380367  	33,478766  	32,559885  	35,507011  	67,073306  	27,502617  	26,354870  	29,718388  	73,514985  	0,307216  	0,155669  	-4653,211480  	25535,131816  	-0,018528  	-0,050008  	0,402789  	0,204096  	-5,136957  	17250,732711  	132477,192290  	19,214192  	-0,047959  
262,561000  	25,368766  	32,518355  	25,118020  	1256,670793  	80,376829  	74,374888  	0,010103  	0,012029  	0,003958  	0,004342  	0,004467  	-0,000001  	-0,000000  	28,064530  	26,840439  	27,947563  	27,711785  	31,109503  	29,488984  	30,946741  	30,377000  	33,474529  	32,568397  	35,520176  	67,081271  	27,505057  	26,363726  	29,721926  	73,518002  	0,283707  	0,143756  	-4296,684867  	25535,121979  	-0,018528  	-0,050008  	0,396384  	0,200851  	-5,054332  	17289,410914  	132415,414785  	19,205232  	-0,047959  
263,561000  	25,356781  	32,514659  	25,117374  	1256,670793  	80,376141  	74,379909  	0,010111  	0,012006  	0,003963  	0,004352  	0,004494  	0,000001  	-0,000000  	28,059204  	26,842586  	27,947363  	27,712643  	31,111633  	29,487120  	30,931375  	30,382711  	33,473872  	32,568060  	35,510826  	67,078696  	27,495185  	26,348600  	29,728599  	73,518929  	0,291921  	0,147919  	-4426,212527  	25525,028077  	-0,018521  	-0,049986  	0,417495  	0,211548  	-5,318459  	17240,622598  	132584,612703  	19,229772  	-0,047940  
264,564000  	25,341232  	32,512873  	25,116821  	57,696365  	80,377079  	74,375169  	0,010113  	0,012006  	0,003963  	0,004394  	0,004451  	-0,000000  	-0,000000  	28,060338  	26,836445  	27,941734  	27,705872  	31,098958  	29,479469  	30,932010  	30,377610  	33,473673  	32,560789  	35,510244  	67,073592  	27,488928  	26,362738  	29,718736  	73,521043  	0,325584  	0,164976  	-4946,115515  	1764,303841  	-0,053833  	-0,050000  	0,383330  	0,194236  	-4,887855  	17240,915481  	132631,710195  	19,236603  	-0,047952  
265,570000  	25,338742  	32,510841  	25,116115  	1256,670793  	80,377485  	74,367434  	0,010097  	0,012011  	0,003959  	0,004354  	0,004472  	0,000000  	-0,000000  	28,052420  	26,820283  	27,942728  	27,701675  	31,097802  	29,473602  	30,932839  	30,372240  	33,474634  	32,548284  	35,509270  	67,065730  	27,486787  	26,370601  	29,710124  	73,508302  	0,293514  	0,148726  	-4459,215973  	25531,048050  	-0,018526  	-0,049999  	0,399832  	0,202598  	-5,105171  	17251,774779  	132296,943761  	19,188049  	-0,047951  
266,564000  	25,361483  	32,502711  	25,116545  	1256,670793  	80,374610  	74,373235  	0,010090  	0,011996  	0,003959  	0,004372  	0,004476  	0,000001  	-0,000000  	28,052169  	26,831563  	27,938636  	27,710798  	31,105428  	29,480590  	30,933139  	30,372638  	33,474262  	32,552126  	35,503909  	67,065383  	27,481496  	26,386940  	29,708886  	73,515437  	0,307872  	0,156001  	-4657,212112  	25528,263282  	-0,018523  	-0,049993  	0,403148  	0,204278  	-5,140092  	17218,247492  	132144,805444  	19,165984  	-0,047946  
267,562000  	25,386375  	32,492548  	25,116637  	357,439972  	80,372923  	74,370896  	0,010105  	0,012015  	0,003959  	0,004431  	0,004465  	0,000001  	-0,000000  	28,048112  	26,828626  	27,934887  	27,704996  	31,103625  	29,474003  	30,935268  	30,374331  	33,468710  	32,557791  	35,510140  	67,060931  	27,494991  	26,397638  	29,710723  	73,517218  	0,356060  	0,180418  	-5359,699947  	12486,569911  	-0,036451  	-0,049985  	0,394379  	0,199835  	-5,028832  	17260,792595  	132473,266322  	19,213623  	-0,047938  
268,565000  	25,396701  	32,487128  	25,117620  	-242,047242  	80,372986  	74,373578  	0,010111  	0,012023  	0,003964  	0,004414  	0,004432  	-0,000001  	-0,000000  	28,048992  	26,826523  	27,942664  	27,700240  	31,097674  	29,468267  	30,932072  	30,377409  	33,466836  	32,552343  	35,506823  	67,063699  	27,494742  	26,404521  	29,708380  	73,514506  	0,341838  	0,173212  	-5134,222429  	-27082,683997  	-0,102843  	-0,050011  	0,368031  	0,186484  	-4,690815  	17277,883079  	132595,465603  	19,231346  	-0,047961  
269,561000  	25,396025  	32,498122  	25,118327  	57,696365  	80,373423  	74,375481  	0,010104  	0,011987  	0,003961  	0,004403  	0,004439  	-0,000000  	-0,000000  	28,047518  	26,829624  	27,941632  	27,703938  	31,100801  	29,465674  	30,930409  	30,368448  	33,463659  	32,551426  	35,504600  	67,060013  	27,497831  	26,419813  	29,705520  	73,512605  	0,333136  	0,168802  	-5011,754266  	1764,234818  	-0,053833  	-0,050001  	0,374020  	0,189519  	-4,765989  	17199,933126  	132453,509383  	19,210757  	-0,047952  
270,563000  	25,386252  	32,507484  	25,118266  	657,183579  	80,372986  	74,376104  	0,010114  	0,012004  	0,003958  	0,004382  	0,004521  	-0,000000  	-0,000000  	28,055177  	26,831029  	27,939637  	27,703341  	31,095435  	29,475822  	30,935405  	30,367779  	33,469289  	32,552150  	35,510776  	67,063848  	27,500814  	26,435329  	29,711362  	73,511925  	0,315770  	0,160003  	-4763,301682  	18449,034800  	-0,027566  	-0,050002  	0,438643  	0,222264  	-5,588463  	17235,139891  	132652,667520  	19,239643  	-0,047953  
271,564000  	25,362928  	32,512565  	25,118634  	657,183579  	80,374579  	74,375044  	0,010108  	0,012022  	0,003964  	0,004379  	0,004468  	-0,000001  	-0,000000  	28,050617  	26,828260  	27,937940  	27,706283  	31,100239  	29,478076  	30,933334  	30,369556  	33,466339  	32,556288  	35,502984  	67,071150  	27,504174  	26,446129  	29,711768  	73,515918  	0,313796  	0,159003  	-4752,412187  	18450,471406  	-0,027569  	-0,050007  	0,396546  	0,200933  	-5,054366  	17274,585673  	132535,488676  	19,222647  	-0,047957  
272,565000  	25,367844  	32,513612  	25,120048  	1256,670793  	80,376891  	74,373734  	0,010101  	0,011994  	0,003966  	0,004315  	0,004469  	0,000000  	-0,000000  	28,049777  	26,824969  	27,933120  	27,702253  	31,105120  	29,473801  	30,928074  	30,364931  	33,467035  	32,555684  	35,496189  	67,070327  	27,513086  	26,448287  	29,703447  	73,514488  	0,261726  	0,132618  	-3961,667233  	25530,069904  	-0,018525  	-0,049997  	0,397997  	0,201668  	-5,075919  	17215,292489  	132375,632585  	19,199462  	-0,047949  
273,561000  	25,395226  	32,510625  	25,120048  	956,927186  	80,378047  	74,369274  	0,010110  	0,012006  	0,003962  	0,004413  	0,004472  	-0,000001  	-0,000000  	28,053330  	26,826647  	27,937649  	27,700801  	31,101059  	29,473840  	30,924572  	30,368228  	33,471925  	32,556465  	35,495895  	67,072941  	27,517171  	26,462336  	29,707349  	73,512570  	0,341647  	0,173115  	-5149,429901  	22483,753847  	-0,022163  	-0,050010  	0,400183  	0,202776  	-5,108570  	17241,119226  	132581,308111  	19,229293  	-0,047960  
274,563000  	25,429338  	32,505513  	25,119433  	-242,047242  	80,376673  	74,371146  	0,010113  	0,011980  	0,003963  	0,004383  	0,004500  	-0,000000  	-0,000000  	28,053551  	26,833168  	27,947678  	27,707630  	31,102141  	29,480455  	30,932058  	30,377023  	33,474323  	32,557546  	35,505524  	67,076793  	27,521240  	26,497697  	29,717802  	73,521252  	0,316865  	0,160558  	-4749,568446  	-27078,611123  	-0,102826  	-0,050002  	0,422061  	0,213862  	-5,384952  	17184,566689  	132641,623970  	19,238041  	-0,047953  
275,563000  	25,457457  	32,508100  	25,119618  	657,183579  	80,375704  	74,377477  	0,010101  	0,012031  	0,003959  	0,004382  	0,004428  	-0,000001  	-0,000000  	28,048662  	26,832520  	27,944876  	27,705214  	31,101696  	29,484089  	30,938972  	30,377872  	33,472104  	32,553877  	35,510578  	67,072200  	27,525062  	26,535897  	29,713056  	73,521800  	0,316118  	0,160179  	-4721,261988  	18452,427668  	-0,027572  	-0,050013  	0,365549  	0,185227  	-4,658271  	17293,308235  	132375,533730  	19,199448  	-0,047962  
276,562000  	25,479092  	32,515060  	25,118757  	1256,670793  	80,378016  	74,376541  	0,010108  	0,012007  	0,003962  	0,004370  	0,004478  	0,000000  	-0,000000  	28,045607  	26,824763  	27,935761  	27,701250  	31,098479  	29,479366  	30,929852  	30,375368  	33,463713  	32,554255  	35,498322  	67,068369  	27,520095  	26,567924  	29,707952  	73,517526  	0,306264  	0,155186  	-4564,569366  	25529,969631  	-0,018525  	-0,049997  	0,405090  	0,205262  	-5,164937  	17241,736119  	132525,144175  	19,221147  	-0,047949  
277,565000  	25,460500  	32,532059  	25,118911  	1256,670793  	80,378985  	74,380159  	0,010093  	0,011996  	0,003960  	0,004402  	0,004464  	-0,000002  	-0,000000  	28,049390  	26,822555  	27,935198  	27,700577  	31,101110  	29,475234  	30,926001  	30,374118  	33,458073  	32,551634  	35,493435  	67,069436  	27,515530  	26,597848  	29,710369  	73,525197  	0,332205  	0,168331  	-4976,250355  	25543,932795  	-0,018535  	-0,050028  	0,393661  	0,199471  	-5,017007  	17218,497220  	132202,226255  	19,174312  	-0,047975  
278,564000  	25,456259  	32,551706  	25,117497  	1256,670793  	80,379110  	74,383901  	0,010098  	0,011987  	0,003959  	0,004378  	0,004494  	0,000000  	-0,000000  	28,044370  	26,823202  	27,932514  	27,691192  	31,094177  	29,470367  	30,931049  	30,370706  	33,456574  	32,539434  	35,496150  	67,069877  	27,517824  	26,623506  	29,707147  	73,523919  	0,312756  	0,158476  	-4700,735289  	25529,124241  	-0,018524  	-0,049995  	0,417224  	0,211411  	-5,314101  	17200,458051  	132305,565356  	19,189300  	-0,047947  
279,562000  	25,470365  	32,561222  	25,115746  	1256,670793  	80,382578  	74,382061  	0,010113  	0,012001  	0,003962  	0,004383  	0,004456  	-0,000001  	-0,000000  	28,044330  	26,821753  	27,926971  	27,692744  	31,087394  	29,468517  	30,924862  	30,367774  	33,457934  	32,540593  	35,496540  	67,070447  	27,525129  	26,638427  	29,712397  	73,518993  	0,316682  	0,160465  	-4756,667440  	25536,130505  	-0,018529  	-0,050010  	0,387746  	0,196474  	-4,943016  	17229,907619  	132646,757385  	19,238786  	-0,047960  
280,562000  	25,484501  	32,563070  	25,115131  	1256,670793  	80,383765  	74,376572  	0,010103  	0,012020  	0,003961  	0,004400  	0,004471  	0,000000  	-0,000000  	28,043660  	26,817214  	27,938877  	27,692173  	31,091669  	29,479755  	30,919185  	30,365001  	33,460882  	32,552228  	35,498273  	67,071179  	27,523949  	26,650400  	29,706039  	73,511992  	0,330676  	0,167556  	-4958,246826  	25531,205181  	-0,018526  	-0,049999  	0,399217  	0,202286  	-5,094904  	17270,988309  	132417,074142  	19,205473  	-0,047951  
281,564000  	25,494305  	32,567843  	25,114548  	1256,670793  	80,382703  	74,382124  	0,010109  	0,011998  	0,003960  	0,004382  	0,004472  	0,000001  	-0,000000  	28,042892  	26,822184  	27,940983  	27,691887  	31,089513  	29,478492  	30,921593  	30,363963  	33,461265  	32,547683  	35,498413  	67,074058  	27,526400  	26,677689  	29,710249  	73,515736  	0,316377  	0,160311  	-4740,465580  	25528,503747  	-0,018524  	-0,049994  	0,400479  	0,202926  	-5,105393  	17222,343605  	132541,328201  	19,223494  	-0,047946  
282,569000  	25,483917  	32,576158  	25,113687  	657,183579  	80,382641  	74,385430  	0,010104  	0,012011  	0,003961  	0,004378  	0,004483  	-0,000000  	-0,000000  	28,041531  	26,819605  	27,943930  	27,694467  	31,093478  	29,469489  	30,922071  	30,370576  	33,460389  	32,543435  	35,497270  	67,066236  	27,531765  	26,684311  	29,706013  	73,520201  	0,313025  	0,158612  	-4702,643142  	18448,467474  	-0,027565  	-0,050000  	0,409055  	0,207271  	-5,211798  	17252,104449  	132436,202643  	19,208247  	-0,047951  
283,565000  	25,465294  	32,587337  	25,112304  	-242,047242  	80,386828  	74,389546  	0,010105  	0,012005  	0,003962  	0,004438  	0,004463  	-0,000000  	-0,000000  	28,043611  	26,813951  	27,929492  	27,691427  	31,095650  	29,474019  	30,919494  	30,357657  	33,453138  	32,540163  	35,494635  	67,057176  	27,530905  	26,677205  	29,701159  	73,515364  	0,361667  	0,183259  	-5456,234647  	-27078,302594  	-0,102828  	-0,050002  	0,392794  	0,199032  	-5,004679  	17237,330852  	132460,577537  	19,211783  	-0,047953  
284,562000  	25,466093  	32,595344  	25,111137  	956,927186  	80,385890  	74,391605  	0,010102  	0,011999  	0,003962  	0,004369  	0,004442  	0,000000  	-0,000000  	28,050174  	26,831334  	27,940187  	27,700652  	31,096681  	29,474472  	30,933452  	30,373431  	33,478275  	32,556088  	35,497878  	67,064691  	27,545438  	26,674044  	29,708443  	73,527580  	0,305744  	0,154923  	-4617,238450  	22478,125378  	-0,022157  	-0,049995  	0,376274  	0,190661  	-4,791799  	17224,857161  	132410,231942  	19,204480  	-0,047947  
285,564000  	25,468828  	32,591987  	25,110553  	57,696365  	80,385359  	74,392603  	0,010099  	0,011980  	0,003961  	0,004429  	0,004474  	-0,000000  	-0,000000  	28,055047  	26,829812  	27,938385  	27,698583  	31,098205  	29,478660  	30,928770  	30,386266  	33,465527  	32,554971  	35,494649  	67,070483  	27,552503  	26,660913  	29,709632  	73,517623  	0,354023  	0,179386  	-5341,757109  	1764,767434  	-0,053837  	-0,050004  	0,401402  	0,203393  	-5,110492  	17184,431566  	132335,970424  	19,193710  	-0,047955  
286,563000  	25,457642  	32,584288  	25,110491  	1256,670793  	80,387984  	74,391730  	0,010095  	0,012045  	0,003956  	0,004372  	0,004479  	0,000001  	-0,000000  	28,067375  	26,835965  	27,941733  	27,710767  	31,110350  	29,484797  	30,950093  	30,391149  	33,483795  	32,564462  	35,508522  	67,081506  	27,554993  	26,646382  	29,723581  	73,536156  	0,307805  	0,155967  	-4646,656729  	25526,318656  	-0,018522  	-0,049988  	0,405266  	0,205351  	-5,162700  	17324,971402  	132242,898153  	19,180211  	-0,047942  
287,575000  	25,420579  	32,582810  	25,109754  	1256,670793  	80,389046  	74,391605  	0,010093  	0,011972  	0,003956  	0,004418  	0,004464  	0,000001  	-0,000000  	28,044618  	26,822853  	27,929823  	27,696093  	31,102145  	29,471718  	30,926710  	30,371005  	33,460048  	32,544587  	35,492662  	67,058117  	27,532342  	26,599298  	29,699139  	73,511892  	0,345566  	0,175101  	-5242,768432  	25526,449120  	-0,018522  	-0,049989  	0,393969  	0,199627  	-5,019780  	17167,158561  	132211,998808  	19,175729  	-0,047942  
288,562000  	25,375589  	32,582132  	25,109815  	57,696365  	80,391358  	74,387800  	0,010103  	0,012029  	0,003961  	0,004353  	0,004446  	0,000001  	-0,000000  	28,044509  	26,816996  	27,927702  	27,698389  	31,099149  	29,480429  	30,921536  	30,369329  	33,456181  	32,557866  	35,499703  	67,060076  	27,543632  	26,557313  	29,707320  	73,519219  	0,292514  	0,148219  	-4465,353830  	1764,365189  	-0,053823  	-0,049990  	0,379242  	0,192165  	-4,837063  	17289,482366  	132419,496097  	19,205824  	-0,047943  
289,563000  	25,356443  	32,577020  	25,109693  	57,696365  	80,395014  	74,386864  	0,010116  	0,011986  	0,003966  	0,004457  	0,004472  	-0,000000  	-0,000000  	28,057870  	26,831616  	27,941169  	27,705058  	31,107476  	29,488645  	30,936338  	30,370326  	33,466136  	32,556113  	35,503905  	67,074086  	27,564342  	26,535985  	29,710958  	73,511620  	0,376576  	0,190814  	-5759,802458  	1764,886499  	-0,053839  	-0,050006  	0,400225  	0,202797  	-5,108589  	17196,627230  	132693,374723  	19,245547  	-0,047957  
290,564000  	25,334870  	32,558728  	25,109877  	1256,670793  	80,389202  	74,387737  	0,010098  	0,012039  	0,003959  	0,004363  	0,004461  	-0,000001  	-0,000000  	28,056951  	26,830217  	27,941930  	27,709058  	31,099722  	29,474717  	30,937586  	30,381716  	33,470627  	32,553884  	35,507562  	67,074017  	27,559927  	26,495063  	29,699019  	73,518712  	0,300530  	0,152281  	-4598,745809  	25535,015704  	-0,018528  	-0,050007  	0,391587  	0,198420  	-4,992771  	17311,470500  	132314,172829  	19,190548  	-0,047958  
291,655000  	25,328601  	32,535169  	25,110338  	1256,670793  	80,381922  	74,389484  	0,010105  	0,011971  	0,003958  	0,004372  	0,004480  	-0,000002  	-0,000000  	28,067454  	26,835040  	27,941346  	27,714411  	31,109212  	29,487742  	30,939281  	30,381381  	33,471750  	32,560201  	35,512054  	67,077615  	27,558902  	26,472312  	29,707008  	73,521850  	0,307687  	0,155907  	-4696,997562  	25540,340539  	-0,018532  	-0,050019  	0,406168  	0,205808  	-5,170891  	17164,308261  	132474,742091  	19,213837  	-0,047968  
292,566000  	25,379922  	32,516445  	25,109477  	1256,670793  	80,383109  	74,382685  	0,010113  	0,012005  	0,003960  	0,004365  	0,004452  	0,000002  	-0,000000  	28,062834  	26,833031  	27,940132  	27,704840  	31,109396  	29,482467  	30,934233  	30,375874  	33,467283  	32,563462  	35,500786  	67,063485  	27,556496  	26,435113  	29,701153  	73,503830  	0,302536  	0,153297  	-4573,464779  	25521,890475  	-0,018519  	-0,049979  	0,383959  	0,194555  	-4,894658  	17238,753526  	132635,968034  	19,237221  	-0,047933  
293,563000  	25,414986  	32,496059  	25,108248  	956,927186  	80,383984  	74,381812  	0,010109  	0,011993  	0,003964  	0,004360  	0,004457  	-0,000001  	-0,000000  	28,063039  	26,825406  	27,941319  	27,714696  	31,107084  	29,476020  	30,926565  	30,375351  	33,470377  	32,562116  	35,502567  	67,067874  	27,565626  	26,408714  	29,702999  	73,514632  	0,298202  	0,151101  	-4472,912168  	22486,110265  	-0,022165  	-0,050015  	0,388547  	0,196880  	-4,954598  	17212,314141  	132546,842914  	19,224294  	-0,047964  
294,565000  	25,435699  	32,498461  	25,108494  	357,439972  	80,382047  	74,379504  	0,010099  	0,011988  	0,003964  	0,004384  	0,004463  	-0,000001  	-0,000000  	28,055138  	26,825509  	27,941118  	27,712507  	31,111782  	29,479871  	30,932778  	30,379226  	33,470397  	32,560377  	35,508109  	67,063902  	27,561324  	26,368140  	29,706587  	73,510557  	0,318091  	0,161179  	-4758,895224  	12492,163619  	-0,036466  	-0,050008  	0,393277  	0,199276  	-5,015213  	17201,307694  	132346,046604  	19,195171  	-0,047958  
295,566000  	25,443536  	32,510102  	25,108863  	1256,670793  	80,380797  	74,381687  	0,010115  	0,012014  	0,003965  	0,004404  	0,004456  	0,000000  	-0,000000  	28,057128  	26,836077  	27,948142  	27,710837  	31,110493  	29,482042  	30,940938  	30,390246  	33,475417  	32,564842  	35,516802  	67,063629  	27,565637  	26,364413  	29,705783  	73,512387  	0,334199  	0,169341  	-5002,575789  	25531,587806  	-0,018526  	-0,050000  	0,387697  	0,196449  	-4,941235  	17257,466891  	132689,074517  	19,244923  	-0,047951  
296,563000  	25,425957  	32,526546  	25,109477  	1256,670793  	80,380485  	74,380065  	0,010114  	0,012040  	0,003963  	0,004362  	0,004487  	0,000001  	-0,000000  	28,068181  	26,844932  	27,952673  	27,715074  	31,115157  	29,489038  	30,945795  	30,395133  	33,480582  	32,570306  	35,523088  	67,068861  	27,571970  	26,377314  	29,709091  	73,521052  	0,299738  	0,151879  	-4508,338560  	25524,450054  	-0,018521  	-0,049984  	0,411734  	0,208629  	-5,248728  	17314,174359  	132649,793655  	19,239226  	-0,047938  
297,565000  	25,417260  	32,541451  	25,108586  	1256,670793  	80,381360  	74,382436  	0,010091  	0,011987  	0,003961  	0,004355  	0,004483  	0,000001  	-0,000000  	28,068220  	26,841876  	27,951385  	27,720191  	31,118689  	29,493680  	30,947403  	30,386964  	33,473123  	32,568667  	35,515395  	67,073869  	27,573332  	26,377655  	29,711800  	73,522215  	0,293862  	0,148902  	-4434,659704  	25523,123411  	-0,018520  	-0,049981  	0,408932  	0,207209  	-5,211708  	17200,208323  	132173,551155  	19,170153  	-0,047935  
298,586000  	25,416215  	32,546194  	25,108648  	1256,670793  	80,380672  	74,383496  	0,010114  	0,012019  	0,003962  	0,004364  	0,004469  	-0,000001  	-0,000000  	28,063633  	26,840176  	27,945890  	27,717915  	31,115522  	29,487114  	30,943177  	30,385520  	33,475162  	32,567061  	35,510823  	67,067988  	27,571578  	26,366003  	29,706652  	73,522175  	0,301879  	0,152965  	-4559,350447  	25535,407039  	-0,018529  	-0,050008  	0,397400  	0,201366  	-5,063271  	17267,843711  	132658,372883  	19,240470  	-0,047958  
299,564000  	25,436867  	32,543053  	25,107634  	1256,670793  	80,377673  	74,383402  	0,010116  	0,011992  	0,003962  	0,004387  	0,004501  	0,000000  	-0,000000  	28,060683  	26,836504  	27,935062  	27,711153  	31,105295  	29,479841  	30,935528  	30,379968  	33,470029  	32,558442  	35,513297  	67,065800  	27,562446  	26,346633  	29,698925  	73,517286  	0,320545  	0,162423  	-4825,106549  	25529,458814  	-0,018524  	-0,049995  	0,423043  	0,214359  	-5,387376  	17210,435872  	132695,521295  	19,245858  	-0,047947  
300,564000  	25,453155  	32,542991  	25,104930  	1256,670793  	80,374673  	74,385773  	0,010114  	0,012002  	0,003963  	0,004428  	0,004442  	-0,000001  	-0,000000  	28,061518  	26,831372  	27,935369  	27,707043  	31,104060  	29,478690  	30,939223  	30,375317  	33,465172  	32,556109  	35,512762  	67,065921  	27,564558  	26,351290  	29,700040  	73,511177  	0,353023  	0,178880  	-5301,761846  	25536,290376  	-0,018529  	-0,050010  	0,376484  	0,190767  	-4,790160  	17230,975155  	132654,312755  	19,239881  	-0,047960  
301,567000  	25,463573  	32,543022  	25,105206  	956,927186  	80,377391  	74,382716  	0,010103  	0,012009  	0,003961  	0,004383  	0,004460  	-0,000000  	-0,000000  	28,063600  	26,834396  	27,943907  	27,710981  	31,110839  	29,485373  	30,942951  	30,376446  	33,470892  	32,562613  	35,511534  	67,064904  	27,574475  	26,371060  	29,706567  	73,514386  	0,316961  	0,160607  	-4753,195500  	22480,468541  	-0,022160  	-0,050001  	0,390694  	0,197968  	-4,975749  	17247,496145  	132432,721524  	19,207742  	-0,047952  
302,569000  	25,457304  	32,549920  	25,103793  	357,439972  	80,380578  	74,375730  	0,010115  	0,011968  	0,003960  	0,004378  	0,004455  	0,000000  	-0,000000  	28,058797  	26,835022  	27,941854  	27,711670  	31,111250  	29,484545  	30,934382  	30,369422  	33,469362  	32,561101  	35,508830  	67,064654  	27,573298  	26,372461  	29,706439  	73,514977  	0,313139  	0,158670  	-4704,611306  	12489,948983  	-0,036459  	-0,049997  	0,386786  	0,195987  	-4,934331  	17159,057596  	132678,405205  	19,243376  	-0,047949  
303,563000  	25,462190  	32,559990  	25,103516  	1256,670793  	80,377860  	74,375262  	0,010101  	0,011991  	0,003961  	0,004416  	0,004434  	0,000001  	-0,000000  	28,052907  	26,826307  	27,940026  	27,706584  	31,108079  	29,478029  	30,934288  	30,368727  	33,468697  	32,561452  	35,505309  	67,060422  	27,573616  	26,366090  	29,702623  	73,510346  	0,343398  	0,174002  	-5162,995074  	25523,973834  	-0,018520  	-0,049983  	0,370086  	0,187525  	-4,719513  	17209,072623  	132369,552984  	19,198581  	-0,047937  
304,564000  	25,457703  	32,564733  	25,104377  	1256,670793  	80,375360  	74,373703  	0,010091  	0,012012  	0,003963  	0,004352  	0,004472  	-0,000000  	-0,000000  	28,055936  	26,827202  	27,947374  	27,713197  	31,106746  	29,489801  	30,944355  	30,382668  	33,472272  	32,568108  	35,509885  	67,064192  	27,584706  	26,354562  	29,707739  	73,517407  	0,292004  	0,147961  	-4396,002076  	25533,015792  	-0,018527  	-0,050003  	0,400367  	0,202869  	-5,104876  	17253,658708  	132173,897149  	19,170203  	-0,047954  
305,563000  	25,447900  	32,567320  	25,105514  	1256,670793  	80,372017  	74,374202  	0,010099  	0,012025  	0,003961  	0,004378  	0,004462  	-0,000002  	-0,000001  	28,065266  	26,842732  	27,954319  	27,719499  	31,116477  	29,493927  	30,951558  	30,394572  	33,478037  	32,573410  	35,515396  	67,069614  	27,602481  	26,344981  	29,718432  	73,528364  	0,312625  	0,158410  	-4714,647843  	25541,127012  	-0,018533  	-0,050021  	0,392285  	0,198774  	-4,998624  	17282,446814  	132331,811440  	19,193107  	-0,047969  
306,563000  	25,432964  	32,568798  	25,106620  	1256,670793  	80,372954  	74,371956  	0,010118  	0,011998  	0,003958  	0,004359  	0,004494  	-0,000001  	-0,000000  	28,069950  	26,843719  	27,953392  	27,728180  	31,116543  	29,501526  	30,952211  	30,393262  	33,479312  	32,567376  	35,516098  	67,070141  	27,601586  	26,335239  	29,713572  	73,528730  	0,297526  	0,150759  	-4497,290467  	25538,841929  	-0,018531  	-0,050016  	0,417539  	0,211570  	-5,323239  	17222,414350  	132740,952370  	19,252447  	-0,047965  
307,567000  	25,428723  	32,569075  	25,107449  	1256,670793  	80,375360  	74,373485  	0,010108  	0,012053  	0,003956  	0,004397  	0,004469  	-0,000001  	-0,000000  	28,060100  	26,835267  	27,940693  	27,715156  	31,106011  	29,490991  	30,942287  	30,382768  	33,470358  	32,549227  	35,505113  	67,055365  	27,599051  	26,308724  	29,703023  	73,515094  	0,328603  	0,166506  	-4970,178379  	25535,094381  	-0,018528  	-0,050007  	0,397598  	0,201466  	-5,069754  	17340,857812  	132521,790155  	19,220661  	-0,047958  
308,560000  	25,411821  	32,564086  	25,107634  	1256,670793  	80,378485  	74,383028  	0,010105  	0,011999  	0,003962  	0,004357  	0,004471  	0,000000  	-0,000000  	28,059570  	26,837683  	27,938223  	27,710808  	31,099879  	29,481531  	30,943373  	30,374759  	33,463910  	32,561864  	35,505096  	67,062264  	27,605182  	26,295880  	29,704108  	73,528074  	0,295781  	0,149874  	-4481,202114  	25529,741135  	-0,018524  	-0,049996  	0,399288  	0,202322  	-5,085859  	17225,462735  	132476,062515  	19,214028  	-0,047948  
309,561000  	25,393382  	32,559036  	25,109139  	1256,670793  	80,378454  	74,385336  	0,010099  	0,011990  	0,003961  	0,004372  	0,004501  	-0,000001  	-0,000000  	28,058298  	26,829751  	27,946330  	27,715714  	31,110575  	29,487290  	30,937068  	30,390998  	33,474474  	32,566555  	35,512464  	67,071344  	27,622684  	26,281058  	29,709808  	73,525358  	0,308339  	0,156237  	-4680,211229  	25539,319284  	-0,018531  	-0,050017  	0,423106  	0,214391  	-5,387136  	17206,448705  	132328,104366  	19,192569  	-0,047966  
310,563000  	25,372239  	32,553184  	25,109570  	1256,670793  	80,375329  	74,381593  	0,010094  	0,012011  	0,003958  	0,004378  	0,004480  	-0,000000  	-0,000000  	28,068734  	26,841470  	27,952151  	27,719677  	31,120819  	29,490767  	30,940686  	30,387479  	33,469647  	32,565755  	35,520532  	67,075116  	27,624977  	26,263873  	29,712354  	73,538597  	0,313005  	0,158602  	-4761,189403  	25534,074001  	-0,018528  	-0,050005  	0,406054  	0,205750  	-5,170555  	17251,225801  	132237,595272  	19,179442  	-0,047956  
311,559000  	25,354999  	32,544315  	25,109754  	1256,670793  	80,376391  	74,381032  	0,010102  	0,012019  	0,003959  	0,004347  	0,004462  	0,000001  	-0,000000  	28,065237  	26,842832  	27,957395  	27,712683  	31,118901  	29,497839  	30,942703  	30,394446  	33,482085  	32,569327  	35,515499  	67,072134  	27,631917  	26,244410  	29,705722  	73,529047  	0,287848  	0,145855  	-4383,624283  	25526,787531  	-0,018522  	-0,049989  	0,392014  	0,198637  	-4,993132  	17267,707881  	132392,960508  	19,201975  	-0,047942  
312,565000  	25,365140  	32,534030  	25,110184  	1256,670793  	80,375891  	74,376042  	0,010123  	0,011994  	0,003964  	0,004385  	0,004473  	-0,000000  	-0,000000  	28,074425  	26,841641  	27,963037  	27,714130  	31,120123  	29,501944  	30,952307  	30,396110  	33,479131  	32,575824  	35,528314  	67,077175  	27,643502  	26,242740  	29,711333  	73,534514  	0,318335  	0,161303  	-4834,137856  	25533,343609  	-0,018527  	-0,050004  	0,400562  	0,202968  	-5,105820  	17214,946548  	132858,180641  	19,269450  	-0,047955  
313,560000  	25,385976  	32,516722  	25,110983  	1256,670793  	80,374142  	74,369461  	0,010113  	0,011979  	0,003962  	0,004423  	0,004488  	0,000001  	-0,000000  	28,056844  	26,834172  	27,944776  	27,706909  	31,107192  	29,485535  	30,942572  	30,376055  	33,472178  	32,561308  	35,511805  	67,061435  	27,625030  	26,200513  	29,696800  	73,524381  	0,349202  	0,176943  	-5274,645999  	25524,378839  	-0,018521  	-0,049984  	0,412647  	0,209091  	-5,264097  	17183,306019  	132636,081012  	19,237237  	-0,047938  
