06/23/2020 10:46:27
Tempo T_f_e T_f_s AR AR T_q_e T_q_s Corrente_P_f Corrente_P_q Corrente_P_RESERVA Corrente_eletromag_f Corrente_eletromag_q AR AR T_1 T_2 T_3 T_4 T_5 T_6 T_7 T_8 T_9 T_10 T_11 T_12 T_13 T_14 T_15 T_16 Velocidade_f_(m/s) Vazao_f_(L/s) q_f_(W) AR AR AR Velocidade_q_(m/s) Vazao_q_(L/s) q_q_(W) DeltaP_q_(Pa) DeltaP_f_(Pa) DeltaP_f_(Psi) AR
0,060000  	24,071893  	29,805030  	23,914750  	1256,670793  	80,034267  	69,734068  	0,010617  	0,006339  	0,003960  	0,004393  	0,004242  	0,000001  	-0,000000  	25,938369  	25,205509  	26,208282  	25,928545  	28,434112  	27,326411  	28,705520  	28,098844  	30,354907  	29,965610  	32,976485  	62,378017  	26,377694  	25,447563  	27,799904  	68,396009  	0,325007  	0,164684  	-3947,297266  	25567,455400  	-0,018536  	-0,049994  	0,217759  	0,110340  	-4,761770  	5020,790087  	143492,490797  	20,811826  	-0,047946  
2,754000  	24,019056  	29,826384  	23,909344  	657,183579  	80,029643  	69,710336  	0,010618  	0,006334  	0,003959  	0,004402  	0,004233  	-0,000001  	-0,000000  	25,936023  	25,207368  	26,215502  	25,914750  	28,444407  	27,332907  	28,730322  	28,099649  	30,353287  	29,963328  	32,977809  	62,368979  	26,379468  	25,441591  	27,789087  	68,402032  	0,332695  	0,168579  	-4092,971463  	18502,130605  	-0,027596  	-0,050007  	0,210676  	0,106751  	-4,615410  	5009,342901  	143527,492637  	20,816903  	-0,047958  
3,760000  	24,008642  	29,836262  	23,906488  	-242,047242  	80,029893  	69,717717  	0,010628  	0,006354  	0,003962  	0,004465  	0,004218  	0,000000  	-0,000001  	25,929925  	25,210564  	26,208824  	25,906347  	28,437026  	27,327608  	28,717335  	28,100545  	30,344790  	29,964305  	32,967730  	62,366928  	26,375702  	25,442378  	27,791363  	68,387428  	0,383528  	0,194337  	-4734,827534  	-27050,528451  	-0,103196  	-0,049996  	0,199147  	0,100909  	-4,359839  	5051,957334  	143736,289166  	20,847186  	-0,047948  
4,755000  	23,998505  	29,832938  	23,904583  	956,927186  	80,034705  	69,737089  	0,010623  	0,006317  	0,003961  	0,004410  	0,004183  	0,000001  	-0,000000  	25,929495  	25,196519  	26,200818  	25,906377  	28,430380  	27,318304  	28,706296  	28,094246  	30,347996  	29,961672  	32,979681  	62,368894  	26,373280  	25,450117  	27,782429  	68,387456  	0,339098  	0,171824  	-4191,218314  	22519,781205  	-0,022172  	-0,049989  	0,170939  	0,086616  	-3,737008  	4972,895276  	143632,815904  	20,832179  	-0,047942  
5,756000  	23,968094  	29,826477  	23,903078  	1256,670793  	80,041953  	69,756056  	0,010621  	0,006348  	0,003959  	0,004325  	0,004232  	0,000000  	-0,000000  	25,948137  	25,210497  	26,211505  	25,920689  	28,434863  	27,328747  	28,715429  	28,094039  	30,349388  	29,963504  	32,975931  	62,380559  	26,381780  	25,468474  	27,794009  	68,392977  	0,269860  	0,136740  	-3349,137491  	25569,848907  	-0,018537  	-0,049998  	0,210150  	0,106485  	-4,589023  	5038,147986  	143592,532367  	20,826336  	-0,047950  
6,776000  	23,970982  	29,820199  	23,901911  	1256,670793  	80,040578  	69,772313  	0,010623  	0,006357  	0,003958  	0,004399  	0,004243  	-0,000000  	-0,000000  	25,943822  	25,211012  	26,209457  	25,915802  	28,440987  	27,329555  	28,713993  	28,089898  	30,354105  	29,953603  	32,974743  	62,364829  	26,364515  	25,477717  	27,795393  	68,392246  	0,329640  	0,167031  	-4084,651278  	25572,616937  	-0,018539  	-0,050004  	0,218568  	0,110750  	-4,764678  	5058,514653  	143628,600432  	20,831567  	-0,047955  
7,755000  	23,996048  	29,809491  	23,901819  	1256,670793  	80,040297  	69,775022  	0,010619  	0,006288  	0,003959  	0,004437  	0,004199  	0,000001  	-0,000000  	25,932198  	25,206502  	26,199012  	25,909078  	28,437627  	27,319033  	28,714159  	28,094853  	30,342066  	29,959651  	32,973852  	62,368377  	26,368198  	25,479042  	27,793217  	68,390460  	0,360487  	0,182661  	-4439,551438  	25566,109111  	-0,018535  	-0,049990  	0,183515  	0,092988  	-3,999368  	4910,385335  	143548,725344  	20,819982  	-0,047943  
8,760000  	24,002867  	29,793245  	23,902064  	1256,670793  	80,041547  	69,763997  	0,010625  	0,006278  	0,003960  	0,004404  	0,004205  	-0,000001  	-0,000000  	25,946301  	25,212478  	26,208851  	25,919362  	28,444797  	27,331130  	28,724309  	28,099265  	30,359743  	29,969180  	32,981055  	62,378555  	26,374230  	25,482534  	27,797640  	68,395248  	0,334177  	0,169330  	-4099,206868  	25575,424505  	-0,018541  	-0,050010  	0,188472  	0,095500  	-4,112300  	4887,712394  	143678,239918  	20,838767  	-0,047960  
9,755000  	24,004096  	29,796260  	23,900989  	1256,670793  	80,044327  	69,773528  	0,010625  	0,006348  	0,003958  	0,004410  	0,004244  	0,000000  	-0,000001  	25,950370  	25,209069  	26,212062  	25,923440  	28,440450  	27,330885  	28,725066  	28,104264  	30,357268  	29,961167  	32,976682  	62,374702  	26,368530  	25,478148  	27,796973  	68,387416  	0,338791  	0,171668  	-4157,080668  	25568,259475  	-0,018536  	-0,049994  	0,219825  	0,111387  	-4,793262  	5039,897500  	143669,067557  	20,837437  	-0,047947  
10,755000  	24,004035  	29,803399  	23,901542  	1256,670793  	80,048076  	69,754343  	0,010613  	0,006339  	0,003959  	0,004363  	0,004289  	0,000001  	-0,000000  	25,942465  	25,212449  	26,208946  	25,916636  	28,437782  	27,329691  	28,717549  	28,097400  	30,348069  	29,956813  	32,980609  	62,374243  	26,365257  	25,471036  	27,801213  	68,383662  	0,300446  	0,152238  	-3691,156654  	25567,395151  	-0,018536  	-0,049993  	0,255487  	0,129457  	-5,583286  	5020,725710  	143421,682153  	20,801556  	-0,047945  
11,759000  	24,013342  	29,800814  	23,901819  	357,439972  	80,052544  	69,731607  	0,010620  	0,006369  	0,003960  	0,004406  	0,004220  	0,000002  	-0,000000  	25,942562  	25,210858  	26,205508  	25,924757  	28,435759  	27,330921  	28,719494  	28,098329  	30,348473  	29,964269  	32,981128  	62,372652  	26,376284  	25,465610  	27,802590  	68,388012  	0,335909  	0,170208  	-4118,381804  	12546,247056  	-0,036495  	-0,049980  	0,200460  	0,101575  	-4,392317  	5083,408975  	143553,067917  	20,820612  	-0,047934  
12,757000  	24,006707  	29,803276  	23,901450  	956,927186  	80,054794  	69,731296  	0,010618  	0,006277  	0,003957  	0,004444  	0,004227  	0,000001  	-0,000000  	25,934357  	25,203754  	26,201659  	25,918732  	28,438337  	27,324199  	28,719530  	28,100982  	30,349266  	29,960030  	32,976395  	62,373936  	26,383482  	25,446070  	27,798221  	68,384296  	0,366346  	0,185630  	-4498,608262  	22520,038326  	-0,022172  	-0,049989  	0,206232  	0,104499  	-4,519903  	4885,040369  	143515,488778  	20,815162  	-0,047942  
13,758000  	23,991225  	29,805799  	23,901880  	1256,670793  	80,058730  	69,750761  	0,010630  	0,006308  	0,003962  	0,004445  	0,004256  	-0,000000  	-0,000000  	25,931146  	25,204204  	26,205112  	25,906689  	28,434728  	27,322715  	28,714939  	28,098642  	30,343075  	29,957244  	32,978209  	62,370358  	26,388228  	25,425615  	27,794909  	68,380823  	0,367382  	0,186155  	-4525,352365  	25573,503644  	-0,018540  	-0,050006  	0,228700  	0,115884  	-5,004801  	4952,539928  	143771,651121  	20,852315  	-0,047957  
14,791000  	23,979122  	29,811030  	23,901696  	1256,670793  	80,061917  	69,757613  	0,010617  	0,006333  	0,003961  	0,004353  	0,004218  	-0,000000  	-0,000001  	25,934853  	25,208798  	26,205332  	25,910449  	28,427223  	27,327852  	28,714002  	28,099634  	30,342412  	29,960218  	32,978938  	62,369996  	26,392832  	25,398350  	27,792992  	68,378956  	0,292241  	0,148081  	-3610,513763  	25571,565929  	-0,018539  	-0,050002  	0,198956  	0,100812  	-4,352348  	5007,506371  	143488,487157  	20,811246  	-0,047953  
15,756000  	23,952766  	29,808537  	23,901788  	1256,670793  	80,064229  	69,760229  	0,010619  	0,006271  	0,003958  	0,004411  	0,004292  	-0,000000  	-0,000000  	25,934976  	25,208755  	26,209550  	25,914733  	28,433658  	27,329227  	28,716764  	28,100855  	30,346504  	29,961005  	32,976411  	62,377925  	26,399770  	25,371318  	27,796562  	68,381697  	0,339684  	0,172121  	-4213,829085  	25570,783963  	-0,018538  	-0,050000  	0,257898  	0,130679  	-5,641601  	4873,741040  	143539,786000  	20,818686  	-0,047951  
16,778000  	23,955162  	29,801152  	23,901665  	57,696365  	80,059293  	69,762720  	0,010620  	0,006285  	0,003958  	0,004410  	0,004243  	0,000001  	-0,000000  	25,939930  	25,208086  	26,214759  	25,915850  	28,445404  	27,333678  	28,723029  	28,101676  	30,346717  	29,966416  	32,980122  	62,381489  	26,411023  	25,364117  	27,804709  	68,389894  	0,339039  	0,171794  	-4198,801346  	1832,880649  	-0,053919  	-0,049982  	0,218600  	0,110766  	-4,778493  	4903,283283  	143557,933010  	20,821318  	-0,047936  
17,757000  	23,982685  	29,784629  	23,901880  	57,696365  	80,051544  	69,767641  	0,010624  	0,006392  	0,003964  	0,004443  	0,004211  	0,000000  	-0,000000  	25,944148  	25,210840  	26,208358  	25,918795  	28,450384  	27,338498  	28,726905  	28,107071  	30,348053  	29,968111  	32,982825  	62,381365  	26,419022  	25,356712  	27,806017  	68,387379  	0,365402  	0,185152  	-4491,184029  	1833,383021  	-0,053934  	-0,049998  	0,193068  	0,097829  	-4,215195  	5133,200449  	143650,645165  	20,834765  	-0,047949  
18,758000  	23,997922  	29,777306  	23,900836  	657,183579  	80,052857  	69,755993  	0,010626  	0,006353  	0,003960  	0,004397  	0,004259  	-0,000001  	-0,000000  	25,944017  	25,216317  	26,217357  	25,921528  	28,455170  	27,335863  	28,726333  	28,111123  	30,350040  	29,969510  	32,981166  	62,381749  	26,428484  	25,344269  	27,805896  	68,387476  	0,328229  	0,166316  	-4018,602572  	18502,977987  	-0,027597  	-0,050009  	0,231469  	0,117287  	-5,059943  	5049,542113  	143697,368419  	20,841541  	-0,047959  
19,760000  	23,985481  	29,778136  	23,901665  	657,183579  	80,058886  	69,749484  	0,010623  	0,006336  	0,003957  	0,004343  	0,004249  	0,000001  	-0,000000  	25,943559  	25,220157  	26,218441  	25,924262  	28,453778  	27,335433  	28,726676  	28,105913  	30,354259  	29,975641  	32,979945  	62,383208  	26,430010  	25,326225  	27,807512  	68,391109  	0,284727  	0,144273  	-3494,002134  	18495,968410  	-0,027587  	-0,049988  	0,223074  	0,113033  	-4,882366  	5012,505893  	143619,435133  	20,830238  	-0,047941  
20,758000  	23,953472  	29,787121  	23,902648  	1256,670793  	80,061511  	69,744314  	0,010626  	0,006358  	0,003960  	0,004383  	0,004234  	0,000000  	-0,000000  	25,935408  	25,205526  	26,206316  	25,909811  	28,440850  	27,326023  	28,715513  	28,088455  	30,352371  	29,956892  	32,966229  	62,371441  	26,423561  	25,301397  	27,796324  	68,374470  	0,317031  	0,160642  	-3917,953911  	25570,366571  	-0,018538  	-0,049999  	0,211486  	0,107161  	-4,632229  	5061,578602  	143690,829847  	20,840593  	-0,047951  
21,760000  	23,958387  	29,796937  	23,904061  	956,927186  	80,058012  	69,753813  	0,010612  	0,006332  	0,003960  	0,004468  	0,004218  	-0,000000  	-0,000000  	25,930152  	25,206741  	26,205298  	25,905096  	28,437205  	27,327135  	28,720448  	28,090484  	30,349778  	29,963371  	32,973599  	62,375593  	26,427541  	25,294782  	27,797004  	68,388037  	0,385628  	0,195400  	-4769,692593  	22525,169386  	-0,022177  	-0,050002  	0,198536  	0,100600  	-4,343124  	5005,283575  	143387,238140  	20,796561  	-0,047953  
22,755000  	23,988983  	29,787706  	23,904368  	-242,047242  	80,051263  	69,775801  	0,010620  	0,006275  	0,003960  	0,004399  	0,004183  	0,000000  	-0,000000  	25,932544  	25,210131  	26,210924  	25,911425  	28,437779  	27,328455  	28,716655  	28,099118  	30,347047  	29,968537  	32,976047  	62,379785  	26,427092  	25,299056  	27,803181  	68,402468  	0,329537  	0,166979  	-4048,119040  	-27051,757986  	-0,103201  	-0,049999  	0,170849  	0,086571  	-3,727034  	4881,903553  	143556,132431  	20,821057  	-0,047951  
23,758000  	24,017735  	29,780229  	23,905290  	657,183579  	80,050982  	69,778729  	0,010624  	0,006298  	0,003959  	0,004404  	0,004237  	0,000002  	-0,000000  	25,938451  	25,208377  	26,217927  	25,911377  	28,439856  	27,321651  	28,726325  	28,107929  	30,350332  	29,974936  	32,982392  	62,378143  	26,428612  	25,286050  	27,792580  	68,394944  	0,334132  	0,169307  	-4078,912082  	18492,722578  	-0,027582  	-0,049978  	0,214182  	0,108528  	-4,670878  	4930,340976  	143651,556046  	20,834897  	-0,047933  
24,759000  	24,033463  	29,785583  	23,905720  	1256,670793  	80,051607  	69,783649  	0,010624  	0,006358  	0,003959  	0,004409  	0,004266  	0,000000  	-0,000000  	25,937395  	25,219201  	26,223229  	25,917252  	28,441211  	27,332914  	28,727865  	28,103618  	30,354090  	29,965343  	32,976081  	62,376410  	26,427753  	25,280172  	27,801402  	68,410032  	0,337638  	0,171084  	-4114,282851  	25570,588989  	-0,018538  	-0,050000  	0,237068  	0,120124  	-5,167816  	5060,063960  	143646,620342  	20,834181  	-0,047951  
25,760000  	24,033002  	29,803276  	23,906764  	956,927186  	80,059074  	69,778822  	0,010626  	0,006337  	0,003962  	0,004433  	0,004253  	0,000000  	-0,000000  	25,926135  	25,206918  	26,205100  	25,912835  	28,433917  	27,327983  	28,705095  	28,098005  	30,352996  	29,955111  	32,972722  	62,372231  	26,424750  	25,267758  	27,791290  	68,397639  	0,357279  	0,181036  	-4367,358723  	22524,106640  	-0,022176  	-0,050000  	0,226439  	0,114738  	-4,942019  	5016,385527  	143691,818400  	20,840736  	-0,047951  
26,759000  	24,008735  	29,809491  	23,905965  	357,439972  	80,069072  	69,758516  	0,010623  	0,006350  	0,003958  	0,004490  	0,004216  	0,000002  	-0,000000  	25,930552  	25,212446  	26,210402  	25,921678  	28,444504  	27,326430  	28,721858  	28,093141  	30,349904  	29,960835  	32,974924  	62,377833  	26,430947  	25,256916  	27,804546  	68,403662  	0,403260  	0,204335  	-4955,481787  	12545,376830  	-0,036493  	-0,049977  	0,197453  	0,100051  	-4,322085  	5042,481801  	143616,490657  	20,829811  	-0,047932  
27,758000  	23,991409  	29,816692  	23,906610  	357,439972  	80,072102  	69,747989  	0,010624  	0,006354  	0,003962  	0,004364  	0,004209  	-0,000000  	-0,000000  	25,934537  	25,209284  	26,201664  	25,921004  	28,428658  	27,332020  	28,713421  	28,097988  	30,346250  	29,965673  	32,981679  	62,376152  	26,427839  	25,243658  	27,802822  	68,399521  	0,301263  	0,152652  	-3717,740732  	12551,189803  	-0,036510  	-0,050003  	0,191805  	0,097189  	-4,203978  	5051,795329  	143642,666130  	20,833607  	-0,047954  
28,808000  	23,996509  	29,819338  	23,907839  	-242,047242  	80,067478  	69,767423  	0,010630  	0,006337  	0,003960  	0,004385  	0,004210  	0,000001  	-0,000000  	25,939666  	25,207332  	26,208107  	25,909528  	28,431335  	27,329851  	28,716771  	28,099341  	30,341431  	29,953139  	32,978316  	62,374796  	26,431310  	25,254881  	27,797676  	68,417296  	0,318656  	0,161465  	-3930,717309  	-27046,022106  	-0,103178  	-0,049987  	0,192564  	0,097574  	-4,210790  	5016,248990  	143770,408369  	20,852135  	-0,047940  
29,758000  	23,996939  	29,811738  	23,909344  	-242,047242  	80,065697  	69,772531  	0,010623  	0,006345  	0,003959  	0,004407  	0,004287  	-0,000001  	-0,000000  	25,934727  	25,199125  	26,202771  	25,911713  	28,439179  	27,329274  	28,703101  	28,098881  	30,341560  	29,962028  	32,974401  	62,376405  	26,438676  	25,264699  	27,795996  	68,399514  	0,336083  	0,170296  	-4139,969089  	-27059,938562  	-0,103230  	-0,050016  	0,253683  	0,128543  	-5,543571  	5032,697113  	143622,902129  	20,830741  	-0,047965  
30,754000  	24,010639  	29,808784  	23,912600  	357,439972  	80,066760  	69,778137  	0,010628  	0,006325  	0,003959  	0,004426  	0,004229  	0,000000  	-0,000000  	25,932299  	25,205164  	26,204453  	25,907016  	28,429472  	27,324418  	28,712467  	28,091084  	30,346375  	29,956119  	32,975383  	62,367572  	26,432109  	25,295039  	27,793339  	68,407263  	0,351514  	0,178115  	-4317,648610  	12549,691414  	-0,036507  	-0,049998  	0,207256  	0,105018  	-4,527025  	4989,324298  	143740,575249  	20,847808  	-0,047950  
31,759000  	24,021698  	29,809707  	23,914167  	1256,670793  	80,062229  	69,794737  	0,010627  	0,006304  	0,003961  	0,004442  	0,004189  	0,000002  	-0,000000  	25,919199  	25,202542  	26,195280  	25,901713  	28,421891  	27,316168  	28,702462  	28,086178  	30,339331  	29,949045  	32,962761  	62,368124  	26,435855  	25,309995  	27,795397  	68,399217  	0,364389  	0,184639  	-4467,968853  	25561,504775  	-0,018532  	-0,049981  	0,175897  	0,089129  	-3,834197  	4944,552861  	143710,050143  	20,843381  	-0,047935  
32,758000  	23,997430  	29,810691  	23,915272  	1256,670793  	80,055356  	69,797789  	0,010615  	0,006376  	0,003959  	0,004436  	0,004220  	0,000000  	-0,000000  	25,922405  	25,197006  	26,196808  	25,892179  	28,419443  	27,316314  	28,704998  	28,080859  	30,339898  	29,947151  	32,959019  	62,367365  	26,436365  	25,327182  	27,794360  	68,407271  	0,360210  	0,182521  	-4436,002606  	25569,803436  	-0,018538  	-0,049999  	0,200826  	0,101760  	-4,373348  	5099,064051  	143460,412250  	20,807174  	-0,047950  
33,758000  	23,971811  	29,820938  	23,916716  	956,927186  	80,053263  	69,799876  	0,010628  	0,006340  	0,003959  	0,004392  	0,004180  	0,000000  	-0,000000  	25,923130  	25,198082  	26,202789  	25,899194  	28,428630  	27,312177  	28,707063  	28,085725  	30,339081  	29,952624  	32,963531  	62,368592  	26,441136  	25,355984  	27,788882  	68,408335  	0,324335  	0,164343  	-4018,852425  	22523,008087  	-0,022176  	-0,049998  	0,169024  	0,085645  	-3,679301  	5021,157959  	143733,641256  	20,846802  	-0,047949  
34,759000  	23,974330  	29,818661  	23,918498  	357,439972  	80,053513  	69,792713  	0,010626  	0,006340  	0,003962  	0,004376  	0,004262  	-0,000000  	-0,000000  	25,919109  	25,194501  	26,191864  	25,902647  	28,427054  	27,304957  	28,708183  	28,081388  	30,333927  	29,948515  	32,971753  	62,366581  	26,445097  	25,372621  	27,788200  	68,399127  	0,311241  	0,157708  	-3853,435568  	12550,044935  	-0,036508  	-0,050001  	0,233394  	0,118262  	-5,084182  	5022,652085  	143684,707879  	20,839705  	-0,047952  
35,758000  	23,978293  	29,808230  	23,919972  	1256,670793  	80,052201  	69,792277  	0,010624  	0,006336  	0,003957  	0,004391  	0,004230  	-0,000001  	-0,000000  	25,931110  	25,197378  	26,201739  	25,907906  	28,430618  	27,316170  	28,710858  	28,082589  	30,340541  	29,953745  	32,972677  	62,367325  	26,451555  	25,395493  	27,790003  	68,405951  	0,323499  	0,163919  	-3995,339821  	25573,461490  	-0,018540  	-0,050007  	0,208107  	0,105449  	-4,532948  	5013,704307  	143638,831956  	20,833051  	-0,047958  
36,759000  	23,993160  	29,798506  	23,921017  	57,696365  	80,048826  	69,798941  	0,010623  	0,006345  	0,003958  	0,004397  	0,004243  	0,000001  	-0,000000  	25,937023  	25,202483  	26,202701  	25,911523  	28,427752  	27,320896  	28,716240  	28,082445  	30,336212  	29,952647  	32,971244  	62,369797  	26,449818  	25,402093  	27,794306  	68,413004  	0,327915  	0,166157  	-4032,784193  	1831,911642  	-0,053922  	-0,049986  	0,218871  	0,110904  	-4,762758  	5033,677634  	143636,318207  	20,832687  	-0,047940  
37,755000  	24,011684  	29,794629  	23,922706  	1256,670793  	80,048951  	69,801277  	0,010615  	0,006354  	0,003960  	0,004434  	0,004185  	0,000001  	-0,000000  	25,936472  	25,203842  	26,199855  	25,909423  	28,427588  	27,320512  	28,716408  	28,089926  	30,339766  	29,954962  	32,972282  	62,371028  	26,450309  	25,421841  	27,796922  	68,416436  	0,357982  	0,181392  	-4385,567782  	25566,551307  	-0,018535  	-0,049992  	0,172414  	0,087363  	-3,751006  	5052,528243  	143449,764121  	20,805629  	-0,047945  
38,758000  	24,000072  	29,798506  	23,923197  	1256,670793  	80,049326  	69,795298  	0,010621  	0,006352  	0,003962  	0,004488  	0,004168  	0,000002  	-0,000000  	25,938104  	25,207025  	26,203139  	25,908043  	28,432557  	27,319730  	28,713531  	28,098282  	30,345993  	29,959502  	32,975372  	62,374593  	26,458430  	25,441627  	27,795996  	68,411595  	0,401706  	0,203547  	-4934,408973  	25558,831951  	-0,018530  	-0,049975  	0,158942  	0,080537  	-3,460054  	5046,966302  	143589,693808  	20,825924  	-0,047930  
39,763000  	23,971688  	29,805983  	23,923658  	1256,670793  	80,047327  	69,793927  	0,010624  	0,006358  	0,003961  	0,004431  	0,004216  	0,000001  	-0,000000  	25,941416  	25,206640  	26,209032  	25,912131  	28,436267  	27,323222  	28,713469  	28,099657  	30,347521  	29,959883  	32,978935  	62,383036  	26,469350  	25,450113  	27,798639  	68,409877  	0,356193  	0,180485  	-4402,407792  	25566,857465  	-0,018536  	-0,049993  	0,197401  	0,100025  	-4,297022  	5061,659251  	143645,568239  	20,834028  	-0,047945  
40,759000  	23,968309  	29,812261  	23,925686  	57,696365  	80,047639  	69,801340  	0,010625  	0,006298  	0,003964  	0,004334  	0,004266  	0,000001  	-0,000000  	25,934679  	25,196135  	26,200596  	25,908007  	28,429836  	27,321576  	28,710391  	28,090574  	30,341872  	29,950044  	32,970505  	62,381236  	26,469824  	25,443283  	27,796682  	68,400665  	0,277354  	0,140537  	-3433,663523  	1831,643823  	-0,053921  	-0,049986  	0,236805  	0,119991  	-5,151205  	4932,310506  	143674,433988  	20,838215  	-0,047939  
41,757000  	23,971381  	29,806568  	23,925686  	1256,670793  	80,045140  	69,809842  	0,010615  	0,006254  	0,003955  	0,004375  	0,004273  	0,000001  	-0,000000  	25,930719  	25,195954  	26,193804  	25,905463  	28,427077  	27,318891  	28,707277  	28,085257  	30,337383  	29,945903  	32,968204  	62,374416  	26,469369  	25,447199  	27,793763  	68,398236  	0,310319  	0,157241  	-3836,017752  	25563,913695  	-0,018533  	-0,049987  	0,242334  	0,122793  	-5,265832  	4836,737362  	143445,485099  	20,805009  	-0,047940  
42,758000  	23,971811  	29,797152  	23,926484  	657,183579  	80,040641  	69,800063  	0,010618  	0,006255  	0,003953  	0,004433  	0,004274  	-0,000001  	-0,000000  	25,934522  	25,200553  	26,203290  	25,909218  	28,433545  	27,319393  	28,712487  	28,090273  	30,340021  	29,957376  	32,978411  	62,379589  	26,478036  	25,474356  	27,799676  	68,411460  	0,357666  	0,181232  	-4413,831370  	18501,789415  	-0,027596  	-0,050009  	0,242916  	0,123087  	-5,281180  	4838,947424  	143508,229974  	20,814109  	-0,047959  
43,757000  	24,001946  	29,790414  	23,928051  	-242,047242  	80,039391  	69,781314  	0,010622  	0,006355  	0,003963  	0,004494  	0,004206  	0,000001  	-0,000000  	25,928487  	25,191165  	26,201728  	25,900631  	28,429007  	27,311626  	28,713059  	28,086837  	30,337749  	29,957940  	32,975474  	62,378730  	26,480222  	25,493088  	27,797028  	68,405659  	0,406891  	0,206175  	-4989,511140  	-27049,431529  	-0,103183  	-0,049993  	0,189452  	0,095997  	-4,125868  	5053,902104  	143615,608020  	20,829683  	-0,047946  
44,756000  	24,025538  	29,784506  	23,929279  	956,927186  	80,039204  	69,765492  	0,010615  	0,006344  	0,003963  	0,004484  	0,004201  	0,000001  	-0,000000  	25,926743  	25,194364  	26,196265  	25,899223  	28,426719  	27,314009  	28,704406  	28,085358  	30,338109  	29,952423  	32,972453  	62,369528  	26,482342  	25,508268  	27,789207  	68,399122  	0,398514  	0,201930  	-4861,868984  	22519,219012  	-0,022172  	-0,049989  	0,185646  	0,094068  	-4,049135  	5031,004195  	143462,664739  	20,807500  	-0,047942  
45,758000  	23,997277  	29,785798  	23,929955  	1256,670793  	80,041234  	69,742103  	0,010626  	0,006360  	0,003960  	0,004366  	0,004184  	0,000002  	-0,000000  	25,928776  	25,206315  	26,204278  	25,910225  	28,437529  	27,327630  	28,704337  	28,098923  	30,347137  	29,959958  	32,973406  	62,377207  	26,493427  	25,513507  	27,795871  	68,403781  	0,302843  	0,153453  	-3713,656518  	25560,844787  	-0,018531  	-0,049980  	0,172220  	0,087265  	-3,765572  	5065,560816  	143698,173384  	20,841658  	-0,047934  
46,757000  	23,995925  	29,786352  	23,931614  	657,183579  	80,042109  	69,728213  	0,010630  	0,006287  	0,003961  	0,004366  	0,004286  	0,000001  	-0,000000  	25,925935  	25,209837  	26,208283  	25,911797  	28,440091  	27,327002  	28,707738  	28,101044  	30,352118  	29,957723  	32,973861  	62,379213  	26,498804  	25,512471  	27,795389  	68,400786  	0,302833  	0,153448  	-3714,755433  	18492,670847  	-0,027583  	-0,049982  	0,252523  	0,127955  	-5,529294  	4906,743402  	143781,360124  	20,853723  	-0,047936  
47,757000  	24,011223  	29,788198  	23,931982  	657,183579  	80,040297  	69,735812  	0,010617  	0,006342  	0,003955  	0,004360  	0,004276  	-0,000001  	-0,000000  	25,925192  	25,200856  	26,198474  	25,907858  	28,435683  	27,313205  	28,717753  	28,085466  	30,341833  	29,958362  	32,965875  	62,375293  	26,493893  	25,500372  	27,789886  	68,395081  	0,298262  	0,151132  	-3650,181858  	18502,911254  	-0,027598  	-0,050013  	0,244472  	0,123876  	-5,348126  	5026,339295  	143491,544611  	20,811689  	-0,047962  
48,759000  	24,023264  	29,791337  	23,931921  	1256,670793  	80,033049  	69,766333  	0,010616  	0,006339  	0,003958  	0,004402  	0,004284  	0,000000  	-0,000000  	25,923804  	25,200168  	26,198158  	25,901678  	28,438972  	27,314949  	28,714199  	28,085923  	30,345631  	29,957092  	32,970845  	62,379658  	26,488979  	25,484940  	27,791640  	68,391702  	0,332209  	0,168333  	-4059,365363  	25569,692098  	-0,018538  	-0,050000  	0,251310  	0,127340  	-5,477584  	5020,664869  	143478,015556  	20,809727  	-0,047951  
49,758000  	24,027842  	29,804230  	23,931952  	57,696365  	80,024645  	69,760416  	0,010621  	0,006330  	0,003959  	0,004395  	0,004206  	0,000001  	-0,000000  	25,924754  	25,204771  	26,199456  	25,905964  	28,437619  	27,323438  	28,716333  	28,097817  	30,345327  	29,958193  	32,989998  	62,386284  	26,486581  	25,481848  	27,800177  	68,397565  	0,326962  	0,165674  	-4001,001275  	1831,379102  	-0,053923  	-0,049989  	0,189361  	0,095950  	-4,126332  	5000,607356  	143575,613987  	20,823882  	-0,047942  
50,759000  	24,040928  	29,809522  	23,932013  	1256,670793  	80,018084  	69,759108  	0,010618  	0,006339  	0,003960  	0,004446  	0,004182  	-0,000000  	-0,000000  	25,920185  	25,199756  	26,195770  	25,895787  	28,431642  	27,316757  	28,711775  	28,086502  	30,335137  	29,954208  	32,975575  	62,377771  	26,474262  	25,466234  	27,789806  	68,405490  	0,367867  	0,186401  	-4495,479280  	25570,537336  	-0,018538  	-0,050002  	0,170360  	0,086323  	-3,710398  	5018,987514  	143523,743196  	20,816359  	-0,047953  
51,756000  	24,054198  	29,816999  	23,933119  	1256,670793  	80,017834  	69,773932  	0,010618  	0,006344  	0,003955  	0,004362  	0,004219  	0,000000  	-0,000000  	25,926016  	25,202741  	26,193339  	25,909496  	28,430586  	27,314580  	28,715045  	28,095666  	30,343336  	29,948451  	32,978389  	62,373360  	26,469833  	25,482781  	27,798578  	68,398937  	0,300152  	0,152089  	-3664,283518  	25567,724594  	-0,018536  	-0,049996  	0,199319  	0,100996  	-4,334731  	5030,482099  	143510,623685  	20,814456  	-0,047948  
52,758000  	24,060035  	29,821123  	23,933180  	1256,670793  	80,018583  	69,764527  	0,010625  	0,006339  	0,003961  	0,004427  	0,004251  	0,000000  	-0,000000  	25,926009  	25,200520  	26,196302  	25,908036  	28,430894  	27,315678  	28,709742  	28,082286  	30,337696  	29,957575  	32,971945  	62,388145  	26,467108  	25,489792  	27,802703  	68,396718  	0,352713  	0,178722  	-4304,680788  	25568,143906  	-0,018537  	-0,049996  	0,224871  	0,113944  	-4,895285  	5019,243610  	143663,934143  	20,836692  	-0,047948  
53,772000  	24,064766  	29,835862  	23,932689  	1256,670793  	80,016646  	69,770382  	0,010611  	0,006346  	0,003964  	0,004367  	0,004257  	0,000001  	-0,000000  	25,923466  	25,201896  	26,194657  	25,897863  	28,435690  	27,318202  	28,713642  	28,084324  	30,345467  	29,956854  	32,975711  	62,381968  	26,472740  	25,489436  	27,791074  	68,401297  	0,303879  	0,153978  	-3715,129558  	25565,341790  	-0,018535  	-0,049990  	0,229482  	0,116280  	-4,991857  	5033,995277  	143369,310024  	20,793960  	-0,047943  
54,756000  	24,059912  	29,841154  	23,932628  	1256,670793  	80,016084  	69,756928  	0,010612  	0,006345  	0,003961  	0,004367  	0,004305  	-0,000000  	-0,000000  	25,910513  	25,186942  	26,186787  	25,890213  	28,422098  	27,303057  	28,702267  	28,075143  	30,323748  	29,949453  	32,957291  	62,364354  	26,453543  	25,482615  	27,786698  	68,388226  	0,304267  	0,154174  	-3726,403000  	25572,333695  	-0,018540  	-0,050006  	0,267776  	0,135684  	-5,832195  	5031,757625  	143383,644044  	20,796039  	-0,047956  
55,827000  	24,041941  	29,843924  	23,932535  	1256,670793  	80,017021  	69,769074  	0,010616  	0,006348  	0,003960  	0,004384  	0,004262  	0,000002  	-0,000000  	25,925914  	25,208211  	26,201669  	25,901927  	28,433748  	27,325544  	28,714097  	28,085711  	30,342849  	29,959231  	32,979530  	62,380793  	26,457031  	25,490229  	27,798841  	68,405444  	0,317925  	0,161095  	-3907,653595  	25561,197389  	-0,018532  	-0,049981  	0,233783  	0,118459  	-5,086256  	5038,999751  	143468,454835  	20,808340  	-0,047935  
56,759000  	24,035183  	29,851432  	23,932044  	57,696365  	80,017646  	69,776673  	0,010615  	0,006275  	0,003958  	0,004472  	0,004182  	0,000000  	-0,000000  	25,923013  	25,194054  	26,194321  	25,895923  	28,424337  	27,313957  	28,714936  	28,087723  	30,333933  	29,949852  	32,973596  	62,371159  	26,436447  	25,477447  	27,796190  	68,388983  	0,389429  	0,197326  	-4798,282661  	1831,655671  	-0,053932  	-0,049997  	0,170710  	0,086500  	-3,711492  	4880,703017  	143461,803285  	20,807375  	-0,047949  
57,766000  	24,005202  	29,853893  	23,931460  	1256,670793  	80,018302  	69,785207  	0,010617  	0,006265  	0,003961  	0,004403  	0,004185  	-0,000000  	-0,000000  	25,928113  	25,201427  	26,201278  	25,904651  	28,430259  	27,324933  	28,712080  	28,089230  	30,343478  	29,953864  	32,965746  	62,387312  	26,435874  	25,472474  	27,795452  	68,395895  	0,332853  	0,168659  	-4124,076112  	25571,706842  	-0,018539  	-0,050004  	0,172677  	0,087497  	-3,751377  	4860,857738  	143491,594038  	20,811696  	-0,047955  
58,755000  	23,968340  	29,855370  	23,930047  	657,183579  	80,020302  	69,780535  	0,010621  	0,006260  	0,003961  	0,004452  	0,004212  	-0,000001  	-0,000000  	25,923998  	25,196017  	26,193765  	25,902594  	28,425925  	27,318687  	28,706173  	28,091850  	30,333241  	29,952475  	32,963876  	62,380600  	26,420983  	25,463914  	27,784886  	68,389230  	0,372985  	0,188994  	-4651,628835  	18502,407109  	-0,027597  	-0,050011  	0,194435  	0,098522  	-4,226831  	4849,792573  	143574,964367  	20,823788  	-0,047961  
59,755000  	23,940049  	29,842170  	23,928204  	-242,047242  	80,025019  	69,770039  	0,010622  	0,006286  	0,003961  	0,004426  	0,004201  	0,000000  	-0,000000  	25,930669  	25,197278  	26,195180  	25,904950  	28,424495  	27,316429  	28,715051  	28,094542  	30,336615  	29,952747  	32,975547  	62,376703  	26,424839  	25,462785  	27,795354  	68,391357  	0,351997  	0,178359  	-4401,133843  	-27051,342494  	-0,103190  	-0,049997  	0,185318  	0,093902  	-4,034607  	4904,575080  	143604,910464  	20,828131  	-0,047949  
60,754000  	23,926717  	29,818599  	23,926054  	956,927186  	80,030143  	69,739892  	0,010623  	0,006349  	0,003960  	0,004326  	0,004231  	0,000001  	-0,000000  	25,930925  	25,206279  	26,195368  	25,908678  	28,428160  	27,317458  	28,713211  	28,096220  	30,338014  	29,957343  	32,981420  	62,383370  	26,429421  	25,460233  	27,795513  	68,395435  	0,270897  	0,137266  	-3381,246633  	22519,670846  	-0,022173  	-0,049990  	0,209091  	0,105948  	-4,567802  	5042,193163  	143619,519866  	20,830250  	-0,047943  
61,756000  	23,958848  	29,779336  	23,925348  	1256,670793  	80,031955  	69,709153  	0,010613  	0,006336  	0,003963  	0,004333  	0,004292  	0,000000  	-0,000000  	25,933268  	25,214979  	26,203618  	25,915686  	28,442573  	27,329694  	28,720705  	28,096783  	30,344020  	29,967308  	32,988273  	62,389591  	26,436004  	25,449834  	27,800799  	68,404520  	0,276641  	0,140176  	-3411,083744  	25569,652579  	-0,018538  	-0,049999  	0,257832  	0,130645  	-5,650409  	5014,293609  	143411,394140  	20,800064  	-0,047951  
62,757000  	23,988460  	29,755274  	23,925470  	657,183579  	80,031268  	69,692709  	0,010620  	0,006240  	0,003958  	0,004363  	0,004226  	-0,000001  	-0,000000  	25,929433  	25,202655  	26,199759  	25,901132  	28,440340  	27,319310  	28,708496  	28,083952  	30,340543  	29,955675  	32,976462  	62,378594  	26,427509  	25,424806  	27,794745  	68,391678  	0,300909  	0,152473  	-3676,103091  	18501,351676  	-0,027596  	-0,050007  	0,205319  	0,104037  	-4,506444  	4805,542524  	143554,797884  	20,820863  	-0,047957  
63,754000  	24,006799  	29,754720  	23,925839  	-242,047242  	80,028769  	69,703889  	0,010623  	0,006306  	0,003955  	0,004465  	0,004233  	0,000001  	-0,000000  	25,927933  	25,197833  	26,194982  	25,906807  	28,437118  	27,321650  	28,707385  	28,090858  	30,344184  	29,955158  	32,970540  	62,372551  	26,429899  	25,412339  	27,788546  	68,389702  	0,383419  	0,194281  	-4668,741925  	-27045,195423  	-0,103168  	-0,049985  	0,211172  	0,107003  	-4,628779  	4947,507864  	143627,513023  	20,831410  	-0,047938  
64,756000  	24,008212  	29,771521  	23,925102  	-242,047242  	80,023770  	69,720209  	0,010616  	0,006378  	0,003958  	0,004411  	0,004249  	-0,000000  	-0,000000  	25,929234  	25,202714  	26,204976  	25,904341  	28,441849  	27,330389  	28,709584  	28,098774  	30,342866  	29,955125  	32,973057  	62,380614  	26,436541  	25,413012  	27,790413  	68,394564  	0,339908  	0,172234  	-4150,006393  	-27054,277026  	-0,103203  	-0,050003  	0,223340  	0,113168  	-4,885386  	5103,169361  	143483,629125  	20,810541  	-0,047954  
65,755000  	23,996171  	29,790167  	23,924887  	1256,670793  	80,021302  	69,723479  	0,010623  	0,006296  	0,003963  	0,004437  	0,004164  	0,000000  	-0,000000  	25,935493  	25,204467  	26,205239  	25,900695  	28,444705  	27,327415  	28,710127  	28,095568  	30,342476  	29,954046  	32,980117  	62,382067  	26,439351  	25,409175  	27,791066  	68,394161  	0,360429  	0,182632  	-4423,986422  	25569,744299  	-0,018538  	-0,049999  	0,156130  	0,079112  	-3,413323  	4927,629335  	143622,513769  	20,830684  	-0,047951  
66,756000  	23,990580  	29,792506  	23,925440  	1256,670793  	80,026550  	69,719804  	0,010619  	0,006240  	0,003961  	0,004365  	0,004172  	0,000001  	-0,000000  	25,935824  	25,199706  	26,200204  	25,905062  	28,438356  	27,324431  	28,708691  	28,090763  	30,344732  	29,952225  	32,980014  	62,378630  	26,435378  	25,400992  	27,792730  	68,394598  	0,302433  	0,153245  	-3717,215912  	25563,378646  	-0,018533  	-0,049985  	0,162233  	0,082204  	-3,549812  	4806,541438  	143533,536932  	20,817779  	-0,047939  
67,755000  	23,999335  	29,793521  	23,926546  	1256,670793  	80,028737  	69,736559  	0,010620  	0,006264  	0,003959  	0,004349  	0,004227  	0,000001  	-0,000000  	25,927340  	25,192951  	26,198739  	25,900452  	28,430134  	27,322504  	28,705838  	28,088149  	30,345741  	29,948193  	32,974173  	62,376236  	26,423825  	25,387869  	27,798859  	68,391948  	0,289529  	0,146706  	-3553,857345  	25562,732351  	-0,018533  	-0,049984  	0,205792  	0,104277  	-4,496591  	4857,387715  	143566,039145  	20,822494  	-0,047938  
68,756000  	23,994543  	29,793583  	23,926116  	57,696365  	80,029800  	69,730268  	0,010618  	0,006247  	0,003958  	0,004311  	0,004288  	-0,000001  	-0,000000  	25,926387  	25,196886  	26,198584  	25,901515  	28,429631  	27,320061  	28,710349  	28,092430  	30,350067  	29,957095  	32,975575  	62,379816  	26,420592  	25,376185  	27,801612  	68,391761  	0,258482  	0,130975  	-3175,430454  	1832,600566  	-0,053950  	-0,050016  	0,254193  	0,128802  	-5,558120  	4822,120110  	143526,299312  	20,816730  	-0,047965  
69,754000  	23,972057  	29,793060  	23,926822  	57,696365  	80,029987  	69,717842  	0,010629  	0,006244  	0,003958  	0,004379  	0,004304  	0,000000  	-0,000000  	25,932249  	25,203001  	26,200711  	25,906906  	28,431257  	27,315917  	28,708720  	28,095381  	30,347229  	29,962024  	32,973108  	62,384342  	26,421813  	25,368886  	27,800237  	68,397945  	0,314053  	0,159133  	-3872,726968  	1831,932129  	-0,053931  	-0,049997  	0,267278  	0,135432  	-5,851384  	4814,671409  	143761,080664  	20,850782  	-0,047949  
70,758000  	23,960630  	29,791706  	23,926822  	657,183579  	80,027675  	69,693363  	0,010612  	0,006352  	0,003961  	0,004380  	0,004280  	0,000000  	-0,000000  	25,930572  	25,199108  	26,194085  	25,904702  	28,431192  	27,308055  	28,702046  	28,088766  	30,340922  	29,951894  	32,966789  	62,371407  	26,411991  	25,355438  	27,797494  	68,399861  	0,314661  	0,159441  	-3886,943624  	18498,897702  	-0,027592  	-0,050000  	0,248217  	0,125773  	-5,445741  	5047,799673  	143379,414449  	20,795426  	-0,047951  
71,755000  	23,976388  	29,779429  	23,926361  	-242,047242  	80,023895  	69,667638  	0,010626  	0,006362  	0,003957  	0,004484  	0,004281  	-0,000001  	-0,000000  	25,921120  	25,200258  	26,197702  	25,904891  	28,430994  	27,313714  	28,706272  	28,084217  	30,340017  	29,954865  	32,965552  	62,370706  	26,404913  	25,348815  	27,790352  	68,403424  	0,398777  	0,202063  	-4902,324101  	-27060,387145  	-0,103225  	-0,050016  	0,248980  	0,126160  	-5,474063  	5068,640329  	143692,319738  	20,840809  	-0,047965  
72,756000  	23,985665  	29,763613  	23,926054  	956,927186  	80,016959  	69,669071  	0,010622  	0,006297  	0,003962  	0,004402  	0,004204  	0,000000  	-0,000000  	25,926781  	25,194079  	26,198832  	25,903367  	28,429032  	27,320527  	28,707836  	28,087277  	30,339050  	29,956542  	32,965428  	62,376667  	26,409156  	25,332974  	27,793706  	68,400241  	0,332576  	0,168519  	-4070,812374  	22522,857475  	-0,022176  	-0,049998  	0,187991  	0,095257  	-4,129831  	4928,540525  	143603,335840  	20,827903  	-0,047950  
73,755000  	23,997000  	29,761644  	23,926546  	1256,670793  	80,008461  	69,688037  	0,010617  	0,006352  	0,003959  	0,004386  	0,004163  	0,000001  	-0,000000  	25,932160  	25,195744  	26,207166  	25,912957  	28,432447  	27,326240  	28,710958  	28,091245  	30,341633  	29,950540  	32,973075  	62,379071  	26,425078  	25,321417  	27,804574  	68,400778  	0,319270  	0,161777  	-3898,943180  	25565,153467  	-0,018534  	-0,049989  	0,155223  	0,078653  	-3,400929  	5047,533674  	143487,936392  	20,811166  	-0,047942  
74,757000  	24,014571  	29,771982  	23,926546  	1256,670793  	80,002275  	69,695325  	0,010627  	0,006306  	0,003958  	0,004415  	0,004221  	0,000000  	-0,000000  	25,926751  	25,191808  	26,206337  	25,901802  	28,426359  	27,319292  	28,703908  	28,089570  	30,332581  	29,947362  	32,972966  	62,376848  	26,429945  	25,317803  	27,791325  	68,401389  	0,342737  	0,173667  	-4180,268626  	25568,855359  	-0,018537  	-0,049998  	0,201278  	0,101989  	-4,404240  	4949,309022  	143716,560471  	20,844325  	-0,047949  
75,754000  	24,009687  	29,783983  	23,926269  	1256,670793  	80,003743  	69,711551  	0,010622  	0,006321  	0,003960  	0,004388  	0,004202  	0,000000  	-0,000000  	25,931058  	25,199659  	26,202000  	25,905623  	28,435633  	27,317655  	28,706080  	28,090347  	30,343216  	29,949928  	32,974061  	62,374395  	26,422063  	25,310744  	27,799161  	68,393083  	0,320759  	0,162531  	-3923,677819  	25568,826878  	-0,018537  	-0,049997  	0,186276  	0,094387  	-4,070146  	4980,652423  	143597,185628  	20,827011  	-0,047949  
76,756000  	24,015278  	29,792352  	23,927436  	1256,670793  	80,009617  	69,726873  	0,010616  	0,006365  	0,003963  	0,004366  	0,004235  	0,000000  	-0,000000  	25,937523  	25,196904  	26,199909  	25,906352  	28,438016  	27,312953  	28,711351  	28,081323  	30,343171  	29,955026  	32,974353  	62,383364  	26,434979  	25,306905  	27,796583  	68,407715  	0,302904  	0,153483  	-3707,046696  	25569,305813  	-0,018537  	-0,049999  	0,212007  	0,107425  	-4,628123  	5076,517035  	143474,986347  	20,809287  	-0,047950  
77,754000  	24,041726  	29,803983  	23,926423  	57,696365  	80,023520  	69,730673  	0,010622  	0,006348  	0,003960  	0,004399  	0,004287  	-0,000000  	-0,000000  	25,941102  	25,204360  	26,205683  	25,909298  	28,439106  	27,330494  	28,717606  	28,097437  	30,346435  	29,965922  	32,975552  	62,400021  	26,441512  	25,294886  	27,815695  	68,413554  	0,329969  	0,167198  	-4027,915721  	1832,101271  	-0,053936  	-0,050001  	0,253349  	0,128374  	-5,536066  	5039,368330  	143600,984496  	20,827562  	-0,047953  
78,757000  	24,060465  	29,806753  	23,925993  	1256,670793  	80,042703  	69,723198  	0,010618  	0,006347  	0,003959  	0,004374  	0,004307  	-0,000000  	-0,000000  	25,932131  	25,201804  	26,205981  	25,902737  	28,433885  	27,326396  	28,707114  	28,082058  	30,337698  	29,947705  	32,963944  	62,378963  	26,430495  	25,266149  	27,796964  	68,415313  	0,309290  	0,156720  	-3765,026504  	25572,768056  	-0,018540  	-0,050006  	0,269160  	0,136385  	-5,896782  	5035,925190  	143525,120109  	20,816559  	-0,047957  
79,755000  	24,047747  	29,815984  	23,925993  	1256,670793  	80,059543  	69,734722  	0,010621  	0,006348  	0,003958  	0,004413  	0,004241  	-0,000000  	-0,000000  	25,933001  	25,210976  	26,194820  	25,914850  	28,435853  	27,330486  	28,714877  	28,093916  	30,340121  	29,963675  	32,975829  	62,384998  	26,434392  	25,273969  	27,812817  	68,409472  	0,340896  	0,172734  	-4165,615498  	25572,009701  	-0,018539  	-0,050004  	0,217086  	0,109999  	-4,758390  	5039,515479  	143577,718193  	20,824187  	-0,047955  
80,827000  	24,027043  	29,828969  	23,926054  	1256,670793  	80,066791  	69,735781  	0,010624  	0,006352  	0,003960  	0,004389  	0,004224  	0,000000  	-0,000000  	25,925220  	25,192563  	26,196642  	25,899637  	28,432815  	27,309016  	28,700717  	28,080721  	30,332242  	29,942348  	32,961431  	62,371755  	26,434056  	25,230023  	27,800998  	68,408717  	0,322007  	0,163163  	-3957,793058  	25567,875143  	-0,018536  	-0,049995  	0,203997  	0,103367  	-4,474178  	5047,589562  	143637,666876  	20,832882  	-0,047947  
81,754000  	24,027780  	29,838816  	23,925102  	57,696365  	80,064229  	69,751322  	0,010618  	0,006352  	0,003958  	0,004462  	0,004221  	0,000000  	-0,000000  	25,937542  	25,195327  	26,198149  	25,907855  	28,434963  	27,312705  	28,702801  	28,088159  	30,338829  	29,959361  	32,973311  	62,380541  	26,438547  	25,221033  	27,810720  	68,407709  	0,380549  	0,192827  	-4684,671867  	1832,098918  	-0,053934  	-0,049999  	0,201545  	0,102125  	-4,412673  	5047,786232  	143515,735916  	20,815198  	-0,047951  
82,755000  	24,035030  	29,836477  	23,925716  	1256,670793  	80,065479  	69,764651  	0,010629  	0,006254  	0,003956  	0,004422  	0,004238  	0,000001  	-0,000000  	25,931892  	25,205116  	26,196041  	25,903350  	28,430303  	27,316895  	28,710461  	28,090269  	30,341044  	29,955663  	32,966746  	62,377607  	26,427998  	25,209253  	27,807159  	68,411963  	0,348304  	0,176488  	-4280,655161  	25564,987503  	-0,018534  	-0,049989  	0,215092  	0,108989  	-4,703755  	4837,393164  	143765,324382  	20,851397  	-0,047942  
83,754000  	24,049498  	29,835092  	23,925808  	1256,670793  	80,070384  	69,782528  	0,010620  	0,006221  	0,003960  	0,004417  	0,004183  	0,000001  	-0,000000  	25,931871  	25,206340  	26,203295  	25,900899  	28,431389  	27,309417  	28,718163  	28,091438  	30,331635  	29,951678  	32,962084  	62,379957  	26,429830  	25,197113  	27,809486  	68,422368  	0,344692  	0,174658  	-4224,678691  	25567,089183  	-0,018536  	-0,049994  	0,171034  	0,086664  	-3,735578  	4764,501451  	143556,217164  	20,821069  	-0,047946  
84,756000  	24,054843  	29,837000  	23,926238  	1256,670793  	80,072571  	69,791000  	0,010615  	0,006315  	0,003959  	0,004470  	0,004195  	-0,000000  	-0,000000  	25,924945  	25,189816  	26,193720  	25,896741  	28,426064  	27,306330  	28,705739  	28,085412  	30,332783  	29,947426  	32,968413  	62,366207  	26,415044  	25,179837  	27,786547  	68,413907  	0,387307  	0,196251  	-4744,163197  	25570,256577  	-0,018538  	-0,050001  	0,180733  	0,091579  	-3,945002  	4968,354179  	143455,010514  	20,806390  	-0,047952  
85,755000  	24,070510  	29,843893  	23,926300  	1256,670793  	80,076039  	69,772718  	0,010620  	0,006327  	0,003960  	0,004424  	0,004188  	0,000000  	-0,000000  	25,927179  	25,194256  	26,199710  	25,907508  	28,432326  	27,314490  	28,705438  	28,081400  	30,336133  	29,950695  	32,966323  	62,374889  	26,421676  	25,169347  	27,800937  	68,410627  	0,350378  	0,177539  	-4285,296439  	25568,857713  	-0,018537  	-0,049998  	0,175474  	0,088914  	-3,838297  	4994,719282  	143570,388778  	20,823124  	-0,047949  
86,756000  	24,056072  	29,845370  	23,926546  	1256,670793  	80,077476  	69,752225  	0,010627  	0,006284  	0,003964  	0,004405  	0,004219  	-0,000000  	-0,000000  	25,927941  	25,197454  	26,197054  	25,904298  	28,431000  	27,320830  	28,707743  	28,085649  	30,335195  	29,953393  	32,961260  	62,375795  	26,421114  	25,168342  	27,802308  	68,414380  	0,334795  	0,169643  	-4106,001830  	25570,847677  	-0,018538  	-0,050002  	0,199936  	0,101309  	-4,382675  	4902,159859  	143723,141410  	20,845279  	-0,047953  
87,754000  	24,026951  	29,843524  	23,927375  	357,439972  	80,076039  	69,731078  	0,010611  	0,006364  	0,003963  	0,004328  	0,004255  	0,000002  	-0,000000  	25,930587  	25,202998  	26,210169  	25,918247  	28,434570  	27,324301  	28,716248  	28,098576  	30,344991  	29,957701  	32,978022  	62,384294  	26,416521  	25,172267  	27,806656  	68,425561  	0,272752  	0,138205  	-3360,861236  	12543,991821  	-0,036492  	-0,049976  	0,227952  	0,115505  	-5,006323  	5072,887128  	143361,846449  	20,792878  	-0,047931  
88,757000  	23,946407  	29,841431  	23,927682  	-242,047242  	80,075789  	69,740359  	0,010624  	0,006329  	0,003962  	0,004364  	0,004236  	0,000000  	-0,000000  	25,930942  	25,203206  	26,207476  	25,911054  	28,433574  	27,322962  	28,710350  	28,092280  	30,344071  	29,955678  	32,972172  	62,374976  	26,409234  	25,165267  	27,800115  	68,424568  	0,301734  	0,152891  	-3768,146495  	-27050,529263  	-0,103187  	-0,049996  	0,212929  	0,107893  	-4,672085  	4997,118939  	143644,918618  	20,833934  	-0,047948  
89,755000  	23,881839  	29,835339  	23,928174  	956,927186  	80,069697  	69,748269  	0,010627  	0,006341  	0,003958  	0,004359  	0,004235  	-0,000001  	-0,000000  	25,933349  	25,197810  	26,198848  	25,902148  	28,429986  	27,314539  	28,708972  	28,087725  	30,339911  	29,957495  	32,960910  	62,369084  	26,402380  	25,159180  	27,796169  	68,419734  	0,297603  	0,150798  	-3753,435133  	22527,585804  	-0,022180  	-0,050010  	0,212149  	0,107498  	-4,648667  	5024,354908  	143712,140227  	20,843684  	-0,047960  
90,756000  	23,911819  	29,813615  	23,929771  	357,439972  	80,066447  	69,753751  	0,010627  	0,006343  	0,003959  	0,004346  	0,004276  	0,000000  	-0,000000  	25,931208  	25,196775  	26,196568  	25,905361  	28,432751  	27,313800  	28,711949  	28,087731  	30,340779  	29,952321  	32,965238  	62,367976  	26,403362  	25,160182  	27,792475  	68,411321  	0,286969  	0,145409  	-3587,873868  	12548,861051  	-0,036506  	-0,049998  	0,244706  	0,123994  	-5,357520  	5027,759139  	143712,373243  	20,843717  	-0,047950  
91,813000  	23,975037  	29,780475  	23,930232  	1256,670793  	80,064635  	69,769261  	0,010626  	0,006347  	0,003955  	0,004367  	0,004311  	0,000001  	-0,000000  	25,930956  	25,204446  	26,208754  	25,918573  	28,442170  	27,326271  	28,713821  	28,091910  	30,342654  	29,956355  	32,977659  	62,373219  	26,399772  	25,171200  	27,798644  	68,415390  	0,304100  	0,154090  	-3739,969561  	25566,926968  	-0,018536  	-0,049994  	0,272599  	0,138128  	-5,958208  	5037,990225  	143696,146850  	20,841364  	-0,047946  
92,755000  	24,010916  	29,757336  	23,930293  	1256,670793  	80,062511  	69,771129  	0,010620  	0,006354  	0,003958  	0,004437  	0,004280  	-0,000000  	-0,000001  	25,930978  	25,203362  	26,218404  	25,921920  	28,443302  	27,327619  	28,714615  	28,094919  	30,344445  	29,963106  	32,977615  	62,374683  	26,389114  	25,177355  	27,803349  	68,416530  	0,360767  	0,182803  	-4391,775942  	25570,621233  	-0,018538  	-0,050002  	0,247923  	0,125625  	-5,416765  	5051,835654  	143566,935904  	20,822624  	-0,047953  
93,756000  	24,002591  	29,763951  	23,931122  	57,696365  	80,062948  	69,785425  	0,010616  	0,006347  	0,003958  	0,004438  	0,004209  	0,000000  	-0,000000  	25,931687  	25,197485  	26,214956  	25,916904  	28,438252  	27,320787  	28,714238  	28,092894  	30,348052  	29,959523  	32,970068  	62,370421  	26,375973  	25,179891  	27,803881  	68,407080  	0,361782  	0,183318  	-4415,580024  	1831,660467  	-0,053930  	-0,049996  	0,192020  	0,097298  	-4,189716  	5036,131764  	143477,408302  	20,809639  	-0,047948  
94,757000  	23,970091  	29,786537  	23,931368  	657,183579  	80,059824  	69,800250  	0,010623  	0,006351  	0,003960  	0,004476  	0,004204  	-0,000001  	-0,000000  	25,934480  	25,198435  	26,208602  	25,911673  	28,434247  	27,320318  	28,712629  	28,093138  	30,343521  	29,957342  	32,970090  	62,371752  	26,364901  	25,196240  	27,804105  	68,402516  	0,392259  	0,198761  	-4833,341688  	18502,640750  	-0,027598  	-0,050012  	0,187945  	0,095233  	-4,093655  	5045,903718  	143632,279261  	20,832101  	-0,047961  
95,754000  	23,975989  	29,800014  	23,932290  	657,183579  	80,051451  	69,795547  	0,010620  	0,006350  	0,003961  	0,004447  	0,004188  	-0,000001  	-0,000000  	25,932048  	25,193705  	26,203341  	25,898474  	28,427757  	27,315293  	28,708548  	28,090177  	30,333958  	29,953561  	32,968865  	62,369799  	26,357918  	25,215069  	27,793019  	68,396993  	0,369001  	0,186975  	-4552,681333  	18502,028482  	-0,027597  	-0,050010  	0,175064  	0,088706  	-3,811732  	5043,307390  	143561,039891  	20,821768  	-0,047960  
96,756000  	24,045966  	29,796998  	23,933150  	57,696365  	80,047327  	69,804516  	0,010616  	0,006343  	0,003962  	0,004431  	0,004203  	-0,000001  	-0,000000  	25,930869  	25,193484  	26,203663  	25,900271  	28,428592  	27,312053  	28,707372  	28,086671  	30,338391  	29,953513  	32,968712  	62,370294  	26,347517  	25,229747  	27,794190  	68,397201  	0,356047  	0,180412  	-4337,786818  	1832,139201  	-0,053948  	-0,050014  	0,186773  	0,094639  	-4,061471  	5027,802293  	143476,109061  	20,809450  	-0,047964  
97,755000  	24,084733  	29,788783  	23,934286  	1256,670793  	80,047702  	69,800374  	0,010624  	0,006346  	0,003960  	0,004474  	0,004193  	-0,000000  	-0,000000  	25,930394  	25,204225  	26,201167  	25,911971  	28,434158  	27,316623  	28,707725  	28,094953  	30,342001  	29,959402  	32,972079  	62,375772  	26,344769  	25,252048  	27,803684  	68,402312  	0,390729  	0,197985  	-4721,418596  	25571,899765  	-0,018539  	-0,050005  	0,178894  	0,090647  	-3,891865  	5035,118701  	143641,112689  	20,833382  	-0,047955  
98,757000  	24,085470  	29,805399  	23,934593  	657,183579  	80,044890  	69,799253  	0,010620  	0,006329  	0,003957  	0,004412  	0,004202  	0,000001  	-0,000000  	25,935406  	25,204260  	26,205627  	25,910403  	28,437339  	27,322568  	28,707318  	28,098356  	30,343138  	29,956462  	32,966283  	62,372248  	26,340927  	25,278309  	27,806307  	68,407605  	0,340479  	0,172523  	-4125,668726  	18495,923857  	-0,027588  	-0,049992  	0,186207  	0,094353  	-4,050294  	4997,195343  	143565,142386  	20,822363  	-0,047944  
99,754000  	24,076992  	29,831985  	23,935423  	657,183579  	80,043015  	69,794612  	0,010620  	0,006363  	0,003958  	0,004470  	0,004218  	0,000000  	-0,000000  	25,924855  	25,204854  	26,204157  	25,900313  	28,426409  	27,319773  	28,709510  	28,090127  	30,339370  	29,954796  	32,961398  	62,372656  	26,334362  	25,292223  	27,799788  	68,396658  	0,387616  	0,196408  	-4725,632993  	18497,760665  	-0,027591  	-0,049997  	0,199182  	0,100927  	-4,333676  	5072,151384  	143558,250759  	20,821364  	-0,047949  
100,756000  	24,037057  	29,850939  	23,935791  	1256,670793  	80,038954  	69,791498  	0,010624  	0,006342  	0,003959  	0,004373  	0,004241  	0,000000  	-0,000000  	25,930913  	25,200105  	26,200343  	25,903321  	28,425032  	27,314997  	28,708859  	28,090110  	30,345192  	29,948020  	32,954283  	62,373724  	26,335496  	25,308707  	27,796503  	68,390452  	0,308943  	0,156544  	-3805,046955  	25568,175295  	-0,018537  	-0,049997  	0,216800  	0,109854  	-4,716568  	5026,363348  	143648,477409  	20,834450  	-0,047949  
101,754000  	24,001270  	29,858201  	23,937727  	-242,047242  	80,032205  	69,802803  	0,010627  	0,006346  	0,003962  	0,004408  	0,004215  	-0,000000  	-0,000001  	25,931823  	25,205637  	26,193597  	25,909349  	28,424425  	27,313447  	28,707091  	28,097203  	30,347257  	29,953778  	32,967025  	62,376033  	26,349064  	25,317805  	27,806629  	68,406486  	0,337013  	0,170767  	-4181,505819  	-27055,446017  	-0,103202  	-0,050005  	0,196610  	0,099624  	-4,269794  	5035,657775  	143722,195224  	20,845142  	-0,047956  
102,757000  	23,992362  	29,855063  	23,938955  	357,439972  	80,024145  	69,810154  	0,010631  	0,006347  	0,003961  	0,004359  	0,004279  	0,000000  	-0,000000  	25,943482  	25,199999  	26,209756  	25,911648  	28,441451  	27,328093  	28,710648  	28,102643  	30,346976  	29,956931  	32,979319  	62,382838  	26,359905  	25,322680  	27,806212  	68,409303  	0,297403  	0,150696  	-3693,677391  	12547,958250  	-0,036504  	-0,049996  	0,247154  	0,125235  	-5,359372  	5037,479449  	143797,565334  	20,856074  	-0,047948  
103,754000  	23,997522  	29,841308  	23,939785  	357,439972  	80,023738  	69,811368  	0,010620  	0,006316  	0,003962  	0,004408  	0,004248  	0,000001  	-0,000001  	25,938436  	25,210548  	26,217192  	25,907157  	28,447841  	27,336145  	28,723929  	28,092660  	30,352565  	29,966508  	32,980931  	62,372316  	26,362909  	25,325106  	27,805715  	68,415895  	0,337061  	0,170791  	-4172,720225  	12545,700232  	-0,036498  	-0,049986  	0,222388  	0,112686  	-4,821588  	4969,500949  	143552,813717  	20,820575  	-0,047940  
104,754000  	24,011591  	29,826661  	23,940092  	956,927186  	80,024113  	69,817722  	0,010615  	0,006331  	0,003960  	0,004391  	0,004251  	-0,000000  	-0,000000  	25,923965  	25,193632  	26,186966  	25,890861  	28,423417  	27,310645  	28,697360  	28,081476  	30,339642  	29,937711  	32,957758  	62,361242  	26,347331  	25,321024  	27,792587  	68,390008  	0,323443  	0,163891  	-3984,449227  	22525,327942  	-0,022178  	-0,050006  	0,224706  	0,113860  	-4,868992  	5001,454877  	143444,291774  	20,804836  	-0,047956  
105,755000  	24,009165  	29,822292  	23,941474  	1256,670793  	80,020427  	69,808347  	0,010619  	0,006235  	0,003959  	0,004368  	0,004285  	0,000001  	-0,000000  	25,922949  	25,194922  	26,192768  	25,896435  	28,426678  	27,315845  	28,702783  	28,096468  	30,334176  	29,948314  	32,964062  	62,366072  	26,348838  	25,314231  	27,780518  	68,389233  	0,304977  	0,154534  	-3755,721751  	25566,631547  	-0,018536  	-0,049994  	0,251867  	0,127623  	-5,460558  	4795,905693  	143544,411016  	20,819357  	-0,047946  
106,756000  	24,005786  	29,825492  	23,941843  	1256,670793  	80,012991  	69,784304  	0,010625  	0,006364  	0,003959  	0,004365  	0,004238  	-0,000001  	-0,000000  	25,941992  	25,210436  	26,203880  	25,921045  	28,450347  	27,322711  	28,719349  	28,103585  	30,352955  	29,968203  	32,979919  	62,383757  	26,384697  	25,349017  	27,799766  	68,401947  	0,302208  	0,153131  	-3725,823211  	25575,530547  	-0,018542  	-0,050013  	0,215094  	0,108990  	-4,670865  	5073,673101  	143660,509512  	20,836195  	-0,047963  
107,754000  	23,999335  	29,827707  	23,942303  	1256,670793  	80,009804  	69,774773  	0,010617  	0,006338  	0,003961  	0,004369  	0,004245  	0,000000  	-0,000000  	25,938917  	25,202331  	26,210305  	25,916161  	28,443534  	27,330991  	28,718295  	28,106871  	30,357988  	29,963778  	32,978689  	62,375627  	26,381533  	25,357896  	27,794646  	68,401863  	0,305973  	0,155039  	-3777,861923  	25569,044435  	-0,018537  	-0,049999  	0,220272  	0,111614  	-4,786278  	5017,138958  	143507,898103  	20,814061  	-0,047951  
108,756000  	23,999765  	29,819584  	23,941136  	57,696365  	80,008617  	69,756523  	0,010628  	0,006359  	0,003958  	0,004392  	0,004278  	-0,000000  	-0,000000  	25,930517  	25,196545  	26,197639  	25,906109  	28,435162  	27,320797  	28,707876  	28,096398  	30,347041  	29,959476  	32,970629  	62,371069  	26,370548  	25,368648  	27,784577  	68,396255  	0,324204  	0,164276  	-3997,087440  	1831,231314  	-0,053934  	-0,050000  	0,246375  	0,124840  	-5,362380  	5062,262702  	143739,982118  	20,847722  	-0,047952  
109,755000  	24,001915  	29,806937  	23,942948  	57,696365  	80,003306  	69,744594  	0,010629  	0,006353  	0,003958  	0,004367  	0,004244  	-0,000001  	-0,000001  	25,933093  	25,206318  	26,206050  	25,914053  	28,441210  	27,324723  	28,714197  	28,089671  	30,345451  	29,957169  	32,977804  	62,376564  	26,378570  	25,385698  	27,794659  	68,388899  	0,303954  	0,154016  	-3737,898493  	1831,344520  	-0,053940  	-0,050007  	0,219403  	0,111173  	-4,778402  	5050,845229  	143744,995494  	20,848449  	-0,047957  
110,754000  	23,994911  	29,807799  	23,942887  	1256,670793  	79,999119  	69,746089  	0,010622  	0,006326  	0,003955  	0,004406  	0,004267  	0,000000  	-0,000000  	25,935506  	25,208179  	26,205313  	25,912947  	28,431793  	27,328570  	28,714801  	28,093903  	30,347544  	29,960034  	32,971198  	62,371851  	26,362744  	25,393911  	27,789897  	68,394868  	0,335466  	0,169983  	-4131,015433  	25569,164061  	-0,018537  	-0,049999  	0,237326  	0,120255  	-5,165884  	4990,985381  	143599,325139  	20,827321  	-0,047951  
111,754000  	23,989658  	29,809553  	23,943348  	1256,670793  	79,996933  	69,757582  	0,010627  	0,006341  	0,003959  	0,004385  	0,004259  	0,000001  	-0,000000  	25,941421  	25,206275  	26,210353  	25,915841  	28,435324  	27,323208  	28,716388  	28,097416  	30,354456  	29,959721  	32,977602  	62,372186  	26,373492  	25,417571  	27,799452  	68,394558  	0,318339  	0,161305  	-3924,836575  	25565,733783  	-0,018535  	-0,049992  	0,231036  	0,117067  	-5,022263  	5023,220165  	143717,951506  	20,844527  	-0,047944  
112,755000  	23,979030  	29,809122  	23,943102  	1256,670793  	79,996808  	69,768233  	0,010618  	0,006298  	0,003959  	0,004418  	0,004236  	-0,000000  	-0,000000  	25,936461  	25,197991  	26,208762  	25,917568  	28,437047  	27,324054  	28,710945  	28,098533  	30,351604  	29,962764  	32,973374  	62,380046  	26,373992  	25,435612  	27,787971  	68,382309  	0,344954  	0,174791  	-4260,431549  	25571,639941  	-0,018539  	-0,050005  	0,213308  	0,108085  	-4,632018  	4931,421246  	143515,333434  	20,815139  	-0,047956  
113,754000  	23,969108  	29,809060  	23,944208  	1256,670793  	79,994152  	69,761443  	0,010619  	0,006327  	0,003958  	0,004404  	0,004210  	0,000000  	-0,000000  	25,937737  	25,205624  	26,208056  	25,915746  	28,439128  	27,328689  	28,713257  	28,103375  	30,352350  	29,969067  	32,976480  	62,378487  	26,375330  	25,448222  	27,798730  	68,379508  	0,334319  	0,169402  	-4136,069937  	25569,271005  	-0,018538  	-0,050000  	0,192781  	0,097684  	-4,187972  	4992,906097  	143536,552019  	20,818217  	-0,047951  
114,757000  	23,980535  	29,808137  	23,943839  	1256,670793  	79,990590  	69,762689  	0,010615  	0,006252  	0,003957  	0,004461  	0,004207  	-0,000000  	-0,000000  	25,932542  	25,204336  	26,203832  	25,911889  	28,433589  	27,323942  	28,710796  	28,096950  	30,343223  	29,956924  	32,975940  	62,372074  	26,364761  	25,451662  	27,803267  	68,375398  	0,380448  	0,192776  	-4696,794520  	25569,880271  	-0,018538  	-0,050001  	0,189831  	0,096189  	-4,121943  	4831,698223  	143454,982269  	20,806386  	-0,047952  
115,754000  	24,014080  	29,797706  	23,943839  	357,439972  	79,986779  	69,750138  	0,010618  	0,006262  	0,003960  	0,004442  	0,004254  	0,000000  	-0,000000  	25,932610  	25,199285  	26,204432  	25,908839  	28,434546  	27,324618  	28,715084  	28,096335  	30,342443  	29,959891  	32,974798  	62,373807  	26,365630  	25,470348  	27,795218  	68,375732  	0,364915  	0,184905  	-4471,030028  	12547,846043  	-0,036505  	-0,049997  	0,227038  	0,115042  	-4,934057  	4854,013197  	143519,676006  	20,815769  	-0,047948  
116,758000  	24,037549  	29,789214  	23,943594  	-242,047242  	79,983280  	69,744158  	0,010628  	0,006343  	0,003958  	0,004434  	0,004214  	0,000001  	-0,000000  	25,940338  	25,202941  	26,205969  	25,909399  	28,434645  	27,323885  	28,716099  	28,098090  	30,348087  	29,962892  	32,976487  	62,374277  	26,366647  	25,483576  	27,794374  	68,375610  	0,358082  	0,181443  	-4363,056033  	-27046,869609  	-0,103167  	-0,049987  	0,195354  	0,098987  	-4,246514  	5028,437580  	143740,328111  	20,847772  	-0,047941  
117,757000  	24,063721  	29,789983  	23,944454  	57,696365  	79,986841  	69,717904  	0,010623  	0,006358  	0,003961  	0,004481  	0,004194  	0,000000  	-0,000000  	25,939029  	25,213438  	26,215064  	25,918082  	28,435225  	27,327282  	28,719730  	28,102459  	30,354476  	29,964746  	32,983436  	62,377389  	26,374875  	25,491387  	27,803935  	68,378931  	0,396140  	0,200727  	-4805,453234  	1830,890878  	-0,053929  	-0,049996  	0,179990  	0,091202  	-3,923923  	5060,629917  	143619,131506  	20,830194  	-0,047948  
118,756000  	24,069128  	29,800260  	23,943901  	1256,670793  	79,993215  	69,694422  	0,010606  	0,006359  	0,003960  	0,004422  	0,004210  	-0,000000  	-0,000000  	25,934459  	25,216835  	26,222508  	25,924533  	28,445302  	27,332219  	28,724661  	28,105033  	30,357374  	29,969078  	32,987130  	62,382945  	26,385558  	25,502632  	27,809082  	68,381147  	0,348512  	0,176594  	-4231,289554  	25570,767686  	-0,018539  	-0,050003  	0,192289  	0,097434  	-4,204222  	5063,858701  	143260,583309  	20,778191  	-0,047954  
119,754000  	24,045812  	29,813184  	23,943532  	1256,670793  	79,990403  	69,702270  	0,010623  	0,006344  	0,003961  	0,004492  	0,004216  	0,000001  	-0,000000  	25,935514  	25,211775  	26,214771  	25,919780  	28,449453  	27,331366  	28,720435  	28,103133  	30,351485  	29,968669  	32,981526  	62,383447  	26,383393  	25,504227  	27,805871  	68,378317  	0,404898  	0,205165  	-4946,965366  	25564,538806  	-0,018534  	-0,049989  	0,197561  	0,100106  	-4,315011  	5029,612648  	143624,992213  	20,831044  	-0,047942  
120,757000  	24,032234  	29,829615  	23,942488  	57,696365  	79,984842  	69,702332  	0,010618  	0,006335  	0,003959  	0,004443  	0,004215  	0,000001  	-0,000001  	25,932238  	25,204124  	26,203852  	25,910979  	28,441739  	27,331704  	28,715587  	28,102334  	30,345033  	29,965466  	32,978892  	62,381046  	26,382142  	25,499878  	27,805267  	68,375168  	0,365230  	0,185065  	-4485,524397  	1830,851185  	-0,053925  	-0,049991  	0,196608  	0,099623  	-4,291854  	5011,575601  	143510,581318  	20,814450  	-0,047944  
121,755000  	24,020193  	29,833985  	23,942518  	57,696365  	79,981811  	69,723946  	0,010606  	0,006349  	0,003961  	0,004457  	0,004226  	0,000001  	-0,000000  	25,929119  	25,202470  	26,205630  	25,907586  	28,436782  	27,328644  	28,713718  	28,098037  	30,347493  	29,960626  	32,981216  	62,378183  	26,387633  	25,499645  	27,806029  	68,371396  	0,376690  	0,190871  	-4639,365275  	1830,571457  	-0,053916  	-0,049983  	0,205600  	0,104179  	-4,477406  	5042,145056  	143249,949303  	20,776649  	-0,047937  
122,755000  	24,034692  	29,827584  	23,940860  	1256,670793  	79,979749  	69,740452  	0,010626  	0,006337  	0,003961  	0,004446  	0,004155  	0,000001  	-0,000000  	25,933264  	25,210676  	26,213632  	25,913746  	28,438733  	27,325860  	28,718660  	28,097340  	30,355904  	29,963603  	32,982595  	62,381113  	26,394918  	25,499043  	27,807268  	68,375181  	0,367864  	0,186399  	-4514,377489  	25566,076636  	-0,018535  	-0,049992  	0,149207  	0,075604  	-3,243435  	5014,918284  	143682,984972  	20,839455  	-0,047945  
123,754000  	24,072384  	29,825369  	23,940215  	357,439972  	79,980312  	69,749391  	0,010627  	0,006237  	0,003960  	0,004467  	0,004178  	0,000002  	-0,000000  	25,930913  	25,203851  	26,206320  	25,921246  	28,442317  	27,328678  	28,726246  	28,102608  	30,357507  	29,965822  	32,985056  	62,387031  	26,398518  	25,485493  	27,811360  	68,374372  	0,384713  	0,194937  	-4688,608338  	12543,493458  	-0,036491  	-0,049976  	0,167386  	0,084816  	-3,635652  	4800,303178  	143716,299211  	20,844287  	-0,047931  
124,756000  	24,096898  	29,825738  	23,937634  	956,927186  	79,983811  	69,739300  	0,010619  	0,006385  	0,003958  	0,004485  	0,004204  	0,000001  	-0,000000  	25,934794  	25,202255  	26,205685  	25,919449  	28,434565  	27,318689  	28,713181  	28,100760  	30,348668  	29,959680  	32,977107  	62,381451  	26,399365  	25,457623  	27,798734  	68,359451  	0,399393  	0,202375  	-4847,085887  	22516,007110  	-0,022169  	-0,049982  	0,187490  	0,095003  	-4,077717  	5118,667383  	143541,854900  	20,818986  	-0,047936  
125,755000  	24,098956  	29,840446  	23,936436  	57,696365  	79,993652  	69,748986  	0,010624  	0,006386  	0,003959  	0,004459  	0,004161  	0,000001  	-0,000000  	25,938092  	25,204632  	26,210304  	25,907522  	28,435854  	27,324477  	28,713427  	28,104082  	30,339939  	29,962069  	32,975462  	62,377283  	26,408269  	25,462025  	27,801038  	68,366530  	0,378611  	0,191845  	-4605,016960  	1831,155316  	-0,053924  	-0,049990  	0,153937  	0,078001  	-3,348017  	5120,925551  	143640,237113  	20,833255  	-0,047943  
126,758000  	24,080647  	29,852201  	23,934409  	657,183579  	79,999463  	69,730860  	0,010618  	0,006355  	0,003959  	0,004451  	0,004197  	0,000001  	-0,000000  	25,930351  	25,201424  	26,204126  	25,908976  	28,434324  	27,323338  	28,716150  	28,100455  	30,340615  	29,960762  	32,975410  	62,374326  	26,405821  	25,443307  	27,796311  	68,368664  	0,372351  	0,188673  	-4552,596961  	18495,995372  	-0,027588  	-0,049992  	0,182029  	0,092235  	-3,968244  	5054,549417  	143526,073357  	20,816697  	-0,047945  
127,754000  	24,071247  	29,857924  	23,933672  	657,183579  	80,004306  	69,724600  	0,010623  	0,006318  	0,003958  	0,004446  	0,004145  	0,000002  	-0,000000  	25,929730  	25,190730  	26,194991  	25,902327  	28,431251  	27,319432  	28,709794  	28,095034  	30,342835  	29,953726  	32,971942  	62,373485  	26,402552  	25,426091  	27,794896  	68,371935  	0,368074  	0,186506  	-4512,103256  	18491,920815  	-0,027582  	-0,049980  	0,141430  	0,071663  	-3,086504  	4973,541882  	143617,309743  	20,829930  	-0,047934  
128,757000  	24,053676  	29,863648  	23,932750  	1256,670793  	80,009867  	69,740919  	0,010623  	0,006347  	0,003961  	0,004436  	0,004203  	-0,000000  	-0,000000  	25,939978  	25,214987  	26,205523  	25,919868  	28,442349  	27,328690  	28,721357  	28,105952  	30,350718  	29,961685  	32,983985  	62,384565  	26,410708  	25,423169  	27,804606  	68,377068  	0,359652  	0,182238  	-4426,603883  	25572,015134  	-0,018539  	-0,050005  	0,187020  	0,094764  	-4,077189  	5037,771624  	143618,496007  	20,830102  	-0,047956  
129,755000  	24,038685  	29,867986  	23,930109  	1256,670793  	80,009617  	69,751976  	0,010621  	0,006222  	0,003960  	0,004395  	0,004181  	0,000001  	-0,000000  	25,937100  	25,209543  	26,206271  	25,906124  	28,444971  	27,330686  	28,712777  	28,108842  	30,358247  	29,954358  	32,971622  	62,371216  	26,415619  	25,398064  	27,802406  	68,376736  	0,326474  	0,165427  	-4031,625164  	25563,854484  	-0,018533  	-0,049987  	0,169817  	0,086047  	-3,698078  	4768,468809  	143587,540174  	20,825612  	-0,047940  
130,754000  	24,035490  	29,863863  	23,929372  	1256,670793  	80,004556  	69,760696  	0,010622  	0,006244  	0,003962  	0,004424  	0,004220  	0,000000  	-0,000000  	25,938342  	25,205251  	26,204458  	25,917807  	28,437424  	27,326844  	28,708941  	28,102617  	30,346968  	29,956519  	32,969335  	62,373927  	26,412654  	25,382258  	27,811812  	68,369985  	0,350311  	0,177505  	-4325,295197  	25567,059728  	-0,018536  	-0,049994  	0,200857  	0,101776  	-4,368170  	4815,424132  	143612,091596  	20,829173  	-0,047946  
131,755000  	24,021667  	29,851770  	23,928081  	357,439972  	79,998901  	69,766302  	0,010620  	0,006283  	0,003964  	0,004406  	0,004195  	0,000001  	-0,000000  	25,939425  	25,193651  	26,201431  	25,915471  	28,441071  	27,324703  	28,712090  	28,100515  	30,341657  	29,956258  	32,972303  	62,373471  	26,413798  	25,352968  	27,795931  	68,382292  	0,335269  	0,169883  	-4140,808369  	12546,329286  	-0,036498  	-0,049986  	0,181035  	0,091732  	-3,932749  	4898,761287  	143561,308212  	20,821807  	-0,047940  
132,758000  	24,000410  	29,837493  	23,927221  	956,927186  	79,997964  	69,727496  	0,010617  	0,006394  	0,003965  	0,004419  	0,004192  	0,000002  	-0,000000  	25,940421  	25,207932  	26,216655  	25,918972  	28,440150  	27,339619  	28,723234  	28,115049  	30,353517  	29,966579  	32,979863  	62,372911  	26,432019  	25,339775  	27,807724  	68,389470  	0,346187  	0,175415  	-4280,774676  	22515,215784  	-0,022168  	-0,049979  	0,178059  	0,090224  	-3,882398  	5137,268972  	143493,747672  	20,812009  	-0,047934  
133,755000  	23,987385  	29,822569  	23,925901  	1256,670793  	80,000807  	69,698937  	0,010618  	0,006266  	0,003961  	0,004450  	0,004200  	0,000001  	-0,000001  	25,938158  	25,200492  	26,194957  	25,910986  	28,441306  	27,322905  	28,709981  	28,096325  	30,340846  	29,961865  	32,978606  	62,367635  	26,415727  	25,306245  	27,798805  	68,382465  	0,371371  	0,188177  	-4590,702113  	25567,037509  	-0,018536  	-0,049994  	0,184899  	0,093690  	-4,043856  	4863,092560  	143517,211685  	20,815412  	-0,047946  
134,757000  	24,005448  	29,810999  	23,925348  	1256,670793  	80,001619  	69,696633  	0,010616  	0,006333  	0,003962  	0,004423  	0,004252  	0,000000  	-0,000001  	25,941916  	25,207813  	26,209273  	25,920862  	28,443874  	27,330616  	28,723051  	28,102979  	30,351047  	29,973172  	32,974434  	62,371316  	26,432278  	25,297284  	27,799600  	68,385173  	0,349559  	0,177124  	-4299,116844  	25567,502969  	-0,018536  	-0,049994  	0,225467  	0,114246  	-4,932581  	5007,854434  	143477,704868  	20,809682  	-0,047947  
135,754000  	24,020930  	29,801029  	23,924795  	1256,670793  	80,001338  	69,697972  	0,010617  	0,006351  	0,003959  	0,004424  	0,004196  	0,000001  	-0,000001  	25,947058  	25,218161  	26,215731  	25,928290  	28,452884  	27,348069  	28,728428  	28,110475  	30,360289  	29,982858  	32,989162  	62,372719  	26,449917  	25,291698  	27,809956  	68,393237  	0,349959  	0,177327  	-4285,171113  	25566,337496  	-0,018535  	-0,049992  	0,181537  	0,091986  	-3,970897  	5045,395064  	143507,898103  	20,814061  	-0,047944  
136,757000  	24,018227  	29,800906  	23,923259  	1256,670793  	79,997651  	69,705820  	0,010626  	0,006339  	0,003959  	0,004434  	0,004204  	0,000001  	-0,000001  	25,949617  	25,209616  	26,211227  	25,922458  	28,446478  	27,330740  	28,718808  	28,109144  	30,358667  	29,969555  	32,985251  	62,374090  	26,444839  	25,280231  	27,806688  	68,388910  	0,358289  	0,181548  	-4389,126731  	25564,688971  	-0,018534  	-0,049988  	0,187484  	0,094999  	-4,096390  	5020,025338  	143682,462451  	20,839379  	-0,047941  
137,755000  	24,006185  	29,809153  	23,922061  	1256,670793  	79,992684  	69,701678  	0,010623  	0,006321  	0,003960  	0,004439  	0,004225  	0,000001  	-0,000000  	25,946904  	25,215120  	26,211701  	25,927596  	28,452376  	27,326355  	28,718704  	28,099819  	30,359516  	29,969035  	32,983540  	62,374217  	26,447393  	25,270050  	27,806607  	68,381845  	0,362557  	0,183710  	-4456,991304  	25561,698140  	-0,018532  	-0,049982  	0,204174  	0,103456  	-4,460690  	4980,950258  	143622,061859  	20,830619  	-0,047936  
138,757000  	24,003543  	29,813276  	23,921324  	1256,670793  	79,989247  	69,713326  	0,010613  	0,006351  	0,003959  	0,004455  	0,004224  	0,000001  	-0,000000  	25,947845  	25,214789  	26,223020  	25,926419  	28,450705  	27,335967  	28,726703  	28,108635  	30,358674  	29,975301  	32,984290  	62,377481  	26,457380  	25,263610  	27,804931  	68,396442  	0,375159  	0,190096  	-4617,299719  	25566,485670  	-0,018535  	-0,049992  	0,203965  	0,103350  	-4,449597  	5045,032144  	143408,979246  	20,799714  	-0,047945  
139,755000  	23,992484  	29,813830  	23,920402  	357,439972  	79,988591  	69,723074  	0,010617  	0,006358  	0,003962  	0,004449  	0,004236  	0,000001  	-0,000000  	25,949455  	25,220643  	26,221874  	25,929503  	28,459089  	27,342510  	28,731150  	28,112192  	30,359084  	29,981716  	32,986156  	62,382601  	26,459625  	25,252014  	27,804146  	68,401607  	0,370656  	0,187814  	-4570,993851  	12546,955418  	-0,036499  	-0,049987  	0,213285  	0,108073  	-4,648230  	5061,113810  	143487,548032  	20,811109  	-0,047941  
140,756000  	23,994758  	29,811799  	23,920279  	956,927186  	79,991653  	69,719274  	0,010624  	0,006341  	0,003960  	0,004385  	0,004181  	0,000001  	-0,000000  	25,944082  	25,213717  	26,211025  	25,924403  	28,454589  	27,335302  	28,723217  	28,109751  	30,351801  	29,974432  	32,980409  	62,376612  	26,453769  	25,228071  	27,799696  	68,390398  	0,318389  	0,161330  	-3923,520303  	22517,635157  	-0,022170  	-0,049985  	0,169808  	0,086043  	-3,703181  	5023,695568  	143639,474515  	20,833144  	-0,047938  
141,755000  	24,029040  	29,808660  	23,919726  	-242,047242  	79,993964  	69,739362  	0,010615  	0,006331  	0,003962  	0,004466  	0,004224  	0,000001  	-0,000000  	25,948426  	25,213912  	26,214405  	25,919322  	28,455121  	27,337099  	28,726722  	28,110890  	30,359630  	29,972675  	32,981837  	62,371284  	26,453244  	25,207981  	27,805880  	68,395825  	0,384541  	0,194850  	-4708,227289  	-27048,663404  	-0,103183  	-0,049992  	0,203562  	0,103146  	-4,431611  	5003,270891  	143454,247916  	20,806280  	-0,047945  
142,758000  	24,027442  	29,805337  	23,919972  	357,439972  	79,997714  	69,741231  	0,010618  	0,006353  	0,003957  	0,004451  	0,004257  	0,000001  	-0,000000  	25,948538  	25,214080  	26,212122  	25,919472  	28,448446  	27,339145  	28,726355  	28,111444  	30,355611  	29,966856  	32,983142  	62,369244  	26,449453  	25,192987  	27,806235  	68,409550  	0,372002  	0,188496  	-4553,340750  	12546,136965  	-0,036497  	-0,049984  	0,230190  	0,116639  	-5,012239  	5049,728879  	143527,873936  	20,816958  	-0,047937  
143,755000  	24,013066  	29,808568  	23,920249  	1256,670793  	80,002056  	69,735251  	0,010623  	0,006340  	0,003957  	0,004428  	0,004259  	0,000000  	-0,000000  	25,941549  	25,208718  	26,203087  	25,919045  	28,440673  	27,328684  	28,720488  	28,099556  	30,346777  	29,961031  	32,977537  	62,363081  	26,439381  	25,177387  	27,797492  	68,403137  	0,353015  	0,178875  	-4334,109857  	25569,037178  	-0,018537  	-0,049997  	0,231329  	0,117216  	-5,042099  	5022,301192  	143636,318207  	20,832687  	-0,047949  
144,757000  	24,006062  	29,817615  	23,919696  	1256,670793  	80,005180  	69,744844  	0,010621  	0,006350  	0,003953  	0,004453  	0,004267  	0,000000  	-0,000000  	25,941508  	25,210671  	26,207707  	25,921232  	28,445724  	27,324888  	28,718241  	28,098979  	30,350608  	29,960675  	32,974858  	62,361640  	26,437017  	25,173692  	27,796345  	68,396647  	0,373570  	0,189291  	-4599,182162  	25568,287392  	-0,018537  	-0,049996  	0,237371  	0,120278  	-5,170544  	5044,026156  	143580,528508  	20,824595  	-0,047948  
145,755000  	24,007168  	29,821923  	23,919358  	956,927186  	80,012335  	69,749796  	0,010625  	0,006356  	0,003956  	0,004410  	0,004252  	-0,000001  	-0,000000  	25,944112  	25,212280  	26,221206  	25,922778  	28,449630  	27,332267  	28,718861  	28,110209  	30,355379  	29,969617  	32,979831  	62,370637  	26,438602  	25,179965  	27,803192  	68,407807  	0,338440  	0,171490  	-4168,966940  	22526,798550  	-0,022179  	-0,050007  	0,225872  	0,114451  	-4,921141  	5055,524985  	143665,671172  	20,836944  	-0,047958  
146,756000  	24,011837  	29,823092  	23,919665  	357,439972  	80,018646  	69,749173  	0,010631  	0,006349  	0,003959  	0,004391  	0,004276  	-0,000000  	-0,000000  	25,944263  	25,210254  	26,225427  	25,919608  	28,447221  	27,332436  	28,723719  	28,104874  	30,354590  	29,977276  	32,988972  	62,376434  	26,434808  	25,180484  	27,803341  	68,409385  	0,323801  	0,164072  	-3986,237414  	12550,727215  	-0,036510  	-0,050004  	0,244707  	0,123995  	-5,335090  	5041,360499  	143794,917424  	20,855690  	-0,047955  
147,754000  	24,037272  	29,816168  	23,920402  	1256,670793  	80,022582  	69,757737  	0,010623  	0,006331  	0,003958  	0,004358  	0,004262  	0,000000  	-0,000000  	25,947211  	25,215501  	26,223447  	25,923158  	28,446707  	27,331845  	28,732258  	28,101959  	30,351874  	29,971502  	32,993086  	62,373091  	26,432010  	25,182691  	27,797482  	68,402957  	0,296757  	0,150369  	-3632,961204  	25568,674549  	-0,018537  	-0,049997  	0,234028  	0,118584  	-5,099978  	5001,758371  	143635,668586  	20,832592  	-0,047949  
148,756000  	24,051034  	29,815307  	23,920832  	1256,670793  	80,024207  	69,764589  	0,010613  	0,006350  	0,003956  	0,004350  	0,004327  	-0,000000  	-0,000000  	25,948288  	25,221966  	26,226296  	25,928810  	28,449182  	27,336750  	28,739658  	28,113339  	30,355005  	29,975368  	32,984775  	62,373058  	26,428512  	25,194908  	27,803338  	68,410878  	0,290581  	0,147240  	-3548,355503  	25570,413251  	-0,018538  	-0,050001  	0,285208  	0,144517  	-6,212138  	5042,694742  	143416,732327  	20,800838  	-0,047952  
149,755000  	24,030483  	29,826415  	23,921416  	1256,670793  	80,023863  	69,777794  	0,010621  	0,006351  	0,003959  	0,004355  	0,004342  	0,000000  	-0,000000  	25,942716  	25,221804  	26,223310  	25,918117  	28,444520  	27,329325  	28,732362  	28,108372  	30,356447  	29,973945  	32,975203  	62,376770  	26,423046  	25,205219  	27,805821  	68,406639  	0,294547  	0,149249  	-3616,538268  	25569,167834  	-0,018537  	-0,049998  	0,297370  	0,150680  	-6,468503  	5045,807505  	143578,720869  	20,824333  	-0,047950  
150,757000  	24,043385  	29,833862  	23,921969  	1256,670793  	80,020239  	69,773372  	0,010622  	0,006338  	0,003959  	0,004394  	0,004297  	-0,000001  	-0,000000  	25,942366  	25,214093  	26,219445  	25,908444  	28,434152  	27,330854  	28,721091  	28,098167  	30,351826  	29,966458  	32,976990  	62,371577  	26,424125  	25,212830  	27,792929  	68,397479  	0,325475  	0,164920  	-3992,511842  	25575,435846  	-0,018542  	-0,050012  	0,261303  	0,132404  	-5,684406  	5018,524845  	143613,553242  	20,829385  	-0,047961  
151,754000  	24,067991  	29,832938  	23,922522  	1256,670793  	80,011866  	69,776019  	0,010630  	0,006348  	0,003958  	0,004369  	0,004301  	-0,000001  	-0,000000  	25,949359  	25,217291  	26,215599  	25,920239  	28,450472  	27,337571  	28,724940  	28,105642  	30,352052  	29,972074  	32,982950  	62,372509  	26,418015  	25,230733  	27,806998  	68,402466  	0,305536  	0,154817  	-3731,404123  	25574,447955  	-0,018541  	-0,050009  	0,264366  	0,133956  	-5,744857  	5040,054553  	143768,996150  	20,851930  	-0,047960  
152,757000  	24,052079  	29,831892  	23,923197  	1256,670793  	80,005618  	69,782933  	0,010620  	0,006339  	0,003958  	0,004313  	0,004236  	-0,000000  	-0,000000  	25,954143  	25,217207  	26,220155  	25,922215  	28,448728  	27,340581  	28,728792  	28,111368  	30,361731  	29,978414  	32,984801  	62,376475  	26,410664  	25,252817  	27,805436  	68,409936  	0,260374  	0,131934  	-3188,059118  	25570,306554  	-0,018538  	-0,050000  	0,213491  	0,108178  	-4,633346  	5020,364205  	143551,676881  	20,820410  	-0,047952  
153,754000  	24,016629  	29,844262  	23,922860  	1256,670793  	80,006430  	69,788913  	0,010620  	0,006298  	0,003964  	0,004366  	0,004326  	0,000000  	-0,000001  	25,952784  	25,222323  	26,222918  	25,925450  	28,462798  	27,349112  	28,733781  	28,120391  	30,354900  	29,978468  	32,987077  	62,376040  	26,395843  	25,280125  	27,811367  	68,421082  	0,303056  	0,153561  	-3741,371420  	25568,124833  	-0,018536  	-0,049996  	0,284587  	0,144202  	-6,173195  	4931,605889  	143559,098090  	20,821487  	-0,047948  
154,757000  	24,014725  	29,849062  	23,923965  	657,183579  	80,008430  	69,784677  	0,010621  	0,006353  	0,003968  	0,004347  	0,004273  	0,000000  	-0,000001  	25,950410  	25,220796  	26,227117  	25,933282  	28,453653  	27,338492  	28,735422  	28,118897  	30,367326  	29,979420  	32,980364  	62,377304  	26,397473  	25,295555  	27,806480  	68,419657  	0,288165  	0,146015  	-3561,622027  	18497,324643  	-0,027589  	-0,049995  	0,242680  	0,122968  	-5,267377  	5049,254890  	143581,453512  	20,824729  	-0,047947  
155,755000  	24,015278  	29,840662  	23,924703  	657,183579  	80,005930  	69,788134  	0,010615  	0,006331  	0,003963  	0,004337  	0,004227  	0,000002  	-0,000000  	25,937497  	25,210632  	26,204147  	25,911780  	28,446530  	27,326387  	28,721981  	28,104155  	30,352799  	29,967082  	32,974961  	62,369392  	26,381366  	25,282318  	27,792574  	68,402963  	0,279742  	0,141747  	-3452,209783  	18489,891291  	-0,027578  	-0,049972  	0,205811  	0,104286  	-4,464538  	5002,493408  	143463,547376  	20,807628  	-0,047928  
156,757000  	24,012759  	29,832600  	23,926423  	1256,670793  	80,002119  	69,769759  	0,010625  	0,006356  	0,003959  	0,004382  	0,004221  	0,000001  	-0,000000  	25,951199  	25,224344  	26,237652  	25,929808  	28,463191  	27,343828  	28,732338  	28,115743  	30,373836  	29,974903  	32,984522  	62,385216  	26,394304  	25,308552  	27,812121  	68,405436  	0,316315  	0,160279  	-3899,835676  	25562,313155  	-0,018532  	-0,049983  	0,201021  	0,101859  	-4,366827  	5056,378873  	143666,977474  	20,837133  	-0,047937  
157,754000  	24,034323  	29,827461  	23,927406  	-242,047242  	80,001275  	69,774244  	0,010629  	0,006325  	0,003958  	0,004349  	0,004213  	0,000001  	-0,000000  	25,946870  	25,203638  	26,211192  	25,917398  	28,445752  	27,327076  	28,714689  	28,103359  	30,358494  	29,960933  	32,981069  	62,362548  	26,378620  	25,302998  	27,798068  	68,405193  	0,289273  	0,146577  	-3550,066760  	-27049,132789  	-0,103182  	-0,049993  	0,195307  	0,098963  	-4,240486  	4988,881436  	143745,030799  	20,848454  	-0,047945  
158,758000  	24,046918  	29,825615  	23,928757  	357,439972  	79,999963  	69,760229  	0,010617  	0,006304  	0,003958  	0,004392  	0,004233  	-0,000000  	-0,000000  	25,948369  	25,217979  	26,214944  	25,928453  	28,452808  	27,337853  	28,723907  	28,107767  	30,360029  	29,971285  	32,988267  	62,370030  	26,382104  	25,341681  	27,813252  	68,397617  	0,324114  	0,164231  	-3967,737157  	12549,951178  	-0,036509  	-0,050003  	0,211142  	0,106987  	-4,589978  	4943,321905  	143504,070990  	20,813506  	-0,047954  
159,758000  	24,021114  	29,827923  	23,930047  	357,439972  	79,999901  	69,761070  	0,010626  	0,006272  	0,003961  	0,004416  	0,004193  	-0,000001  	-0,000000  	25,951140  	25,226590  	26,211313  	25,924701  	28,453976  	27,341006  	28,724032  	28,106709  	30,354420  	29,978080  	32,994518  	62,368332  	26,386754  	25,345894  	27,814786  	68,401269  	0,343853  	0,174233  	-4229,855973  	12551,897304  	-0,036515  	-0,050012  	0,178768  	0,090583  	-3,885861  	4875,928463  	143692,538632  	20,840841  	-0,047961  
160,756000  	23,975098  	29,836231  	23,930907  	956,927186  	80,001525  	69,753907  	0,010623  	0,006324  	0,003960  	0,004432  	0,004205  	0,000000  	-0,000000  	25,948809  	25,220051  	26,228670  	25,916676  	28,438521  	27,333008  	28,721045  	28,112518  	30,364476  	29,972822  	32,985658  	62,368246  	26,388049  	25,372995  	27,799368  	68,403082  	0,357014  	0,180902  	-4432,857768  	22522,324280  	-0,022175  	-0,049997  	0,188697  	0,095614  	-4,105212  	4987,172954  	143634,489384  	20,832421  	-0,047949  
161,755000  	23,940448  	29,835431  	23,931767  	1256,670793  	80,006305  	69,753689  	0,010622  	0,006309  	0,003960  	0,004466  	0,004164  	0,000001  	-0,000000  	25,948394  	25,221906  	26,222482  	25,922322  	28,448485  	27,330080  	28,718066  	28,112660  	30,359083  	29,970980  	32,990304  	62,368222  	26,378846  	25,390955  	27,801855  	68,401553  	0,384520  	0,194839  	-4801,967829  	25564,016016  	-0,018534  	-0,049987  	0,156020  	0,079056  	-3,395956  	4955,654106  	143601,097473  	20,827578  	-0,047941  
162,755000  	23,919990  	29,811922  	23,932505  	1256,670793  	80,002369  	69,738739  	0,010620  	0,006324  	0,003959  	0,004477  	0,004197  	-0,000000  	-0,000000  	25,956379  	25,224730  	26,227069  	25,932957  	28,455159  	27,338276  	28,729781  	28,106973  	30,372244  	29,973494  	32,990511  	62,374488  	26,385173  	25,417835  	27,807326  	68,401934  	0,393126  	0,199200  	-4906,908157  	25570,371593  	-0,018538  	-0,050001  	0,182559  	0,092504  	-3,977872  	4987,377406  	143563,461846  	20,822120  	-0,047953  
163,755000  	23,926441  	29,786814  	23,934071  	357,439972  	79,992090  	69,712205  	0,010627  	0,006330  	0,003956  	0,004476  	0,004188  	0,000001  	-0,000000  	25,947461  	25,216304  	26,217328  	25,925749  	28,447425  	27,341402  	28,719848  	28,104269  	30,362340  	29,970593  	32,982228  	62,371066  	26,386624  	25,414013  	27,812273  	68,392536  	0,392557  	0,198912  	-4873,561225  	12545,207878  	-0,036496  	-0,049983  	0,175213  	0,088782  	-3,823836  	5000,755920  	143706,766735  	20,842904  	-0,047937  
164,756000  	23,954025  	29,767613  	23,934010  	-242,047242  	79,981843  	69,716253  	0,010621  	0,006354  	0,003957  	0,004412  	0,004219  	-0,000000  	-0,000000  	25,937703  	25,217941  	26,215513  	25,920504  	28,446055  	27,337235  	28,723189  	28,103946  	30,354197  	29,971869  	32,979525  	62,364489  	26,387110  	25,408744  	27,793765  	68,386775  	0,340132  	0,172347  	-4188,983220  	-27053,286299  	-0,103195  	-0,050001  	0,200069  	0,101377  	-4,360238  	5053,036897  	143579,822399  	20,824493  	-0,047952  
165,754000  	23,955991  	29,752043  	23,934532  	-242,047242  	79,975500  	69,713793  	0,010618  	0,006354  	0,003959  	0,004399  	0,004200  	0,000002  	-0,000000  	25,936548  	25,219414  	26,216693  	25,920135  	28,451012  	27,330061  	28,729567  	28,109328  	30,358494  	29,969087  	32,987480  	62,371313  	26,390581  	25,409710  	27,800572  	68,391725  	0,329953  	0,167190  	-4051,370931  	-27042,904525  	-0,103155  	-0,049979  	0,184423  	0,093448  	-4,017715  	5052,473063  	143522,881743  	20,816234  	-0,047934  
166,758000  	23,967787  	29,751797  	23,934778  	357,439972  	79,971751  	69,700713  	0,010622  	0,006362  	0,003957  	0,004387  	0,004245  	0,000001  	-0,000000  	25,946908  	25,219007  	26,221262  	25,923821  	28,455204  	27,334147  	28,735046  	28,113816  	30,362017  	29,969306  	32,999900  	62,376447  	26,393865  	25,417793  	27,810624  	68,393412  	0,320121  	0,162207  	-3922,469341  	12545,231326  	-0,036496  	-0,049983  	0,220118  	0,111535  	-4,799707  	5069,634291  	143612,225756  	20,829192  	-0,047937  
167,755000  	23,970091  	29,756413  	23,935515  	357,439972  	79,972001  	69,709184  	0,010618  	0,006340  	0,003959  	0,004419  	0,004262  	0,000000  	-0,000000  	25,949338  	25,222297  	26,216488  	25,920622  	28,447682  	27,331106  	28,728367  	28,110348  	30,359272  	29,970665  	32,994662  	62,372904  	26,389949  	25,421786  	27,806161  	68,387860  	0,346291  	0,175468  	-4244,832306  	12548,937349  	-0,036507  	-0,050000  	0,233410  	0,118271  	-5,085477  	5021,422544  	143527,203132  	20,816861  	-0,047951  
168,758000  	23,979982  	29,766751  	23,935515  	956,927186  	79,974688  	69,707440  	0,010623  	0,006245  	0,003961  	0,004334  	0,004239  	-0,000001  	-0,000000  	25,948361  	25,220747  	26,214902  	25,919902  	28,441224  	27,332542  	28,724947  	28,103815  	30,360354  	29,972886  	32,990345  	62,370523  	26,393751  	25,430239  	27,803756  	68,380181  	0,277425  	0,140573  	-3400,929591  	22526,822460  	-0,022180  	-0,050009  	0,215673  	0,109283  	-4,701060  	4816,105403  	143620,607274  	20,830408  	-0,047959  
169,755000  	23,979460  	29,777459  	23,935853  	57,696365  	79,976844  	69,719773  	0,010619  	0,006334  	0,003961  	0,004406  	0,004253  	0,000001  	-0,000001  	25,955009  	25,223065  	26,218022  	25,923336  	28,446443  	27,339320  	28,729941  	28,108604  	30,363939  	29,972937  	32,994995  	62,376181  	26,405552  	25,443646  	27,809357  	68,385230  	0,335535  	0,170018  	-4121,280689  	1831,260617  	-0,053926  	-0,049992  	0,226361  	0,114699  	-4,929142  	5009,753220  	143543,902617  	20,819283  	-0,047945  
170,757000  	23,971350  	29,781029  	23,935423  	1256,670793  	79,984967  	69,729427  	0,010625  	0,006319  	0,003961  	0,004388  	0,004209  	0,000000  	-0,000000  	25,958488  	25,224000  	26,215617  	25,925134  	28,450776  	27,337381  	28,727895  	28,109184  	30,358680  	29,970982  	32,996517  	62,376918  	26,407083  	25,453590  	27,811880  	68,392736  	0,320727  	0,162515  	-3947,340611  	25567,318433  	-0,018536  	-0,049995  	0,191457  	0,097013  	-4,168471  	4976,929841  	143674,335133  	20,838201  	-0,047947  
171,756000  	23,996877  	29,778721  	23,935515  	357,439972  	79,997995  	69,707658  	0,010616  	0,006332  	0,003961  	0,004454  	0,004206  	0,000000  	-0,000000  	25,954089  	25,219146  	26,213215  	25,918961  	28,445270  	27,330125  	28,724427  	28,103990  	30,352000  	29,967477  	32,987901  	62,373466  	26,401630  	25,460111  	27,806407  	68,391609  	0,374798  	0,189913  	-4590,710903  	12549,022812  	-0,036507  	-0,050000  	0,189374  	0,095957  	-4,137097  	5004,937634  	143481,906218  	20,810291  	-0,047951  
172,758000  	24,008612  	29,772875  	23,936375  	956,927186  	80,002681  	69,700931  	0,010619  	0,006382  	0,003961  	0,004431  	0,004217  	-0,000000  	-0,000000  	25,946471  	25,217260  	26,217669  	25,912447  	28,434559  	27,324008  	28,720819  	28,101407  	30,347367  	29,963760  	32,977592  	62,372284  	26,397098  	25,463802  	27,801752  	68,387688  	0,355533  	0,180151  	-4341,501286  	22523,475582  	-0,022176  	-0,050001  	0,198387  	0,100524  	-4,338787  	5112,939899  	143549,389087  	20,820079  	-0,047952  
173,754000  	23,989167  	29,771244  	23,935853  	956,927186  	79,997901  	69,697816  	0,010611  	0,006231  	0,003960  	0,004479  	0,004170  	0,000001  	-0,000001  	25,942244  	25,216656  	26,223715  	25,915894  	28,431708  	27,326276  	28,717402  	28,093836  	30,344521  	29,966010  	32,977492  	62,371539  	26,393984  	25,466467  	27,800298  	68,384070  	0,394354  	0,199822  	-4830,439673  	22518,581332  	-0,022172  	-0,049988  	0,160988  	0,081574  	-3,520293  	4787,355499  	143378,475323  	20,795290  	-0,047942  
174,756000  	23,992239  	29,783983  	23,935914  	357,439972  	79,991215  	69,694640  	0,010628  	0,006338  	0,003958  	0,004442  	0,004236  	0,000001  	-0,000000  	25,945677  	25,216475  	26,219565  	25,915357  	28,436984  	27,333903  	28,720532  	28,097200  	30,350449  	29,968046  	32,979163  	62,374038  	26,395592  	25,462322  	27,801389  	68,382195  	0,364411  	0,184650  	-4471,127344  	12547,288959  	-0,036502  	-0,049992  	0,212795  	0,107825  	-4,651560  	5016,849612  	143723,395609  	20,845316  	-0,047945  
175,756000  	24,019793  	29,791737  	23,936928  	1256,670793  	79,988935  	69,710865  	0,010623  	0,006291  	0,003961  	0,004436  	0,004254  	0,000000  	-0,000000  	25,940471  	25,208968  	26,205080  	25,910925  	28,431634  	27,324220  	28,707745  	28,102731  	30,346467  	29,964623  	32,977454  	62,366775  	26,392149  	25,439657  	27,807540  	68,376431  	0,359599  	0,182212  	-4396,999334  	25567,215304  	-0,018536  	-0,049995  	0,227514  	0,115283  	-4,964375  	4916,081691  	143618,594862  	20,830116  	-0,047947  
176,758000  	24,064213  	29,790814  	23,936559  	57,696365  	79,991871  	69,706381  	0,010621  	0,006369  	0,003960  	0,004352  	0,004251  	-0,000000  	-0,000000  	25,934621  	25,204111  	26,201829  	25,906236  	28,434019  	27,314069  	28,710296  	28,093084  	30,343009  	29,965020  	32,973798  	62,366907  	26,394552  	25,416774  	27,797074  	68,380807  	0,291628  	0,147770  	-3537,864888  	1831,622151  	-0,053938  	-0,050004  	0,224720  	0,113868  	-4,906960  	5083,924703  	143592,821872  	20,826378  	-0,047955  
177,756000  	24,089894  	29,790352  	23,937266  	57,696365  	79,991621  	69,690093  	0,010626  	0,006284  	0,003956  	0,004350  	0,004262  	0,000001  	-0,000000  	25,935243  	25,208884  	26,209179  	25,911375  	28,432754  	27,318963  	28,709850  	28,091276  	30,337349  	29,961178  	32,973893  	62,370409  	26,397937  	25,398839  	27,798081  	68,384966  	0,290526  	0,147211  	-3508,390824  	1831,042847  	-0,053922  	-0,049988  	0,233749  	0,118442  	-5,112059  	4901,284040  	143696,160973  	20,841366  	-0,047941  
178,755000  	24,091430  	29,806722  	23,937696  	1256,670793  	79,989559  	69,694079  	0,010623  	0,006250  	0,003964  	0,004354  	0,004263  	0,000001  	-0,000000  	25,936868  	25,206599  	26,202858  	25,908998  	28,433951  	27,315319  	28,711654  	28,097183  	30,342363  	29,957964  	32,974281  	62,363972  	26,403266  	25,388679  	27,799354  	68,388068  	0,293070  	0,148501  	-3548,329454  	25565,228062  	-0,018535  	-0,049990  	0,234823  	0,118987  	-5,132531  	4827,199573  	143624,766258  	20,831011  	-0,047943  
179,754000  	24,070141  	29,824723  	23,939078  	1256,670793  	79,988716  	69,707284  	0,010629  	0,006308  	0,003962  	0,004426  	0,004200  	-0,000000  	-0,000000  	25,931176  	25,202895  	26,203193  	25,904161  	28,434147  	27,323996  	28,714141  	28,093074  	30,341374  	29,954937  	32,974298  	62,363316  	26,390346  	25,359367  	27,806411  	68,374275  	0,351591  	0,178154  	-4286,132677  	25571,478400  	-0,018539  	-0,050004  	0,184649  	0,093563  	-4,030367  	4952,283833  	143750,248947  	20,849211  	-0,047955  
180,757000  	24,036719  	29,843247  	23,938832  	1256,670793  	79,993277  	69,715817  	0,010620  	0,006327  	0,003962  	0,004394  	0,004216  	-0,000001  	-0,000001  	25,936476  	25,203919  	26,208468  	25,918085  	28,439889  	27,325994  	28,716541  	28,097880  	30,346225  	29,951598  	32,977971  	62,362608  	26,399313  	25,340802  	27,805795  	68,379014  	0,326021  	0,165197  	-4010,296423  	25575,315534  	-0,018542  	-0,050013  	0,197536  	0,100093  	-4,310010  	4992,993113  	143570,593550  	20,823154  	-0,047962  
181,755000  	24,024432  	29,846785  	23,937696  	-242,047242  	79,997964  	69,680500  	0,010619  	0,006213  	0,003960  	0,004471  	0,004209  	0,000002  	-0,000000  	25,918891  	25,197761  	26,198520  	25,904631  	28,430367  	27,314591  	28,709787  	28,082715  	30,329321  	29,946763  	32,963690  	62,355733  	26,377655  	25,321521  	27,784368  	68,368925  	0,388551  	0,196882  	-4792,498654  	-27040,506113  	-0,103145  	-0,049974  	0,191911  	0,097243  	-4,203556  	4748,443131  	143537,046296  	20,818288  	-0,047929  
182,756000  	24,023940  	29,832754  	23,937143  	357,439972  	79,996526  	69,681186  	0,010623  	0,006322  	0,003959  	0,004442  	0,004229  	0,000001  	-0,000000  	25,944255  	25,222699  	26,221725  	25,920099  	28,442929  	27,335282  	28,730009  	28,107204  	30,351774  	29,954899  	32,980433  	62,369550  	26,387425  	25,317577  	27,814223  	68,379496  	0,365097  	0,184997  	-4492,737612  	12545,246180  	-0,036496  	-0,049984  	0,207304  	0,105043  	-4,539781  	4982,891490  	143625,437062  	20,831108  	-0,047937  
183,754000  	24,025507  	29,824538  	23,937051  	357,439972  	79,996714  	69,677822  	0,010626  	0,006352  	0,003956  	0,004403  	0,004299  	-0,000001  	-0,000000  	25,940828  	25,205202  	26,201624  	25,906445  	28,436894  	27,323804  	28,716937  	28,098407  	30,337948  	29,958745  	32,976775  	62,363500  	26,362091  	25,282763  	27,800885  	68,377934  	0,332886  	0,168676  	-4089,458978  	12552,993903  	-0,036519  	-0,050018  	0,263368  	0,133450  	-5,769510  	5047,328514  	143693,562490  	20,840989  	-0,047967  
184,757000  	24,054075  	29,814630  	23,935699  	956,927186  	80,003025  	69,669413  	0,010623  	0,006332  	0,003960  	0,004342  	0,004259  	0,000001  	-0,000000  	25,941185  	25,205117  	26,205484  	25,915837  	28,442953  	27,316648  	28,725016  	28,104248  	30,336064  	29,960167  	32,971286  	62,367165  	26,355240  	25,248676  	27,804866  	68,370631  	0,283747  	0,143777  	-3462,661487  	22517,117396  	-0,022170  	-0,049985  	0,231169  	0,117135  	-5,071367  	5004,895187  	143628,558065  	20,831561  	-0,047938  
185,754000  	24,072845  	29,809768  	23,935023  	-242,047242  	80,005712  	69,663527  	0,010616  	0,006334  	0,003957  	0,004357  	0,004310  	0,000001  	-0,000000  	25,931281  	25,205583  	26,206709  	25,913688  	28,431577  	27,319571  	28,717786  	28,097725  	30,351826  	29,952205  	32,971295  	62,354346  	26,357525  	25,224370  	27,793206  	68,356965  	0,295543  	0,149754  	-3591,810980  	-27045,708090  	-0,103166  	-0,049985  	0,271622  	0,137633  	-5,963746  	5008,580274  	143485,140199  	20,810760  	-0,047939  
186,756000  	24,082798  	29,816292  	23,933795  	357,439972  	80,002900  	69,678912  	0,010620  	0,006351  	0,003959  	0,004360  	0,004245  	-0,000000  	-0,000000  	25,935157  	25,207728  	26,218417  	25,914541  	28,435885  	27,326002  	28,718820  	28,100838  	30,343366  	29,968335  	32,980958  	62,363058  	26,361370  	25,211799  	27,807333  	68,373310  	0,297969  	0,150983  	-3619,133059  	12549,475612  	-0,036508  	-0,050002  	0,220052  	0,111502  	-4,822984  	5045,409920  	143569,548508  	20,823003  	-0,047953  
187,755000  	24,088696  	29,832261  	23,932873  	1256,670793  	80,003337  	69,698501  	0,010621  	0,006246  	0,003964  	0,004425  	0,004166  	0,000000  	-0,000000  	25,935295  	25,199564  	26,214220  	25,914712  	28,432000  	27,318793  	28,709663  	28,089004  	30,344556  	29,959084  	32,977147  	62,371058  	26,344127  	25,192408  	27,799804  	68,367299  	0,350807  	0,177756  	-4268,383903  	25568,299923  	-0,018537  	-0,049997  	0,158080  	0,080100  	-3,458306  	4818,903352  	143583,741306  	20,825061  	-0,047949  
188,758000  	24,075548  	29,848201  	23,932013  	1256,670793  	80,008024  	69,709153  	0,010617  	0,006343  	0,003961  	0,004454  	0,004207  	0,000001  	-0,000000  	25,941546  	25,202831  	26,206866  	25,916206  	28,432239  	27,324889  	28,710160  	28,082988  	30,347071  	29,956164  	32,980056  	62,362677  	26,345396  	25,183494  	27,802433  	68,368783  	0,374377  	0,189699  	-4578,235496  	25566,805510  	-0,018536  	-0,049993  	0,189920  	0,096234  	-4,152461  	5027,450693  	143488,218836  	20,811207  	-0,047946  
189,755000  	24,070141  	29,858017  	23,930785  	1256,670793  	80,016521  	69,720956  	0,010618  	0,006362  	0,003960  	0,004427  	0,004229  	0,000001  	-0,000000  	25,937939  	25,213224  	26,206873  	25,913770  	28,436882  	27,321259  	28,720749  	28,092029  	30,334667  	29,956850  	32,979121  	62,367601  	26,342189  	25,172488  	27,802506  	68,372284  	0,352263  	0,178494  	-4319,165757  	25564,289448  	-0,018534  	-0,049988  	0,207813  	0,105301  	-4,542232  	5070,283019  	143523,912662  	20,816384  	-0,047941  
190,756000  	24,065964  	29,860232  	23,929433  	1256,670793  	80,024395  	69,722576  	0,010632  	0,006337  	0,003958  	0,004376  	0,004254  	0,000001  	-0,000000  	25,935123  	25,202657  	26,203868  	25,911538  	28,440228  	27,324633  	28,718602  	28,101282  	30,340321  	29,957933  	32,977556  	62,362677  	26,339509  	25,170968  	27,804192  	68,370109  	0,311332  	0,157754  	-3821,524512  	25564,241536  	-0,018534  	-0,049988  	0,227029  	0,115037  	-4,965260  	5014,785992  	143823,783173  	20,859876  	-0,047941  
191,754000  	24,063199  	29,854509  	23,929341  	1256,670793  	80,026332  	69,721672  	0,010623  	0,006323  	0,003959  	0,004384  	0,004296  	-0,000001  	-0,000000  	25,937269  	25,204418  	26,209423  	25,912135  	28,440705  	27,326878  	28,714289  	28,100554  	30,344597  	29,956710  	32,983168  	62,363438  	26,344556  	25,169748  	27,800822  	68,371737  	0,318067  	0,161167  	-3902,201302  	25577,409882  	-0,018543  	-0,050016  	0,261031  	0,132267  	-5,710474  	4985,797679  	143636,466490  	20,832708  	-0,047966  
192,757000  	24,068237  	29,857093  	23,929034  	1256,670793  	80,024957  	69,717437  	0,010621  	0,006349  	0,003962  	0,004338  	0,004232  	-0,000001  	-0,000001  	25,937170  	25,211108  	26,211526  	25,910035  	28,438977  	27,324348  	28,716176  	28,098090  	30,342211  	29,958952  	32,982519  	62,362874  	26,343240  	25,173522  	27,807310  	68,379127  	0,280574  	0,142169  	-3440,756311  	25573,727332  	-0,018541  	-0,050008  	0,209885  	0,106350  	-4,592841  	5040,391297  	143590,597627  	20,826055  	-0,047959  
193,754000  	24,047717  	29,852816  	23,926515  	57,696365  	80,025238  	69,733289  	0,010618  	0,006342  	0,003957  	0,004411  	0,004213  	0,000000  	-0,000000  	25,942868  	25,210472  	26,213040  	25,916389  	28,444654  	27,325702  	28,721638  	28,098718  	30,345785  	29,966356  	32,984418  	62,366726  	26,350155  	25,171700  	27,800744  	68,379722  	0,339529  	0,172042  	-4175,433436  	1831,874785  	-0,053929  	-0,049995  	0,194699  	0,098655  	-4,254097  	5025,597184  	143527,393781  	20,816888  	-0,047947  
194,756000  	24,009503  	29,853801  	23,926208  	657,183579  	80,026175  	69,740265  	0,010622  	0,006358  	0,003963  	0,004417  	0,004185  	0,000000  	-0,000000  	25,939990  	25,210894  	26,214132  	25,916744  	28,445468  	27,331905  	28,722040  	28,100581  	30,349187  	29,963661  	32,985879  	62,362021  	26,352804  	25,178872  	27,803040  	68,369866  	0,344658  	0,174641  	-4267,131007  	18497,967463  	-0,027591  	-0,049997  	0,172571  	0,087443  	-3,768411  	5061,304820  	143603,159312  	20,827877  	-0,047949  
195,755000  	23,994020  	29,857401  	23,925655  	657,183579  	80,027206  	69,753907  	0,010620  	0,006284  	0,003961  	0,004402  	0,004207  	0,000002  	-0,000000  	25,940825  	25,216638  	26,215567  	25,917027  	28,439230  	27,335649  	28,720603  	28,103486  	30,349845  	29,957258  	32,986135  	62,355581  	26,350160  	25,191796  	27,802571  	68,374478  	0,332731  	0,168597  	-4132,928713  	18491,355806  	-0,027581  	-0,049977  	0,190044  	0,096297  	-4,144885  	4900,553956  	143566,942965  	20,822625  	-0,047932  
196,758000  	24,007782  	29,844170  	23,924733  	57,696365  	80,029018  	69,761132  	0,010610  	0,006237  	0,003957  	0,004384  	0,004241  	-0,000001  	-0,000000  	25,949187  	25,221020  	26,213581  	25,919355  	28,440118  	27,335604  	28,719344  	28,104042  	30,348748  	29,958805  	32,985650  	62,360272  	26,350003  	25,199719  	27,798881  	68,384213  	0,317731  	0,160997  	-3928,435876  	1832,559071  	-0,053947  	-0,050012  	0,216784  	0,109846  	-4,725589  	4800,277003  	143344,412609  	20,790349  	-0,047962  
197,755000  	24,010148  	29,822507  	23,924395  	956,927186  	80,035736  	69,765119  	0,010632  	0,006248  	0,003960  	0,004352  	0,004267  	0,000001  	-0,000000  	25,953045  	25,217788  	26,214066  	25,923435  	28,439847  	27,336769  	28,719919  	28,104286  	30,347220  	29,961951  	32,985849  	62,362100  	26,346978  	25,214227  	27,799375  	68,384506  	0,291865  	0,147890  	-3593,769340  	22517,132419  	-0,022170  	-0,049984  	0,237672  	0,120430  	-5,182315  	4823,492555  	143815,154517  	20,858625  	-0,047938  
198,758000  	24,004065  	29,815122  	23,923904  	357,439972  	80,040110  	69,749858  	0,010622  	0,006344  	0,003963  	0,004405  	0,004244  	-0,000000  	-0,000000  	25,947897  	25,215550  	26,221396  	25,926914  	28,444072  	27,332014  	28,723941  	28,107887  	30,349657  	29,965546  	32,983553  	62,360496  	26,346658  	25,231801  	27,797436  	68,389891  	0,335069  	0,169782  	-4124,829115  	12550,188695  	-0,036509  	-0,050003  	0,219887  	0,111418  	-4,803675  	5029,583643  	143611,244264  	20,829050  	-0,047954  
199,754000  	24,007752  	29,811799  	23,922890  	1256,670793  	80,044577  	69,731514  	0,010618  	0,006371  	0,003959  	0,004387  	0,004275  	-0,000000  	-0,000000  	25,944264  	25,220355  	26,222995  	25,926025  	28,452759  	27,327474  	28,725862  	28,109512  	30,354968  	29,970142  	32,981012  	62,365380  	26,347943  	25,242580  	27,804241  	68,394660  	0,320554  	0,162427  	-3941,382710  	25572,237693  	-0,018539  	-0,050005  	0,244129  	0,123702  	-5,345062  	5088,091561  	143517,847183  	20,815504  	-0,047955  
200,757000  	24,003881  	29,801953  	23,922583  	57,696365  	80,048889  	69,706225  	0,010622  	0,006304  	0,003962  	0,004431  	0,004196  	0,000002  	-0,000000  	25,953566  	25,218226  	26,216845  	25,927394  	28,445076  	27,334039  	28,726461  	28,104991  	30,358168  	29,966731  	32,985176  	62,366087  	26,342551  	25,257917  	27,804082  	68,388917  	0,355592  	0,180181  	-4367,684222  	1831,480975  	-0,053911  	-0,049976  	0,181415  	0,091924  	-3,983361  	4943,613373  	143610,757049  	20,828979  	-0,047931  
201,755000  	23,972456  	29,797706  	23,922491  	-242,047242  	80,047264  	69,719305  	0,010626  	0,006296  	0,003960  	0,004410  	0,004210  	0,000000  	-0,000000  	25,949705  	25,212527  	26,210829  	25,916842  	28,452242  	27,330865  	28,727584  	28,100623  	30,356811  	29,963051  	32,982052  	62,364776  	26,348658  	25,276529  	27,797114  	68,386918  	0,339057  	0,171802  	-4184,113424  	-27052,302863  	-0,103196  	-0,049999  	0,192415  	0,097498  	-4,218905  	4926,774032  	143680,859583  	20,839147  	-0,047951  
202,754000  	23,979583  	29,797952  	23,922122  	357,439972  	80,044140  	69,735002  	0,010621  	0,006361  	0,003957  	0,004331  	0,004255  	0,000000  	-0,000000  	25,950016  	25,213281  	26,216563  	25,925786  	28,447867  	27,339461  	28,727343  	28,106734  	30,355143  	29,964302  	32,987862  	62,364977  	26,354670  	25,295940  	27,803560  	68,389699  	0,274950  	0,139319  	-3388,997468  	12549,017028  	-0,036506  	-0,049997  	0,228410  	0,115737  	-4,999012  	5066,174172  	143586,791698  	20,825503  	-0,047949  
203,756000  	24,002437  	29,797122  	23,922030  	357,439972  	80,047608  	69,731327  	0,010623  	0,006331  	0,003960  	0,004403  	0,004234  	-0,000000  	-0,000000  	25,944755  	25,207149  	26,212332  	25,919553  	28,444086  	27,332927  	28,726784  	28,099944  	30,347926  	29,957570  	32,971992  	62,359218  	26,343962  	25,316406  	27,797918  	68,383196  	0,333239  	0,168855  	-4090,733671  	12550,704349  	-0,036511  	-0,050004  	0,211449  	0,107143  	-4,630995  	5003,303433  	143616,963750  	20,829880  	-0,047955  
204,754000  	24,009687  	29,791891  	23,922583  	-242,047242  	80,049295  	69,722295  	0,010611  	0,006326  	0,003963  	0,004458  	0,004214  	-0,000000  	-0,000000  	25,951385  	25,225369  	26,219169  	25,923036  	28,443514  	27,332000  	28,730676  	28,104671  	30,349302  	29,976100  	32,991389  	62,361571  	26,356552  	25,343950  	27,801805  	68,395361  	0,377474  	0,191269  	-4623,774347  	-27055,074294  	-0,103207  	-0,050005  	0,195800  	0,099213  	-4,292725  	4991,349009  	143375,820352  	20,794905  	-0,047956  
205,756000  	24,035429  	29,797460  	23,922430  	956,927186  	80,047951  	69,736777  	0,010629  	0,006363  	0,003960  	0,004452  	0,004210  	0,000001  	-0,000000  	25,949004  	25,238704  	26,229375  	25,927714  	28,449588  	27,347656  	28,740409  	28,116294  	30,365224  	29,970127  	32,995048  	62,372878  	26,356945  	25,375609  	27,801783  	68,398563  	0,372607  	0,188803  	-4548,220970  	22521,054443  	-0,022174  	-0,049993  	0,192429  	0,097505  	-4,212366  	5072,517134  	143765,952819  	20,851489  	-0,047946  
206,756000  	24,049621  	29,806137  	23,921754  	357,439972  	80,045827  	69,760135  	0,010624  	0,006355  	0,003960  	0,004412  	0,004251  	0,000001  	-0,000001  	25,959684  	25,218546  	26,222372  	25,917926  	28,442692  	27,342396  	28,726495  	28,101687  	30,361737  	29,973323  	32,989873  	62,367342  	26,352861  	25,404300  	27,802913  	68,390851  	0,340822  	0,172697  	-4156,250291  	12548,046629  	-0,036503  	-0,049993  	0,224657  	0,113835  	-4,905710  	5054,442593  	143646,210798  	20,834121  	-0,047945  
207,757000  	24,048331  	29,816384  	23,922030  	1256,670793  	80,043734  	69,756834  	0,010624  	0,006289  	0,003955  	0,004360  	0,004250  	0,000001  	-0,000000  	25,951912  	25,228774  	26,228035  	25,933518  	28,454486  	27,342293  	28,733711  	28,110669  	30,361071  	29,977561  	32,996657  	62,368534  	26,355292  	25,435397  	27,803740  	68,398757  	0,298445  	0,151224  	-3646,766245  	25564,163334  	-0,018534  	-0,049987  	0,223996  	0,113500  	-4,891847  	4912,383870  	143639,545126  	20,833155  	-0,047940  
208,754000  	24,009441  	29,828077  	23,922522  	57,696365  	80,042422  	69,763374  	0,010618  	0,006356  	0,003958  	0,004371  	0,004256  	-0,000000  	-0,000000  	25,951463  	25,212385  	26,218481  	25,923077  	28,455326  	27,337646  	28,727084  	28,104886  	30,352215  	29,969804  	32,991584  	62,361411  	26,326081  	25,447552  	27,807254  	68,394655  	0,307264  	0,155693  	-3787,467210  	1832,308862  	-0,053936  	-0,050001  	0,228964  	0,116018  	-4,996521  	5057,209415  	143524,068006  	20,816406  	-0,047952  
209,756000  	23,959401  	29,838723  	23,922552  	-242,047242  	80,041984  	69,771410  	0,010627  	0,006329  	0,003961  	0,004406  	0,004235  	-0,000000  	-0,000000  	25,951916  	25,220449  	26,214887  	25,917637  	28,448980  	27,339480  	28,727077  	28,093478  	30,349094  	29,961172  	32,988037  	62,366010  	26,328962  	25,474413  	27,799089  	68,382455  	0,335487  	0,169994  	-4178,501987  	-27052,613190  	-0,103197  	-0,050000  	0,212412  	0,107631  	-4,631511  	4998,578401  	143708,468458  	20,843151  	-0,047951  
210,756000  	23,959094  	29,837246  	23,922491  	-242,047242  	80,039172  	69,782684  	0,010625  	0,006358  	0,003961  	0,004475  	0,004194  	0,000001  	-0,000000  	25,952620  	25,223810  	26,228695  	25,930122  	28,451944  	27,328473  	28,722042  	28,109691  	30,357120  	29,976915  	32,992527  	62,362227  	26,333481  	25,505051  	27,808901  	68,395658  	0,391169  	0,198208  	-4871,047785  	-27047,271000  	-0,103177  	-0,049989  	0,179848  	0,091130  	-3,916103  	5059,996045  	143663,369255  	20,836610  	-0,047942  
211,757000  	23,982225  	29,816015  	23,923412  	657,183579  	80,030174  	69,774991  	0,010628  	0,006348  	0,003964  	0,004464  	0,004217  	0,000001  	-0,000000  	25,956792  	25,219185  	26,217879  	25,926457  	28,449373  	27,327917  	28,725964  	28,099207  	30,343363  	29,975935  	32,984516  	62,359197  	26,337712  	25,509525  	27,812501  	68,381805  	0,382791  	0,193963  	-4730,740624  	18495,955571  	-0,027587  	-0,049990  	0,197724  	0,100188  	-4,304782  	5040,106197  	143726,509552  	20,845768  	-0,047943  
212,756000  	24,017612  	29,790291  	23,924334  	1256,670793  	80,025551  	69,772500  	0,010613  	0,006339  	0,003954  	0,004354  	0,004273  	-0,000000  	-0,000000  	25,952826  	25,220935  	26,225267  	25,923319  	28,443943  	27,340803  	28,720188  	28,109231  	30,353310  	29,975656  	32,989595  	62,368371  	26,334770  	25,545865  	27,814955  	68,391537  	0,293398  	0,148667  	-3587,986058  	25570,634815  	-0,018538  	-0,050001  	0,242630  	0,122942  	-5,281366  	5018,778110  	143411,125819  	20,800025  	-0,047953  
213,758000  	24,049498  	29,790660  	23,925255  	-242,047242  	80,022957  	69,781999  	0,010624  	0,006300  	0,003962  	0,004340  	0,004233  	0,000000  	-0,000000  	25,946239  	25,221041  	26,219985  	25,922710  	28,445708  	27,331159  	28,718390  	28,102192  	30,352676  	29,964030  	32,984257  	62,365348  	26,338022  	25,559522  	27,810060  	68,377074  	0,282356  	0,143072  	-3434,086538  	-27052,420025  	-0,103195  	-0,050000  	0,210992  	0,106911  	-4,587288  	4934,795057  	143645,370528  	20,834000  	-0,047951  
214,756000  	24,051710  	29,803460  	23,925747  	-242,047242  	80,027206  	69,770911  	0,010627  	0,006255  	0,003960  	0,004407  	0,004211  	0,000001  	-0,000000  	25,943662  	25,224550  	26,214909  	25,922315  	28,438840  	27,338970  	28,718798  	28,095800  	30,349896  	29,965510  	32,985464  	62,369365  	26,346277  	25,573537  	27,810353  	68,371699  	0,336636  	0,170576  	-4101,806584  	-27045,948280  	-0,103171  	-0,049986  	0,193419  	0,098007  	-4,211522  	4837,952047  	143711,921333  	20,843652  	-0,047940  
215,757000  	24,046826  	29,820999  	23,926208  	657,183579  	80,030987  	69,765773  	0,010615  	0,006269  	0,003962  	0,004433  	0,004192  	-0,000000  	-0,000000  	25,941474  	25,208533  	26,218626  	25,929011  	28,434512  	27,329144  	28,715899  	28,096834  	30,347513  	29,959755  	32,981985  	62,356871  	26,340215  	25,576904  	27,805881  	68,370366  	0,357253  	0,181023  	-4369,991903  	18499,523983  	-0,027593  	-0,050002  	0,178634  	0,090515  	-3,892961  	4869,083214  	143454,177305  	20,806269  	-0,047953  
216,755000  	24,013465  	29,834046  	23,927129  	1256,670793  	80,034236  	69,754810  	0,010626  	0,006354  	0,003958  	0,004450  	0,004226  	0,000001  	-0,000000  	25,946933  	25,208073  	26,222475  	25,928712  	28,437911  	27,328796  	28,714999  	28,098744  	30,351292  	29,962323  	32,981995  	62,364307  	26,353272  	25,606181  	27,806664  	68,364787  	0,371446  	0,188215  	-4580,133740  	25565,198200  	-0,018534  	-0,049990  	0,205164  	0,103958  	-4,477308  	5051,508813  	143690,384998  	20,840528  	-0,047942  
217,758000  	23,989382  	29,836139  	23,928665  	956,927186  	80,037516  	69,743100  	0,010623  	0,006351  	0,003957  	0,004386  	0,004260  	0,000000  	-0,000000  	25,947364  	25,214953  	26,221279  	25,924862  	28,438364  	27,330294  	28,719834  	28,107109  	30,360079  	29,963437  	32,985312  	62,364929  	26,359182  	25,634003  	27,808820  	68,368202  	0,319697  	0,161993  	-3959,774083  	22522,810886  	-0,022176  	-0,049998  	0,231928  	0,117520  	-5,068768  	5044,879336  	143635,004843  	20,832496  	-0,047950  
218,755000  	23,990242  	29,821430  	23,928296  	357,439972  	80,035642  	69,729894  	0,010615  	0,006271  	0,003961  	0,004331  	0,004311  	-0,000000  	-0,000000  	25,945099  	25,220065  	26,213232  	25,923228  	28,442105  	27,330610  	28,718825  	28,102461  	30,356102  	29,965777  	32,992670  	62,365678  	26,357077  	25,646945  	27,813270  	68,365654  	0,274590  	0,139137  	-3392,021234  	12550,643273  	-0,036511  	-0,050006  	0,272638  	0,138148  	-5,965030  	4873,025812  	143463,229626  	20,807582  	-0,047956  
219,758000  	24,000932  	29,806199  	23,929955  	1256,670793  	80,033580  	69,719337  	0,010622  	0,006328  	0,003960  	0,004378  	0,004195  	0,000000  	-0,000001  	25,943408  	25,223051  	26,213061  	25,914290  	28,439755  	27,330109  	28,720062  	28,095750  	30,356593  	29,964311  	32,983806  	62,361731  	26,356173  	25,659374  	27,804914  	68,355211  	0,312861  	0,158529  	-3847,596824  	25569,368277  	-0,018537  	-0,049999  	0,180786  	0,091606  	-3,958658  	4996,136297  	143598,400136  	20,827187  	-0,047950  
220,754000  	24,024401  	29,804476  	23,931061  	57,696365  	80,036079  	69,731109  	0,010627  	0,006368  	0,003964  	0,004481  	0,004196  	0,000002  	-0,000000  	25,947117  	25,221485  	26,216700  	25,917026  	28,442834  	27,334126  	28,727843  	28,102086  	30,357169  	29,965623  	32,982126  	62,356695  	26,366480  	25,663860  	27,803134  	68,361163  	0,396345  	0,200831  	-4853,132513  	1831,076967  	-0,053913  	-0,049978  	0,181188  	0,091809  	-3,963903  	5081,351014  	143721,241976  	20,845004  	-0,047933  
221,756000  	24,044645  	29,803830  	23,933027  	1256,670793  	80,037298  	69,724133  	0,010621  	0,006359  	0,003958  	0,004430  	0,004249  	-0,000000  	-0,000000  	25,942728  	25,215912  	26,210634  	25,919836  	28,443457  	27,326253  	28,724100  	28,100594  	30,349254  	29,962370  	32,982394  	62,354805  	26,362281  	25,668445  	27,803826  	68,365186  	0,355093  	0,179928  	-4332,299361  	25571,481874  	-0,018539  	-0,050004  	0,223616  	0,113308  	-4,895993  	5062,697074  	143578,720869  	20,824333  	-0,047955  
222,754000  	24,053676  	29,807337  	23,934624  	657,183579  	80,035861  	69,728929  	0,010617  	0,006340  	0,003957  	0,004364  	0,004283  	0,000000  	-0,000000  	25,942179  	25,216139  	26,210441  	25,918869  	28,443596  	27,326479  	28,720464  	28,101064  	30,348402  	29,958982  	32,982221  	62,362492  	26,361332  	25,686748  	27,807627  	68,361470  	0,301379  	0,152711  	-3673,432995  	18498,130624  	-0,027591  	-0,049998  	0,250106  	0,126731  	-5,472684  	5022,617421  	143498,238527  	20,812660  	-0,047950  
223,758000  	24,026213  	29,819892  	23,935177  	657,183579  	80,033861  	69,751664  	0,010625  	0,006343  	0,003960  	0,004326  	0,004224  	0,000000  	-0,000000  	25,943290  	25,216632  	26,214355  	25,924425  	28,443005  	27,337181  	28,725884  	28,105173  	30,351740  	29,962386  	32,985191  	62,368668  	26,368459  	25,697834  	27,812674  	68,360811  	0,270485  	0,137057  	-3319,811473  	18498,082697  	-0,027591  	-0,049998  	0,203947  	0,103341  	-4,451953  	5028,331463  	143672,901731  	20,837993  	-0,047950  
224,755000  	24,007229  	29,835462  	23,938740  	1256,670793  	80,033924  	69,764496  	0,010619  	0,006350  	0,003960  	0,004426  	0,004223  	0,000002  	-0,000000  	25,936449  	25,211428  	26,210795  	25,919536  	28,432573  	27,334252  	28,721947  	28,101031  	30,347772  	29,961686  	32,982733  	62,360591  	26,358411  	25,695267  	27,802640  	68,351565  	0,351517  	0,178116  	-4340,097393  	25560,850099  	-0,018531  	-0,049981  	0,202891  	0,102806  	-4,423418  	5043,008141  	143531,411543  	20,817471  	-0,047935  
225,755000  	23,990549  	29,840754  	23,939262  	57,696365  	80,031424  	69,771036  	0,010626  	0,006361  	0,003961  	0,004467  	0,004229  	0,000001  	-0,000000  	25,943690  	25,213250  	26,211374  	25,910907  	28,428406  	27,332342  	28,715323  	28,103099  	30,347165  	29,959480  	32,982180  	62,358596  	26,356085  	25,695181  	27,795017  	68,346779  	0,384748  	0,194955  	-4768,299642  	1831,094899  	-0,053927  	-0,049993  	0,207579  	0,105182  	-4,521647  	5067,873458  	143692,814014  	20,840881  	-0,047945  
226,756000  	23,986494  	29,829861  	23,940430  	1256,670793  	80,027175  	69,770911  	0,010620  	0,006354  	0,003960  	0,004418  	0,004277  	0,000000  	-0,000000  	25,949929  	25,215951  	26,213683  	25,918157  	28,434389  	27,330177  	28,715367  	28,103049  	30,347922  	29,961487  	32,981977  	62,361913  	26,361631  	25,688928  	27,800628  	68,356898  	0,345240  	0,174936  	-4273,665829  	25569,204464  	-0,018537  	-0,049999  	0,245877  	0,124588  	-5,353718  	5052,748967  	143556,104187  	20,821053  	-0,047951  
227,754000  	23,976449  	29,819338  	23,942088  	357,439972  	80,021739  	69,776704  	0,010622  	0,006351  	0,003959  	0,004372  	0,004307  	-0,000001  	-0,000001  	25,944307  	25,212512  	26,216474  	25,922710  	28,442563  	27,332056  	28,716407  	28,100858  	30,344965  	29,964810  	32,982398  	62,354674  	26,355171  	25,679771  	27,805854  	68,353279  	0,308332  	0,156234  	-3816,477951  	12551,220741  	-0,036514  	-0,050011  	0,269364  	0,136489  	-5,858708  	5044,624655  	143612,155145  	20,829182  	-0,047961  
228,756000  	23,984498  	29,809799  	23,943624  	-242,047242  	80,020302  	69,788352  	0,010629  	0,006272  	0,003963  	0,004360  	0,004211  	0,000001  	-0,000000  	25,949567  	25,219159  	26,212638  	25,927667  	28,447564  	27,350952  	28,728770  	28,102493  	30,352600  	29,971677  	32,982801  	62,363357  	26,355797  	25,670938  	27,813823  	68,354425  	0,298519  	0,151262  	-3683,892908  	-27045,412174  	-0,103161  	-0,049984  	0,193457  	0,098026  	-4,202359  	4874,814235  	143749,917076  	20,849163  	-0,047938  
229,756000  	23,978108  	29,802322  	23,944791  	956,927186  	80,022864  	69,791280  	0,010613  	0,006337  	0,003960  	0,004450  	0,004196  	0,000001  	-0,000001  	25,939918  	25,214715  	26,203529  	25,914434  	28,443164  	27,333574  	28,719569  	28,100861  	30,350219  	29,964638  	32,982999  	62,370673  	26,351537  	25,650862  	27,812109  	68,355273  	0,371406  	0,188194  	-4582,506926  	22518,536181  	-0,022172  	-0,049989  	0,181364  	0,091898  	-3,939522  	5014,663604  	143410,087838  	20,799875  	-0,047942  
230,757000  	23,957589  	29,804537  	23,945652  	-242,047242  	80,022614  	69,788726  	0,010631  	0,006366  	0,003960  	0,004462  	0,004249  	-0,000001  	-0,000000  	25,944271  	25,211803  	26,212140  	25,909700  	28,442745  	27,327610  	28,726927  	28,102503  	30,353729  	29,965322  	32,993736  	62,379863  	26,356629  	25,640872  	27,811599  	68,350263  	0,381234  	0,193174  	-4722,130894  	-27058,468235  	-0,103210  	-0,050011  	0,223438  	0,113217  	-4,854526  	5077,039130  	143794,882118  	20,855684  	-0,047961  
231,754000  	23,983945  	29,805276  	23,946757  	657,183579  	80,017271  	69,774742  	0,010619  	0,006351  	0,003956  	0,004361  	0,004287  	-0,000001  	-0,000000  	25,940946  	25,208973  	26,203018  	25,906106  	28,433613  	27,327273  	28,710840  	28,097729  	30,345441  	29,956287  	32,969189  	62,361738  	26,353628  	25,613416  	27,795379  	68,344176  	0,299170  	0,151592  	-3689,409317  	18501,446168  	-0,027597  	-0,050010  	0,253489  	0,128445  	-5,512071  	5045,864101  	143540,139055  	20,818737  	-0,047960  
232,757000  	24,007291  	29,792229  	23,947372  	57,696365  	80,016709  	69,754498  	0,010623  	0,006360  	0,003963  	0,004388  	0,004246  	0,000002  	-0,000000  	25,936840  	25,211082  	26,211368  	25,915067  	28,434001  	27,330224  	28,723147  	28,100950  	30,348893  	29,964442  	32,981120  	62,357404  	26,354631  	25,603262  	27,794650  	68,346620  	0,320724  	0,162513  	-3930,490022  	1829,928753  	-0,053905  	-0,049971  	0,220891  	0,111927  	-4,812466  	5063,956328  	143634,242245  	20,832386  	-0,047927  
233,755000  	24,002376  	29,782998  	23,950290  	1256,670793  	80,019771  	69,746276  	0,010620  	0,006282  	0,003962  	0,004448  	0,004221  	-0,000000  	-0,000000  	25,944003  	25,215252  	26,218251  	25,919712  	28,433760  	27,330142  	28,725630  	28,106790  	30,346661  	29,964276  	32,984478  	62,360300  	26,359503  	25,598401  	27,803252  	68,350030  	0,369789  	0,187375  	-4528,395446  	25570,562263  	-0,018539  	-0,050003  	0,200976  	0,101836  	-4,383381  	4897,057050  	143569,209576  	20,822953  	-0,047954  
234,755000  	23,993529  	29,798137  	23,951150  	1256,670793  	80,022957  	69,754810  	0,010629  	0,006352  	0,003959  	0,004410  	0,004171  	0,000001  	-0,000000  	25,932899  	25,208568  	26,206371  	25,910042  	28,434045  	27,323250  	28,709258  	28,085438  	30,344743  	29,940977  	32,980570  	62,356902  	26,350705  	25,579858  	27,802858  	68,339329  	0,339064  	0,171806  	-4169,376273  	25561,299578  	-0,018532  	-0,049983  	0,162078  	0,082126  	-3,533172  	5047,590269  	143752,430825  	20,849527  	-0,047937  
235,754000  	23,970582  	29,804506  	23,952993  	1256,670793  	80,031580  	69,769946  	0,010620  	0,006327  	0,003962  	0,004329  	0,004316  	-0,000001  	-0,000000  	25,941418  	25,216632  	26,223738  	25,915890  	28,437120  	27,334520  	28,729478  	28,111513  	30,355386  	29,970910  	32,997316  	62,368821  	26,359263  	25,582199  	27,807264  	68,344961  	0,273385  	0,138526  	-3378,726231  	25575,606856  	-0,018542  	-0,050014  	0,276767  	0,140240  	-6,029484  	4993,472762  	143557,678810  	20,821281  	-0,047964  
236,756000  	23,957988  	29,803337  	23,953976  	57,696365  	80,041078  	69,759917  	0,010625  	0,006326  	0,003964  	0,004375  	0,004242  	0,000001  	-0,000000  	25,937579  	25,211019  	26,219516  	25,915428  	28,442840  	27,328697  	28,712409  	28,094273  	30,350079  	29,965160  	32,984962  	62,366837  	26,346168  	25,559135  	27,801916  	68,349213  	0,310517  	0,157341  	-3845,152434  	1830,078866  	-0,053920  	-0,049988  	0,217983  	0,110454  	-4,757885  	4991,322126  	143664,597885  	20,836788  	-0,047941  
237,756000  	23,954210  	29,791121  	23,954344  	1256,670793  	80,042921  	69,757021  	0,010625  	0,006382  	0,003959  	0,004413  	0,004196  	-0,000000  	-0,000000  	25,931710  	25,210801  	26,206256  	25,901473  	28,426848  	27,317248  	28,710657  	28,087052  	30,337669  	29,955895  	32,971706  	62,350973  	26,334073  	25,540041  	27,792276  	68,333634  	0,341316  	0,172948  	-4220,437881  	25569,988821  	-0,018538  	-0,050002  	0,181142  	0,091786  	-3,955567  	5113,398324  	143678,861294  	20,838857  	-0,047953  
238,759000  	23,965698  	29,782506  	23,956618  	657,183579  	80,040547  	69,760758  	0,010623  	0,006263  	0,003958  	0,004457  	0,004202  	0,000000  	-0,000000  	25,939073  	25,204664  	26,204815  	25,907664  	28,442534  	27,319059  	28,711932  	28,101970  	30,338731  	29,966728  	32,978934  	62,365265  	26,345106  	25,535700  	27,805097  	68,352040  	0,377218  	0,191139  	-4648,301857  	18496,343450  	-0,027589  	-0,049996  	0,186522  	0,094512  	-4,070643  	4856,239530  	143636,332329  	20,832689  	-0,047948  
239,754000  	23,985051  	29,774198  	23,958829  	-242,047242  	80,034861  	69,767485  	0,010624  	0,006202  	0,003962  	0,004402  	0,004286  	-0,000001  	-0,000000  	25,936146  	25,209317  	26,208355  	25,910514  	28,435307  	27,323759  	28,715853  	28,101668  	30,347985  	29,962818  	32,973791  	62,363886  	26,352038  	25,526482  	27,801999  	68,355554  	0,332338  	0,168398  	-4075,783479  	-27057,479487  	-0,103202  	-0,050009  	0,253016  	0,128205  	-5,515125  	4724,205319  	143638,493023  	20,833002  	-0,047959  
240,756000  	24,025292  	29,777029  	23,960365  	956,927186  	80,031924  	69,754841  	0,010621  	0,006335  	0,003961  	0,004393  	0,004238  	0,000001  	-0,000000  	25,936037  	25,212676  	26,214696  	25,907859  	28,435638  	27,326890  	28,711515  	28,099681  	30,345599  	29,960797  	32,982573  	62,366713  	26,351108  	25,516588  	27,803169  	68,350244  	0,324688  	0,164522  	-3956,223236  	22518,446500  	-0,022172  	-0,049990  	0,214841  	0,108862  	-4,687431  	5010,324836  	143588,465177  	20,825746  	-0,047943  
241,757000  	24,056441  	29,782290  	23,961225  	1256,670793  	80,029893  	69,741605  	0,010619  	0,006378  	0,003958  	0,004436  	0,004253  	0,000000  	-0,000000  	25,940010  	25,208129  	26,210436  	25,899330  	28,436105  	27,321651  	28,716149  	28,099577  	30,342411  	29,956644  	32,980445  	62,364933  	26,350524  	25,495862  	27,809017  	68,355417  	0,360210  	0,182521  	-4369,284675  	25567,994298  	-0,018537  	-0,049998  	0,226383  	0,114710  	-4,944625  	5103,230201  	143550,561228  	20,820249  	-0,047950  
242,755000  	24,068606  	29,783952  	23,963007  	1256,670793  	80,025644  	69,713824  	0,010627  	0,006301  	0,003959  	0,004407  	0,004169  	0,000000  	-0,000000  	25,935934  	25,208699  	26,208274  	25,909447  	28,434721  	27,320177  	28,709435  	28,088699  	30,341194  	29,955868  	32,979230  	62,364012  	26,339128  	25,481414  	27,800508  	68,359978  	0,336678  	0,170597  	-4076,352841  	25568,125612  	-0,018537  	-0,049999  	0,160435  	0,081294  	-3,512205  	4938,412229  	143714,830503  	20,844074  	-0,047950  
243,755000  	24,066394  	29,796598  	23,964020  	1256,670793  	80,019083  	69,714603  	0,010619  	0,006245  	0,003961  	0,004407  	0,004306  	0,000000  	-0,000000  	25,932974  	25,208800  	26,203532  	25,910990  	28,431322  	27,322699  	28,711604  	28,088132  	30,336718  	29,956147  	32,975912  	62,362618  	26,344433  	25,467597  	27,802502  	68,358067  	0,336449  	0,170481  	-4084,167567  	25566,746478  	-0,018536  	-0,049996  	0,268477  	0,136039  	-5,873245  	4816,841854  	143548,577061  	20,819961  	-0,047948  
244,755000  	24,056809  	29,817276  	23,965126  	1256,670793  	80,014834  	69,728182  	0,010617  	0,006386  	0,003961  	0,004397  	0,004250  	0,000000  	-0,000001  	25,934512  	25,200229  	26,202140  	25,908565  	28,425739  	27,319595  	28,705710  	28,086375  	30,336654  	29,948883  	32,966028  	62,358032  	26,348051  	25,449601  	27,803613  	68,353345  	0,328175  	0,166289  	-4004,766767  	25566,626348  	-0,018536  	-0,049995  	0,224094  	0,113550  	-4,893859  	5120,447318  	143487,823414  	20,811149  	-0,047947  
245,756000  	24,058130  	29,840508  	23,965648  	57,696365  	80,014772  	69,719773  	0,010619  	0,006331  	0,003959  	0,004457  	0,004208  	0,000002  	-0,000000  	25,936416  	25,205676  	26,203650  	25,909993  	28,434089  	27,314012  	28,706423  	28,091691  	30,341022  	29,953143  	32,976273  	62,363816  	26,359190  	25,441770  	27,808525  	68,363472  	0,376500  	0,190775  	-4611,959360  	1829,057361  	-0,053909  	-0,049977  	0,190935  	0,096748  	-4,173081  	5003,413795  	143534,200675  	20,817876  	-0,047931  
246,757000  	24,068268  	29,837739  	23,965894  	657,183579  	80,013272  	69,707004  	0,010623  	0,006330  	0,003959  	0,004357  	0,004242  	0,000002  	-0,000000  	25,940286  	25,218183  	26,207230  	25,912836  	28,440236  	27,319202  	28,713923  	28,093480  	30,345414  	29,960420  	32,984637  	62,372260  	26,363589  	25,444383  	27,817813  	68,370076  	0,295633  	0,149800  	-3613,296885  	18490,046698  	-0,027580  	-0,049978  	0,218202  	0,110565  	-4,774254  	5000,403612  	143623,205756  	20,830785  	-0,047933  
247,754000  	24,066977  	29,836539  	23,966816  	657,183579  	80,009367  	69,719523  	0,010625  	0,006363  	0,003959  	0,004369  	0,004264  	-0,000000  	-0,000000  	25,935770  	25,207317  	26,204362  	25,910991  	28,429437  	27,316993  	28,714245  	28,088234  	30,340859  	29,959399  	32,978281  	62,365370  	26,360086  	25,442372  	27,809953  	68,358952  	0,305332  	0,154714  	-3731,900109  	18499,301021  	-0,027594  	-0,050006  	0,235657  	0,119409  	-5,147960  	5071,061210  	143660,318863  	20,836168  	-0,047957  
248,756000  	24,062492  	29,842816  	23,966324  	57,696365  	80,002869  	69,732604  	0,010617  	0,006287  	0,003962  	0,004407  	0,004195  	-0,000000  	-0,000000  	25,932926  	25,202479  	26,204295  	25,909375  	28,423301  	27,319345  	28,714388  	28,091148  	30,344979  	29,963300  	32,977229  	62,362294  	26,365993  	25,445406  	27,802381  	68,361469  	0,336379  	0,170446  	-4119,031442  	1829,917407  	-0,053935  	-0,050004  	0,180690  	0,091557  	-3,939702  	4906,549562  	143489,129717  	20,811339  	-0,047955  
249,754000  	24,040375  	29,852109  	23,965372  	956,927186  	79,997089  	69,752910  	0,010618  	0,006328  	0,003956  	0,004441  	0,004207  	-0,000001  	-0,000000  	25,936207  	25,210458  	26,209087  	25,911670  	28,429242  	27,325642  	28,717173  	28,096281  	30,348715  	29,961646  	32,979907  	62,366227  	26,366956  	25,446526  	27,802624  	68,370473  	0,364126  	0,184506  	-4483,042950  	22525,466392  	-0,022179  	-0,050008  	0,190284  	0,096418  	-4,138344  	4996,485775  	143516,562064  	20,815317  	-0,047958  
250,757000  	24,037487  	29,851124  	23,965925  	-242,047242  	79,995214  	69,768420  	0,010619  	0,006361  	0,003958  	0,004404  	0,004239  	0,000002  	-0,000000  	25,932192  	25,206384  	26,209995  	25,908043  	28,430718  	27,317526  	28,713150  	28,092735  	30,337245  	29,947986  	32,974740  	62,364466  	26,361978  	25,430126  	27,798242  	68,360763  	0,333806  	0,169142  	-4111,093443  	-27043,623152  	-0,103146  	-0,049980  	0,215262  	0,109075  	-4,673650  	5067,237464  	143533,077961  	20,817713  	-0,047934  
251,755000  	24,038317  	29,849924  	23,964819  	657,183579  	79,997151  	69,749173  	0,010628  	0,006346  	0,003961  	0,004354  	0,004275  	0,000001  	-0,000000  	25,934831  	25,207835  	26,210593  	25,904078  	28,434791  	27,319664  	28,712500  	28,095678  	30,342687  	29,954863  	32,974459  	62,369439  	26,370265  	25,415955  	27,803619  	68,360301  	0,293783  	0,148862  	-3616,907390  	18492,410099  	-0,027584  	-0,049985  	0,244254  	0,123765  	-5,314062  	5034,334144  	143730,781513  	20,846387  	-0,047939  
252,756000  	24,023080  	29,842847  	23,964880  	1256,670793  	80,001713  	69,738272  	0,010623  	0,006351  	0,003957  	0,004452  	0,004232  	-0,000000  	-0,000000  	25,945533  	25,211312  	26,210977  	25,912132  	28,444591  	27,330205  	28,723983  	28,107763  	30,358198  	29,972510  	32,984288  	62,375049  	26,377944  	25,403794  	27,810036  	68,375932  	0,372630  	0,188814  	-4594,079213  	25571,184223  	-0,018539  	-0,050005  	0,210055  	0,106436  	-4,576909  	5045,731101  	143626,136110  	20,831210  	-0,047956  
253,756000  	24,011745  	29,838908  	23,964420  	1256,670793  	80,006430  	69,750076  	0,010627  	0,006350  	0,003960  	0,004417  	0,004175  	0,000000  	-0,000000  	25,937491  	25,206005  	26,211364  	25,913708  	28,436075  	27,324144  	28,723198  	28,102592  	30,352442  	29,963254  	32,981948  	62,370864  	26,374492  	25,379284  	27,804648  	68,374691  	0,344544  	0,174583  	-4253,218773  	25567,319582  	-0,018536  	-0,049997  	0,164584  	0,083396  	-3,583674  	5043,932065  	143708,765024  	20,843194  	-0,047949  
254,758000  	23,993068  	29,832138  	23,963130  	657,183579  	80,008242  	69,743785  	0,010621  	0,006345  	0,003959  	0,004386  	0,004291  	0,000000  	-0,000000  	25,931223  	25,207979  	26,201332  	25,908319  	28,431030  	27,316889  	28,714960  	28,091971  	30,343936  	29,955241  	32,973476  	62,365579  	26,364420  	25,362893  	27,808281  	68,357217  	0,319222  	0,161752  	-3948,691497  	18496,884333  	-0,027590  	-0,049998  	0,256419  	0,129930  	-5,587713  	5032,475683  	143574,477151  	20,823717  	-0,047950  
255,755000  	23,982470  	29,825400  	23,962577  	657,183579  	80,010117  	69,757457  	0,010623  	0,006347  	0,003962  	0,004387  	0,004248  	-0,000001  	-0,000000  	25,941265  	25,215648  	26,210536  	25,913654  	28,444363  	27,331374  	28,729922  	28,105326  	30,347376  	29,953071  	32,981270  	62,368352  	26,375506  	25,354805  	27,817963  	68,369165  	0,319774  	0,162032  	-3958,137315  	18500,252285  	-0,027595  	-0,050009  	0,222679  	0,112833  	-4,846888  	5036,375833  	143636,664200  	20,832737  	-0,047959  
256,757000  	23,996294  	29,819553  	23,961041  	1256,670793  	80,014428  	69,764807  	0,010625  	0,006287  	0,003961  	0,004484  	0,004181  	0,000001  	-0,000000  	25,940007  	25,219518  	26,207283  	25,906786  	28,438872  	27,324595  	28,718886  	28,103330  	30,345604  	29,957506  	32,975769  	62,371466  	26,365362  	25,330190  	27,806067  	68,373600  	0,398525  	0,201935  	-4916,291900  	25561,877537  	-0,018532  	-0,049985  	0,169599  	0,085937  	-3,690462  	4907,808109  	143674,575210  	20,838235  	-0,047938  
257,754000  	23,988522  	29,809276  	23,960734  	-242,047242  	80,016834  	69,762502  	0,010616  	0,006246  	0,003959  	0,004445  	0,004246  	0,000001  	-0,000000  	25,933169  	25,209105  	26,209140  	25,916526  	28,431290  	27,327128  	28,710769  	28,104273  	30,344728  	29,962856  	32,976073  	62,364148  	26,357680  	25,316745  	27,802839  	68,376342  	0,367428  	0,186178  	-4530,726555  	-27047,510702  	-0,103163  	-0,049988  	0,220752  	0,111857  	-4,805751  	4819,034937  	143473,729472  	20,809105  	-0,047941  
258,756000  	23,980412  	29,803306  	23,959444  	357,439972  	80,011648  	69,755152  	0,010624  	0,006327  	0,003959  	0,004354  	0,004252  	0,000001  	-0,000000  	25,944400  	25,222927  	26,213013  	25,926318  	28,446319  	27,335785  	28,720665  	28,104201  	30,356627  	29,966054  	32,987914  	62,371604  	26,368121  	25,315316  	27,807745  	68,379988  	0,293558  	0,148748  	-3621,168793  	12545,809592  	-0,036500  	-0,049991  	0,225974  	0,114503  	-4,920463  	4993,476299  	143639,594554  	20,833162  	-0,047944  
259,756000  	23,985204  	29,802753  	23,959351  	1256,670793  	80,005493  	69,745030  	0,010626  	0,006348  	0,003960  	0,004445  	0,004208  	-0,000000  	-0,000000  	25,946100  	25,212434  	26,202644  	25,923109  	28,447366  	27,333340  	28,719217  	28,108625  	30,343526  	29,961397  	32,981886  	62,357105  	26,365888  	25,302428  	27,807401  	68,377988  	0,367466  	0,186198  	-4528,703686  	25571,612649  	-0,018539  	-0,050006  	0,190789  	0,096674  	-4,155934  	5038,497464  	143694,805243  	20,841169  	-0,047956  
260,755000  	24,004373  	29,797768  	23,958491  	57,696365  	80,005555  	69,728400  	0,010620  	0,006343  	0,003956  	0,004442  	0,004216  	-0,000002  	-0,000000  	25,948831  	25,217823  	26,214221  	25,928495  	28,443028  	27,328114  	28,727678  	28,109143  	30,354398  	29,957065  	32,984653  	62,371441  	26,364028  	25,299460  	27,810182  	68,380265  	0,364777  	0,184835  	-4476,892004  	1830,975804  	-0,053954  	-0,050023  	0,197692  	0,100172  	-4,313291  	5029,123095  	143560,912791  	20,821750  	-0,047971  
261,755000  	24,003052  	29,786967  	23,958184  	57,696365  	80,008742  	69,725815  	0,010615  	0,006329  	0,003960  	0,004328  	0,004259  	0,000000  	-0,000000  	25,945392  	25,211845  	26,214719  	25,928071  	28,434558  	27,340559  	28,730683  	28,108030  	30,351451  	29,966055  	32,980859  	62,370192  	26,367583  	25,305554  	27,799698  	68,390212  	0,272371  	0,138012  	-3337,321901  	1830,112092  	-0,053928  	-0,049996  	0,231665  	0,117387  	-5,057360  	4997,779694  	143451,642372  	20,805902  	-0,047948  
262,754000  	24,006799  	29,791460  	23,957938  	1256,670793  	80,013928  	69,731545  	0,010627  	0,006327  	0,003962  	0,004410  	0,004235  	0,000000  	-0,000001  	25,949098  	25,214889  	26,206379  	25,919950  	28,446983  	27,338516  	28,729525  	28,107432  	30,343143  	29,963475  	32,986269  	62,362359  	26,360421  	25,309675  	27,816177  	68,376373  	0,339180  	0,171865  	-4156,464392  	25566,226648  	-0,018536  	-0,049994  	0,212069  	0,107457  	-4,629319  	4992,905390  	143702,770156  	20,842325  	-0,047946  
263,755000  	24,020438  	29,797829  	23,957385  	1256,670793  	80,017427  	69,735843  	0,010616  	0,006331  	0,003960  	0,004541  	0,004200  	0,000001  	-0,000001  	25,943373  	25,209133  	26,205555  	25,919559  	28,440468  	27,336794  	28,721710  	28,100584  	30,348868  	29,961203  	32,974933  	62,366181  	26,347641  	25,315385  	27,806939  	68,370669  	0,444951  	0,225460  	-5445,778051  	25562,054139  	-0,018533  	-0,049985  	0,184948  	0,093715  	-4,036981  	5003,086247  	143478,072044  	20,809735  	-0,047938  
264,758000  	24,029838  	29,803983  	23,956648  	57,696365  	80,020739  	69,744190  	0,010628  	0,006340  	0,003957  	0,004364  	0,004273  	0,000001  	-0,000000  	25,946506  	25,206991  	26,207205  	25,917799  	28,444377  	27,333202  	28,718398  	28,097227  	30,357140  	29,960276  	32,979616  	62,360668  	26,348428  	25,331133  	27,815436  	68,387608  	0,301296  	0,152669  	-3685,502288  	1829,906936  	-0,053919  	-0,049987  	0,242797  	0,123027  	-5,297104  	5022,497155  	143734,580381  	20,846938  	-0,047940  
265,755000  	24,045505  	29,808845  	23,956188  	1256,670793  	80,015397  	69,748020  	0,010624  	0,006314  	0,003962  	0,004342  	0,004209  	-0,000000  	-0,000001  	25,936868  	25,213480  	26,210830  	25,910501  	28,442780  	27,329377  	28,718550  	28,099852  	30,348082  	29,960472  	32,978827  	62,367187  	26,350978  	25,330476  	27,801613  	68,370770  	0,283757  	0,143782  	-3464,457808  	25569,930899  	-0,018538  	-0,050002  	0,191878  	0,097226  	-4,182460  	4965,945325  	143655,637358  	20,835489  	-0,047953  
266,756000  	24,043600  	29,817645  	23,956065  	657,183579  	80,011273  	69,761039  	0,010617  	0,006263  	0,003960  	0,004460  	0,004203  	0,000000  	-0,000001  	25,944887  	25,215860  	26,216303  	25,916381  	28,442208  	27,328548  	28,722135  	28,100641  	30,355186  	29,973602  	32,985295  	62,369828  	26,351590  	25,332343  	27,810689  	68,385729  	0,379085  	0,192085  	-4636,937568  	18497,691771  	-0,027591  	-0,050000  	0,186713  	0,094609  	-4,063084  	4855,946647  	143492,215414  	20,811786  	-0,047951  
267,756000  	24,011622  	29,824292  	23,955973  	-242,047242  	80,002931  	69,760976  	0,010626  	0,006315  	0,003957  	0,004418  	0,004283  	0,000000  	-0,000000  	25,941367  	25,212226  	26,213495  	25,918375  	28,440262  	27,329672  	28,717015  	28,104379  	30,351178  	29,960134  	32,982542  	62,376522  	26,348211  	25,333545  	27,807812  	68,379060  	0,345548  	0,175092  	-4254,999982  	-27050,838619  	-0,103177  	-0,049995  	0,250374  	0,126866  	-5,444020  	4967,294425  	143700,524728  	20,841999  	-0,047947  
268,757000  	23,978323  	29,832723  	23,956034  	-242,047242  	79,996183  	69,760852  	0,010623  	0,006332  	0,003963  	0,004337  	0,004277  	0,000001  	-0,000000  	25,946599  	25,216632  	26,219746  	25,924295  	28,445010  	27,337328  	28,719586  	28,111061  	30,348096  	29,967299  	32,975779  	62,373611  	26,350860  	25,332820  	27,808524  	68,386524  	0,279849  	0,141802  	-3470,746985  	-27047,656274  	-0,103165  	-0,049988  	0,245349  	0,124320  	-5,331326  	5004,840006  	143624,187248  	20,830927  	-0,047941  
269,754000  	23,977955  	29,826723  	23,955911  	956,927186  	79,992121  	69,743318  	0,010609  	0,006335  	0,003959  	0,004458  	0,004248  	-0,000001  	-0,000001  	25,942145  	25,225236  	26,220894  	25,926993  	28,445631  	27,338578  	28,720365  	28,112216  	30,354013  	29,976616  	32,985601  	62,372378  	26,350663  	25,324073  	27,810692  	68,388454  	0,377823  	0,191446  	-4681,337310  	22529,271518  	-0,022183  	-0,050017  	0,222577  	0,112781  	-4,842845  	5010,967905  	143324,563876  	20,787471  	-0,047966  
270,758000  	23,992699  	29,808076  	23,956157  	357,439972  	79,993371  	69,733974  	0,010627  	0,006295  	0,003962  	0,004460  	0,004221  	-0,000000  	-0,000000  	25,938812  	25,217400  	26,205990  	25,924622  	28,442236  	27,330683  	28,716452  	28,103153  	30,354002  	29,963235  	32,980254  	62,367141  	26,354792  	25,308210  	27,812166  	68,382510  	0,379640  	0,192366  	-4676,980908  	12548,298910  	-0,036507  	-0,050001  	0,201440  	0,102071  	-4,387469  	4925,635751  	143723,282632  	20,845300  	-0,047953  
271,756000  	24,012697  	29,796629  	23,955235  	357,439972  	79,996276  	69,734410  	0,010626  	0,006354  	0,003955  	0,004351  	0,004287  	0,000001  	-0,000001  	25,945621  	25,216825  	26,210099  	25,918887  	28,447881  	27,334528  	28,719465  	28,104384  	30,350659  	29,964987  	32,980135  	62,367105  	26,364596  	25,300259  	27,813509  	68,382205  	0,290980  	0,147442  	-3565,351826  	12545,955944  	-0,036500  	-0,049991  	0,253714  	0,128559  	-5,527363  	5052,523999  	143684,905590  	20,839734  	-0,047943  
272,754000  	24,016199  	29,801983  	23,954498  	-242,047242  	79,996776  	69,735469  	0,010616  	0,006280  	0,003964  	0,004403  	0,004204  	0,000001  	-0,000000  	25,947274  	25,217907  	26,218525  	25,917727  	28,445603  	27,337818  	28,725324  	28,109354  	30,361530  	29,969930  	32,983104  	62,373153  	26,369390  	25,299781  	27,810806  	68,386040  	0,333038  	0,168753  	-4081,991926  	-27050,179830  	-0,103175  	-0,049994  	0,187569  	0,095043  	-4,086114  	4891,989613  	143475,388829  	20,809346  	-0,047946  
273,760000  	24,020008  	29,809122  	23,953822  	1256,670793  	79,997870  	69,714198  	0,010627  	0,006320  	0,003961  	0,004457  	0,004194  	0,000001  	-0,000000  	25,948608  	25,219205  	26,217656  	25,919071  	28,444846  	27,335670  	28,725644  	28,106380  	30,364860  	29,967503  	32,989012  	62,368078  	26,376487  	25,293779  	27,811913  	68,389373  	0,377237  	0,191149  	-4626,390701  	25565,886451  	-0,018535  	-0,049993  	0,179871  	0,091142  	-3,926949  	4978,927669  	143709,273423  	20,843268  	-0,047945  
274,757000  	24,014540  	29,811399  	23,954068  	1256,670793  	79,996870  	69,710211  	0,010622  	0,006353  	0,003957  	0,004368  	0,004291  	-0,000000  	-0,000000  	25,942915  	25,219707  	26,209878  	25,918481  	28,439291  	27,330427  	28,720959  	28,098174  	30,348960  	29,964271  	32,984188  	62,359800  	26,373402  	25,276080  	27,804967  	68,381539  	0,304697  	0,154392  	-3741,764530  	25570,269291  	-0,018538  	-0,050003  	0,256997  	0,130222  	-5,612393  	5049,348273  	143597,877615  	20,827111  	-0,047954  
275,756000  	24,018503  	29,812968  	23,953423  	357,439972  	79,993808  	69,726001  	0,010617  	0,006296  	0,003963  	0,004370  	0,004211  	0,000001  	-0,000001  	25,936503  	25,214970  	26,205928  	25,914631  	28,430953  	27,324741  	28,719786  	28,097580  	30,342198  	29,961032  	32,973550  	62,362907  	26,370760  	25,258133  	27,802301  	68,377395  	0,306700  	0,155407  	-3764,811835  	12544,842920  	-0,036497  	-0,049985  	0,193003  	0,097796  	-4,207157  	4926,621224  	143496,882797  	20,812463  	-0,047939  
276,755000  	24,032265  	29,810261  	23,952870  	956,927186  	79,989184  	69,722202  	0,010627  	0,006343  	0,003962  	0,004469  	0,004219  	0,000000  	-0,000001  	25,941854  	25,211672  	26,210506  	25,905973  	28,436056  	27,321745  	28,717547  	28,102076  	30,343032  	29,957219  	32,976532  	62,364339  	26,377004  	25,245069  	27,809751  	68,384413  	0,386995  	0,196093  	-4736,944067  	22520,792131  	-0,022174  	-0,049995  	0,199851  	0,101266  	-4,356072  	5029,394755  	143701,986375  	20,842211  	-0,047948  
277,757000  	24,040805  	29,809245  	23,952532  	956,927186  	79,982311  	69,730704  	0,010621  	0,006357  	0,003960  	0,004330  	0,004288  	-0,000000  	-0,000000  	25,942886  	25,214198  	26,213273  	25,907165  	28,442073  	27,324100  	28,713142  	28,101472  	30,340721  	29,957966  	32,980203  	62,361610  	26,373289  	25,235622  	27,808139  	68,389507  	0,274071  	0,138874  	-3349,166429  	22524,066922  	-0,022177  	-0,050004  	0,254509  	0,128961  	-5,539122  	5058,673828  	143582,018399  	20,824811  	-0,047954  
278,754000  	24,026060  	29,813922  	23,950443  	357,439972  	79,984686  	69,734877  	0,010621  	0,006351  	0,003960  	0,004386  	0,004235  	0,000001  	-0,000000  	25,942819  	25,215755  	26,214855  	25,918408  	28,445490  	27,332282  	28,719254  	28,105111  	30,346042  	29,963729  	32,980526  	62,365515  	26,372214  	25,235062  	27,808906  	68,396487  	0,319651  	0,161969  	-3919,308570  	12546,690207  	-0,036502  	-0,049993  	0,212736  	0,107795  	-4,629176  	5045,366059  	143587,144753  	20,825555  	-0,047945  
279,756000  	24,020438  	29,820661  	23,949706  	357,439972  	79,993433  	69,733881  	0,010626  	0,006331  	0,003961  	0,004450  	0,004215  	-0,000000  	-0,000001  	25,945636  	25,206629  	26,212044  	25,912775  	28,442189  	27,327611  	28,719912  	28,103639  	30,343655  	29,958614  	32,974863  	62,366238  	26,362047  	25,229597  	27,797841  	68,388897  	0,371171  	0,188075  	-4560,733393  	12548,833252  	-0,036508  	-0,050002  	0,196254  	0,099444  	-4,274591  	5003,014795  	143690,384998  	20,840528  	-0,047953  
280,758000  	24,009441  	29,821707  	23,948846  	956,927186  	79,997807  	69,739549  	0,010610  	0,006347  	0,003961  	0,004367  	0,004288  	-0,000000  	-0,000000  	25,945607  	25,211691  	26,214984  	25,916213  	28,442474  	27,325041  	28,716849  	28,093934  	30,352587  	29,965235  	32,974231  	62,366211  	26,351956  	25,221932  	27,799801  	68,386667  	0,303631  	0,153852  	-3738,589805  	22523,895785  	-0,022177  	-0,050003  	0,254061  	0,128734  	-5,532964  	5037,437002  	143355,138410  	20,791905  	-0,047954  
281,755000  	23,992177  	29,825584  	23,948262  	1256,670793  	79,998245  	69,747179  	0,010627  	0,006345  	0,003959  	0,004352  	0,004232  	0,000000  	-0,000001  	25,940513  	25,212082  	26,207964  	25,919747  	28,437474  	27,322154  	28,712807  	28,094940  	30,344034  	29,962768  	32,973728  	62,354685  	26,335343  	25,216970  	27,803069  	68,382477  	0,292186  	0,148053  	-3610,752876  	25566,662237  	-0,018536  	-0,049994  	0,210043  	0,106430  	-4,571131  	5032,913592  	143710,537359  	20,843451  	-0,047947  
282,755000  	23,995679  	29,825769  	23,947095  	1256,670793  	79,997682  	69,753408  	0,010621  	0,006339  	0,003960  	0,004416  	0,004189  	0,000001  	-0,000000  	25,939198  	25,208627  	26,207296  	25,917604  	28,445305  	27,322425  	28,723927  	28,097032  	30,341496  	29,964820  	32,982814  	62,367855  	26,341685  	25,214536  	27,803070  	68,385595  	0,344040  	0,174328  	-4249,137727  	25564,314626  	-0,018534  	-0,049989  	0,176172  	0,089267  	-3,831463  	5018,893424  	143579,370489  	20,824427  	-0,047942  
283,756000  	23,997707  	29,818938  	23,946542  	1256,670793  	79,994527  	69,745186  	0,010619  	0,006354  	0,003958  	0,004359  	0,004320  	-0,000001  	-0,000000  	25,934728  	25,206450  	26,200881  	25,902863  	28,431150  	27,321081  	28,714862  	28,098273  	30,340999  	29,958180  	32,967142  	62,355140  	26,328375  	25,203786  	27,789585  	68,373949  	0,297805  	0,150900  	-3672,512596  	25574,415607  	-0,018541  	-0,050011  	0,279834  	0,141794  	-6,088979  	5051,820797  	143539,284662  	20,818613  	-0,047961  
284,756000  	23,977985  	29,811614  	23,944515  	57,696365  	79,991528  	69,751477  	0,010614  	0,006350  	0,003959  	0,004399  	0,004228  	0,000000  	-0,000001  	25,939522  	25,211247  	26,206174  	25,910112  	28,441638  	27,330030  	28,716241  	28,101128  	30,353836  	29,962169  	32,976546  	62,357732  	26,328254  	25,198020  	27,805017  	68,377163  	0,330288  	0,167360  	-4081,771540  	1831,011001  	-0,053933  	-0,050000  	0,207021  	0,104899  	-4,500536  	5043,857076  	143430,586192  	20,802848  	-0,047951  
285,755000  	23,995280  	29,810414  	23,943532  	-242,047242  	79,994058  	69,752848  	0,010623  	0,006339  	0,003960  	0,004392  	0,004180  	0,000000  	-0,000000  	25,948262  	25,221792  	26,218923  	25,912742  	28,451279  	27,335067  	28,716151  	28,093598  	30,346799  	29,964624  	32,981415  	62,365703  	26,325339  	25,190776  	27,801756  	68,383232  	0,323909  	0,164127  	-3990,244659  	-27050,250031  	-0,103180  	-0,049994  	0,168612  	0,085437  	-3,665961  	5019,750141  	143619,872920  	20,830301  	-0,047947  
286,756000  	24,015370  	29,801799  	23,942242  	-242,047242  	79,997995  	69,764309  	0,010610  	0,006341  	0,003958  	0,004405  	0,004270  	-0,000000  	-0,000000  	25,944870  	25,205558  	26,214476  	25,909621  	28,443972  	27,324388  	28,714533  	28,105717  	30,345012  	29,957548  	32,983950  	62,365819  	26,323468  	25,186910  	27,801654  	68,382488  	0,335090  	0,169793  	-4107,598761  	-27055,962281  	-0,103202  	-0,050006  	0,239950  	0,121585  	-5,213173  	5023,528611  	143350,033239  	20,791165  	-0,047957  
287,771000  	24,006799  	29,799952  	23,941136  	657,183579  	80,001900  	69,755651  	0,010619  	0,006341  	0,003961  	0,004375  	0,004212  	0,000001  	-0,000000  	25,941488  	25,210936  	26,213403  	25,914079  	28,453707  	27,329065  	28,721962  	28,103496  	30,350599  	29,958545  	32,972410  	62,369764  	26,316923  	25,187277  	27,796729  	68,377023  	0,310711  	0,157440  	-3813,182734  	18494,515533  	-0,027586  	-0,049988  	0,194024  	0,098314  	-4,220553  	5024,825360  	143547,715608  	20,819836  	-0,047941  
288,774000  	23,989351  	29,805860  	23,940337  	57,696365  	80,004774  	69,765056  	0,010614  	0,006240  	0,003962  	0,004423  	0,004256  	0,000001  	-0,000000  	25,941864  	25,215076  	26,212721  	25,919149  	28,445963  	27,334081  	28,713070  	28,100607  	30,357631  	29,964257  	32,983737  	62,360192  	26,327216  	25,178983  	27,808774  	68,388315  	0,349605  	0,177147  	-4307,808386  	1830,896141  	-0,053922  	-0,049989  	0,228847  	0,115958  	-4,974869  	4805,957795  	143436,694038  	20,803734  	-0,047942  
289,755000  	23,998167  	29,810784  	23,940030  	1256,670793  	80,002275  	69,765243  	0,010614  	0,006320  	0,003960  	0,004371  	0,004254  	-0,000000  	-0,000000  	25,939741  	25,214593  	26,218529  	25,923291  	28,445331  	27,330249  	28,728541  	28,107372  	30,350859  	29,969255  	32,986621  	62,366489  	26,324137  	25,180855  	27,813392  	68,381670  	0,307227  	0,155674  	-3783,090417  	25571,093612  	-0,018539  	-0,050003  	0,227037  	0,115042  	-4,934239  	4979,045813  	143426,575491  	20,802266  	-0,047954  
290,757000  	24,006953  	29,809799  	23,938925  	657,183579  	80,000338  	69,764496  	0,010627  	0,006353  	0,003959  	0,004402  	0,004189  	0,000001  	-0,000000  	25,950478  	25,215523  	26,219896  	25,917393  	28,442115  	27,334932  	28,725238  	28,109232  	30,349686  	29,973353  	32,976207  	62,365940  	26,330171  	25,174812  	27,812185  	68,386621  	0,332370  	0,168414  	-4085,811334  	18493,650609  	-0,027585  	-0,049985  	0,176017  	0,089189  	-3,824963  	5050,454719  	143714,915236  	20,844086  	-0,047939  
291,754000  	24,025568  	29,806014  	23,937081  	-242,047242  	79,998932  	69,731763  	0,010621  	0,006338  	0,003959  	0,004407  	0,004228  	0,000001  	-0,000000  	25,935663  	25,203410  	26,211858  	25,908579  	28,430066  	27,321269  	28,711041  	28,089866  	30,341486  	29,957630  	32,959768  	62,354868  	26,322336  	25,156341  	27,799033  	68,368770  	0,336123  	0,170316  	-4115,998127  	-27047,599392  	-0,103172  	-0,049989  	0,206946  	0,104861  	-4,510806  	5016,950069  	143574,943184  	20,823785  	-0,047942  
292,757000  	24,033862  	29,801276  	23,935238  	956,927186  	79,998057  	69,724911  	0,010626  	0,006292  	0,003959  	0,004365  	0,004282  	0,000001  	-0,000000  	25,934197  	25,201611  	26,208320  	25,916877  	28,443899  	27,321646  	28,723149  	28,093363  	30,348428  	29,958256  	32,978088  	62,359897  	26,326139  	25,159926  	27,800916  	68,374292  	0,301992  	0,153022  	-3689,705883  	22517,573077  	-0,022171  	-0,049986  	0,249704  	0,126527  	-5,445966  	4918,828705  	143683,782876  	20,839571  	-0,047939  
293,755000  	24,018564  	29,807399  	23,933273  	1256,670793  	79,997057  	69,727091  	0,010626  	0,006279  	0,003961  	0,004393  	0,004190  	0,000001  	-0,000000  	25,937522  	25,213775  	26,214138  	25,916713  	28,445998  	27,335655  	28,722392  	28,100071  	30,348292  	29,960067  	32,979412  	62,362728  	26,331387  	25,153807  	27,798538  	68,372166  	0,325111  	0,164736  	-3986,925407  	25566,345224  	-0,018535  	-0,049993  	0,176752  	0,089562  	-3,853721  	4891,236890  	143692,157333  	20,840785  	-0,047945  
294,755000  	23,988522  	29,818169  	23,931122  	1256,670793  	79,993683  	69,740297  	0,010622  	0,006266  	0,003959  	0,004416  	0,004318  	0,000000  	-0,000000  	25,941563  	25,210070  	26,216991  	25,920563  	28,446417  	27,338476  	28,725265  	28,096020  	30,354715  	29,970624  	32,983352  	62,355716  	26,320755  	25,151576  	27,807466  	68,377470  	0,343913  	0,174263  	-4247,241836  	25567,021654  	-0,018536  	-0,049994  	0,278047  	0,140888  	-6,052466  	4862,339838  	143599,536972  	20,827352  	-0,047946  
295,755000  	23,982347  	29,819922  	23,928726  	357,439972  	79,991184  	69,730704  	0,010624  	0,006251  	0,003960  	0,004405  	0,004246  	0,000001  	-0,000000  	25,943606  	25,198259  	26,208704  	25,917048  	28,441807  	27,326881  	28,710247  	28,094307  	30,344376  	29,962439  	32,977146  	62,352884  	26,312253  	25,140094  	27,802316  	68,370809  	0,334472  	0,169479  	-4136,265337  	12546,833681  	-0,036500  	-0,049989  	0,221337  	0,112153  	-4,821353  	4829,452789  	143640,696085  	20,833322  	-0,047942  
296,757000  	23,977678  	29,809707  	23,926085  	956,927186  	79,985373  	69,714758  	0,010621  	0,006282  	0,003961  	0,004430  	0,004192  	0,000001  	-0,000000  	25,941062  	25,202503  	26,208918  	25,910551  	28,435915  	27,323015  	28,710799  	28,095992  	30,348628  	29,961110  	32,973532  	62,354295  	26,312302  	25,130770  	27,802144  	68,367131  	0,354848  	0,179804  	-4384,086764  	22519,999595  	-0,022173  	-0,049991  	0,178513  	0,090454  	-3,892347  	4896,281689  	143574,738412  	20,823755  	-0,047944  
297,754000  	23,969630  	29,791244  	23,923259  	-242,047242  	79,976969  	69,697224  	0,010615  	0,006316  	0,003957  	0,004393  	0,004254  	0,000000  	-0,000000  	25,940973  	25,211989  	26,213905  	25,910756  	28,440505  	27,325053  	28,712944  	28,101192  	30,357342  	29,962443  	32,978104  	62,361573  	26,311595  	25,138725  	27,807926  	68,371711  	0,325222  	0,164792  	-4010,883349  	-27051,548271  	-0,103193  	-0,049998  	0,227216  	0,115132  	-4,958678  	4969,965741  	143455,377691  	20,806443  	-0,047950  
298,757000  	23,967111  	29,778506  	23,921047  	357,439972  	79,967409  	69,680594  	0,010623  	0,006343  	0,003961  	0,004357  	0,004244  	0,000001  	-0,000001  	25,941525  	25,205752  	26,211489  	25,908247  	28,440375  	27,329416  	28,712668  	28,104998  	30,352162  	29,962313  	32,980017  	62,363625  	26,312082  	25,146242  	27,804437  	68,370106  	0,295822  	0,149895  	-3641,900342  	12545,714623  	-0,036496  	-0,049982  	0,219420  	0,111182  	-4,791817  	5027,379241  	143616,469473  	20,829808  	-0,047936  
299,755000  	23,970797  	29,770936  	23,918467  	1256,670793  	79,963503  	69,678165  	0,010627  	0,006320  	0,003961  	0,004437  	0,004233  	0,000000  	-0,000000  	25,936351  	25,204006  	26,204253  	25,908678  	28,433448  	27,323198  	28,713087  	28,097895  	30,343110  	29,956333  	32,973859  	62,356956  	26,310650  	25,136542  	27,791752  	68,363054  	0,360665  	0,182752  	-4431,591529  	25569,108084  	-0,018537  	-0,049998  	0,211036  	0,106933  	-4,608052  	4979,069158  	143702,169963  	20,842238  	-0,047949  
300,755000  	23,973439  	29,762997  	23,915887  	1256,670793  	79,962504  	69,665458  	0,010622  	0,006355  	0,003960  	0,004427  	0,004252  	-0,000001  	-0,000000  	25,930607  	25,203461  	26,201969  	25,910708  	28,433045  	27,315695  	28,706917  	28,090647  	30,337199  	29,952514  	32,968467  	62,352429  	26,301243  	25,126572  	27,788763  	68,364337  	0,352946  	0,178841  	-4328,834402  	25574,157676  	-0,018541  	-0,050008  	0,226016  	0,114524  	-4,940762  	5053,422455  	143594,749550  	20,826658  	-0,047959  
301,757000  	23,981641  	29,763151  	23,911955  	956,927186  	79,962066  	69,678009  	0,010628  	0,006334  	0,003962  	0,004400  	0,004205  	0,000000  	-0,000001  	25,934664  	25,203231  	26,203635  	25,909886  	28,436952  	27,318881  	28,709860  	28,092982  	30,339997  	29,958243  	32,973039  	62,357472  	26,300923  	25,127221  	27,792162  	68,374280  	0,330402  	0,167417  	-4046,689600  	22523,847995  	-0,022176  	-0,049999  	0,188997  	0,095766  	-4,126309  	5009,941401  	143730,830941  	20,846395  	-0,047951  
